Created as New Dataset,Sample 1074 By YargerLab Date Tuesday, August 05 2025
cm-1,A
4000.00,0.0007
3999.00,0.0007
3998.00,0.0007
3997.00,0.0007
3996.00,0.0007
3995.00,0.0006
3994.00,0.0006
3993.00,0.0006
3992.00,0.0007
3991.00,0.0007
3990.00,0.0007
3989.00,0.0007
3988.00,0.0007
3987.00,0.0007
3986.00,0.0007
3985.00,0.0007
3984.00,0.0007
3983.00,0.0007
3982.00,0.0007
3981.00,0.0007
3980.00,0.0007
3979.00,0.0007
3978.00,0.0007
3977.00,0.0007
3976.00,0.0006
3975.00,0.0006
3974.00,0.0006
3973.00,0.0006
3972.00,0.0006
3971.00,0.0006
3970.00,0.0007
3969.00,0.0007
3968.00,0.0007
3967.00,0.0007
3966.00,0.0007
3965.00,0.0007
3964.00,0.0006
3963.00,0.0006
3962.00,0.0006
3961.00,0.0006
3960.00,0.0006
3959.00,0.0007
3958.00,0.0007
3957.00,0.0007
3956.00,0.0007
3955.00,0.0007
3954.00,0.0007
3953.00,0.0006
3952.00,0.0006
3951.00,0.0006
3950.00,0.0006
3949.00,0.0006
3948.00,0.0006
3947.00,0.0006
3946.00,0.0006
3945.00,0.0006
3944.00,0.0006
3943.00,0.0006
3942.00,0.0006
3941.00,0.0006
3940.00,0.0006
3939.00,0.0006
3938.00,0.0006
3937.00,0.0006
3936.00,0.0006
3935.00,0.0006
3934.00,0.0006
3933.00,0.0006
3932.00,0.0006
3931.00,0.0006
3930.00,0.0006
3929.00,0.0006
3928.00,0.0006
3927.00,0.0006
3926.00,0.0006
3925.00,0.0006
3924.00,0.0006
3923.00,0.0006
3922.00,0.0006
3921.00,0.0006
3920.00,0.0006
3919.00,0.0006
3918.00,0.0006
3917.00,0.0006
3916.00,0.0006
3915.00,0.0006
3914.00,0.0006
3913.00,0.0006
3912.00,0.0006
3911.00,0.0006
3910.00,0.0006
3909.00,0.0006
3908.00,0.0006
3907.00,0.0006
3906.00,0.0006
3905.00,0.0006
3904.00,0.0006
3903.00,0.0006
3902.00,0.0006
3901.00,0.0006
3900.00,0.0006
3899.00,0.0006
3898.00,0.0006
3897.00,0.0006
3896.00,0.0006
3895.00,0.0006
3894.00,0.0006
3893.00,0.0006
3892.00,0.0006
3891.00,0.0006
3890.00,0.0006
3889.00,0.0006
3888.00,0.0006
3887.00,0.0006
3886.00,0.0006
3885.00,0.0006
3884.00,0.0006
3883.00,0.0006
3882.00,0.0006
3881.00,0.0005
3880.00,0.0005
3879.00,0.0006
3878.00,0.0006
3877.00,0.0006
3876.00,0.0006
3875.00,0.0006
3874.00,0.0006
3873.00,0.0006
3872.00,0.0006
3871.00,0.0006
3870.00,0.0006
3869.00,0.0006
3868.00,0.0006
3867.00,0.0006
3866.00,0.0006
3865.00,0.0006
3864.00,0.0006
3863.00,0.0006
3862.00,0.0006
3861.00,0.0006
3860.00,0.0007
3859.00,0.0007
3858.00,0.0007
3857.00,0.0007
3856.00,0.0007
3855.00,0.0007
3854.00,0.0006
3853.00,0.0006
3852.00,0.0006
3851.00,0.0006
3850.00,0.0006
3849.00,0.0006
3848.00,0.0007
3847.00,0.0007
3846.00,0.0007
3845.00,0.0007
3844.00,0.0007
3843.00,0.0007
3842.00,0.0007
3841.00,0.0007
3840.00,0.0007
3839.00,0.0007
3838.00,0.0007
3837.00,0.0007
3836.00,0.0007
3835.00,0.0007
3834.00,0.0007
3833.00,0.0007
3832.00,0.0007
3831.00,0.0007
3830.00,0.0007
3829.00,0.0007
3828.00,0.0007
3827.00,0.0008
3826.00,0.0008
3825.00,0.0008
3824.00,0.0008
3823.00,0.0008
3822.00,0.0008
3821.00,0.0007
3820.00,0.0008
3819.00,0.0008
3818.00,0.0008
3817.00,0.0007
3816.00,0.0007
3815.00,0.0007
3814.00,0.0007
3813.00,0.0007
3812.00,0.0007
3811.00,0.0007
3810.00,0.0007
3809.00,0.0008
3808.00,0.0008
3807.00,0.0008
3806.00,0.0008
3805.00,0.0009
3804.00,0.0009
3803.00,0.0009
3802.00,0.0008
3801.00,0.0008
3800.00,0.0008
3799.00,0.0008
3798.00,0.0008
3797.00,0.0008
3796.00,0.0008
3795.00,0.0008
3794.00,0.0009
3793.00,0.0009
3792.00,0.0009
3791.00,0.0010
3790.00,0.0010
3789.00,0.0010
3788.00,0.0010
3787.00,0.0011
3786.00,0.0011
3785.00,0.0011
3784.00,0.0011
3783.00,0.0011
3782.00,0.0011
3781.00,0.0011
3780.00,0.0011
3779.00,0.0011
3778.00,0.0012
3777.00,0.0012
3776.00,0.0012
3775.00,0.0012
3774.00,0.0012
3773.00,0.0012
3772.00,0.0012
3771.00,0.0013
3770.00,0.0013
3769.00,0.0013
3768.00,0.0013
3767.00,0.0013
3766.00,0.0013
3765.00,0.0012
3764.00,0.0012
3763.00,0.0012
3762.00,0.0012
3761.00,0.0012
3760.00,0.0013
3759.00,0.0013
3758.00,0.0013
3757.00,0.0013
3756.00,0.0013
3755.00,0.0013
3754.00,0.0013
3753.00,0.0012
3752.00,0.0012
3751.00,0.0012
3750.00,0.0012
3749.00,0.0011
3748.00,0.0011
3747.00,0.0011
3746.00,0.0010
3745.00,0.0010
3744.00,0.0010
3743.00,0.0011
3742.00,0.0011
3741.00,0.0011
3740.00,0.0011
3739.00,0.0011
3738.00,0.0011
3737.00,0.0011
3736.00,0.0011
3735.00,0.0012
3734.00,0.0012
3733.00,0.0012
3732.00,0.0013
3731.00,0.0013
3730.00,0.0013
3729.00,0.0013
3728.00,0.0013
3727.00,0.0013
3726.00,0.0014
3725.00,0.0014
3724.00,0.0014
3723.00,0.0015
3722.00,0.0015
3721.00,0.0015
3720.00,0.0016
3719.00,0.0016
3718.00,0.0016
3717.00,0.0016
3716.00,0.0016
3715.00,0.0017
3714.00,0.0017
3713.00,0.0018
3712.00,0.0018
3711.00,0.0018
3710.00,0.0019
3709.00,0.0019
3708.00,0.0020
3707.00,0.0021
3706.00,0.0021
3705.00,0.0022
3704.00,0.0022
3703.00,0.0022
3702.00,0.0023
3701.00,0.0024
3700.00,0.0025
3699.00,0.0025
3698.00,0.0026
3697.00,0.0026
3696.00,0.0026
3695.00,0.0027
3694.00,0.0027
3693.00,0.0027
3692.00,0.0028
3691.00,0.0028
3690.00,0.0028
3689.00,0.0029
3688.00,0.0030
3687.00,0.0030
3686.00,0.0031
3685.00,0.0032
3684.00,0.0033
3683.00,0.0033
3682.00,0.0034
3681.00,0.0035
3680.00,0.0036
3679.00,0.0036
3678.00,0.0037
3677.00,0.0038
3676.00,0.0038
3675.00,0.0039
3674.00,0.0040
3673.00,0.0041
3672.00,0.0041
3671.00,0.0042
3670.00,0.0043
3669.00,0.0044
3668.00,0.0045
3667.00,0.0046
3666.00,0.0047
3665.00,0.0048
3664.00,0.0049
3663.00,0.0050
3662.00,0.0050
3661.00,0.0051
3660.00,0.0051
3659.00,0.0052
3658.00,0.0052
3657.00,0.0053
3656.00,0.0054
3655.00,0.0054
3654.00,0.0055
3653.00,0.0055
3652.00,0.0056
3651.00,0.0057
3650.00,0.0057
3649.00,0.0058
3648.00,0.0058
3647.00,0.0058
3646.00,0.0058
3645.00,0.0058
3644.00,0.0059
3643.00,0.0059
3642.00,0.0059
3641.00,0.0060
3640.00,0.0060
3639.00,0.0060
3638.00,0.0060
3637.00,0.0061
3636.00,0.0061
3635.00,0.0061
3634.00,0.0061
3633.00,0.0060
3632.00,0.0060
3631.00,0.0060
3630.00,0.0061
3629.00,0.0061
3628.00,0.0061
3627.00,0.0062
3626.00,0.0062
3625.00,0.0062
3624.00,0.0062
3623.00,0.0062
3622.00,0.0062
3621.00,0.0062
3620.00,0.0062
3619.00,0.0062
3618.00,0.0062
3617.00,0.0062
3616.00,0.0062
3615.00,0.0062
3614.00,0.0062
3613.00,0.0062
3612.00,0.0062
3611.00,0.0062
3610.00,0.0063
3609.00,0.0063
3608.00,0.0064
3607.00,0.0064
3606.00,0.0065
3605.00,0.0065
3604.00,0.0065
3603.00,0.0066
3602.00,0.0066
3601.00,0.0066
3600.00,0.0066
3599.00,0.0066
3598.00,0.0067
3597.00,0.0067
3596.00,0.0067
3595.00,0.0068
3594.00,0.0068
3593.00,0.0068
3592.00,0.0068
3591.00,0.0069
3590.00,0.0069
3589.00,0.0069
3588.00,0.0069
3587.00,0.0069
3586.00,0.0069
3585.00,0.0070
3584.00,0.0070
3583.00,0.0070
3582.00,0.0071
3581.00,0.0071
3580.00,0.0071
3579.00,0.0072
3578.00,0.0072
3577.00,0.0072
3576.00,0.0072
3575.00,0.0072
3574.00,0.0072
3573.00,0.0072
3572.00,0.0072
3571.00,0.0072
3570.00,0.0073
3569.00,0.0073
3568.00,0.0074
3567.00,0.0074
3566.00,0.0075
3565.00,0.0075
3564.00,0.0076
3563.00,0.0076
3562.00,0.0076
3561.00,0.0077
3560.00,0.0077
3559.00,0.0077
3558.00,0.0077
3557.00,0.0078
3556.00,0.0078
3555.00,0.0078
3554.00,0.0079
3553.00,0.0079
3552.00,0.0080
3551.00,0.0080
3550.00,0.0081
3549.00,0.0081
3548.00,0.0082
3547.00,0.0082
3546.00,0.0082
3545.00,0.0083
3544.00,0.0083
3543.00,0.0083
3542.00,0.0084
3541.00,0.0084
3540.00,0.0085
3539.00,0.0085
3538.00,0.0085
3537.00,0.0086
3536.00,0.0087
3535.00,0.0087
3534.00,0.0088
3533.00,0.0088
3532.00,0.0089
3531.00,0.0089
3530.00,0.0089
3529.00,0.0090
3528.00,0.0090
3527.00,0.0091
3526.00,0.0091
3525.00,0.0092
3524.00,0.0092
3523.00,0.0093
3522.00,0.0093
3521.00,0.0093
3520.00,0.0094
3519.00,0.0094
3518.00,0.0095
3517.00,0.0095
3516.00,0.0095
3515.00,0.0096
3514.00,0.0096
3513.00,0.0097
3512.00,0.0097
3511.00,0.0097
3510.00,0.0098
3509.00,0.0098
3508.00,0.0099
3507.00,0.0099
3506.00,0.0100
3505.00,0.0100
3504.00,0.0101
3503.00,0.0101
3502.00,0.0101
3501.00,0.0102
3500.00,0.0102
3499.00,0.0103
3498.00,0.0103
3497.00,0.0104
3496.00,0.0104
3495.00,0.0105
3494.00,0.0105
3493.00,0.0105
3492.00,0.0106
3491.00,0.0106
3490.00,0.0106
3489.00,0.0107
3488.00,0.0107
3487.00,0.0108
3486.00,0.0108
3485.00,0.0108
3484.00,0.0108
3483.00,0.0109
3482.00,0.0109
3481.00,0.0110
3480.00,0.0110
3479.00,0.0111
3478.00,0.0111
3477.00,0.0111
3476.00,0.0112
3475.00,0.0112
3474.00,0.0112
3473.00,0.0113
3472.00,0.0113
3471.00,0.0113
3470.00,0.0114
3469.00,0.0114
3468.00,0.0114
3467.00,0.0115
3466.00,0.0115
3465.00,0.0115
3464.00,0.0115
3463.00,0.0116
3462.00,0.0116
3461.00,0.0116
3460.00,0.0116
3459.00,0.0116
3458.00,0.0117
3457.00,0.0117
3456.00,0.0117
3455.00,0.0118
3454.00,0.0118
3453.00,0.0118
3452.00,0.0118
3451.00,0.0118
3450.00,0.0119
3449.00,0.0119
3448.00,0.0119
3447.00,0.0119
3446.00,0.0120
3445.00,0.0120
3444.00,0.0120
3443.00,0.0120
3442.00,0.0120
3441.00,0.0121
3440.00,0.0121
3439.00,0.0121
3438.00,0.0122
3437.00,0.0122
3436.00,0.0122
3435.00,0.0122
3434.00,0.0122
3433.00,0.0122
3432.00,0.0123
3431.00,0.0123
3430.00,0.0123
3429.00,0.0123
3428.00,0.0123
3427.00,0.0123
3426.00,0.0124
3425.00,0.0124
3424.00,0.0124
3423.00,0.0124
3422.00,0.0124
3421.00,0.0124
3420.00,0.0124
3419.00,0.0124
3418.00,0.0124
3417.00,0.0125
3416.00,0.0125
3415.00,0.0125
3414.00,0.0125
3413.00,0.0125
3412.00,0.0125
3411.00,0.0125
3410.00,0.0125
3409.00,0.0126
3408.00,0.0126
3407.00,0.0126
3406.00,0.0126
3405.00,0.0126
3404.00,0.0126
3403.00,0.0126
3402.00,0.0126
3401.00,0.0126
3400.00,0.0126
3399.00,0.0126
3398.00,0.0126
3397.00,0.0126
3396.00,0.0126
3395.00,0.0126
3394.00,0.0126
3393.00,0.0127
3392.00,0.0127
3391.00,0.0127
3390.00,0.0127
3389.00,0.0127
3388.00,0.0127
3387.00,0.0126
3386.00,0.0126
3385.00,0.0126
3384.00,0.0126
3383.00,0.0126
3382.00,0.0126
3381.00,0.0126
3380.00,0.0126
3379.00,0.0126
3378.00,0.0126
3377.00,0.0126
3376.00,0.0126
3375.00,0.0126
3374.00,0.0126
3373.00,0.0126
3372.00,0.0126
3371.00,0.0126
3370.00,0.0126
3369.00,0.0126
3368.00,0.0127
3367.00,0.0126
3366.00,0.0126
3365.00,0.0126
3364.00,0.0126
3363.00,0.0126
3362.00,0.0126
3361.00,0.0126
3360.00,0.0126
3359.00,0.0126
3358.00,0.0126
3357.00,0.0126
3356.00,0.0125
3355.00,0.0125
3354.00,0.0125
3353.00,0.0125
3352.00,0.0125
3351.00,0.0125
3350.00,0.0125
3349.00,0.0125
3348.00,0.0125
3347.00,0.0125
3346.00,0.0125
3345.00,0.0125
3344.00,0.0124
3343.00,0.0124
3342.00,0.0124
3341.00,0.0124
3340.00,0.0124
3339.00,0.0124
3338.00,0.0124
3337.00,0.0124
3336.00,0.0124
3335.00,0.0124
3334.00,0.0124
3333.00,0.0124
3332.00,0.0124
3331.00,0.0124
3330.00,0.0124
3329.00,0.0123
3328.00,0.0123
3327.00,0.0123
3326.00,0.0123
3325.00,0.0122
3324.00,0.0122
3323.00,0.0122
3322.00,0.0122
3321.00,0.0122
3320.00,0.0122
3319.00,0.0121
3318.00,0.0121
3317.00,0.0121
3316.00,0.0121
3315.00,0.0121
3314.00,0.0121
3313.00,0.0121
3312.00,0.0121
3311.00,0.0121
3310.00,0.0121
3309.00,0.0121
3308.00,0.0120
3307.00,0.0120
3306.00,0.0120
3305.00,0.0120
3304.00,0.0120
3303.00,0.0120
3302.00,0.0120
3301.00,0.0120
3300.00,0.0120
3299.00,0.0120
3298.00,0.0120
3297.00,0.0120
3296.00,0.0120
3295.00,0.0120
3294.00,0.0120
3293.00,0.0120
3292.00,0.0120
3291.00,0.0120
3290.00,0.0119
3289.00,0.0119
3288.00,0.0119
3287.00,0.0119
3286.00,0.0119
3285.00,0.0119
3284.00,0.0119
3283.00,0.0119
3282.00,0.0119
3281.00,0.0119
3280.00,0.0118
3279.00,0.0118
3278.00,0.0118
3277.00,0.0118
3276.00,0.0118
3275.00,0.0118
3274.00,0.0117
3273.00,0.0117
3272.00,0.0117
3271.00,0.0117
3270.00,0.0117
3269.00,0.0117
3268.00,0.0117
3267.00,0.0117
3266.00,0.0117
3265.00,0.0117
3264.00,0.0116
3263.00,0.0116
3262.00,0.0116
3261.00,0.0116
3260.00,0.0116
3259.00,0.0116
3258.00,0.0115
3257.00,0.0115
3256.00,0.0115
3255.00,0.0115
3254.00,0.0115
3253.00,0.0115
3252.00,0.0115
3251.00,0.0115
3250.00,0.0114
3249.00,0.0114
3248.00,0.0114
3247.00,0.0114
3246.00,0.0113
3245.00,0.0113
3244.00,0.0113
3243.00,0.0113
3242.00,0.0113
3241.00,0.0113
3240.00,0.0113
3239.00,0.0113
3238.00,0.0113
3237.00,0.0113
3236.00,0.0112
3235.00,0.0112
3234.00,0.0111
3233.00,0.0111
3232.00,0.0111
3231.00,0.0111
3230.00,0.0111
3229.00,0.0111
3228.00,0.0111
3227.00,0.0111
3226.00,0.0111
3225.00,0.0110
3224.00,0.0110
3223.00,0.0110
3222.00,0.0110
3221.00,0.0109
3220.00,0.0109
3219.00,0.0109
3218.00,0.0109
3217.00,0.0108
3216.00,0.0108
3215.00,0.0108
3214.00,0.0108
3213.00,0.0108
3212.00,0.0107
3211.00,0.0107
3210.00,0.0107
3209.00,0.0107
3208.00,0.0106
3207.00,0.0106
3206.00,0.0106
3205.00,0.0105
3204.00,0.0105
3203.00,0.0105
3202.00,0.0105
3201.00,0.0104
3200.00,0.0104
3199.00,0.0104
3198.00,0.0104
3197.00,0.0103
3196.00,0.0103
3195.00,0.0103
3194.00,0.0103
3193.00,0.0103
3192.00,0.0103
3191.00,0.0102
3190.00,0.0102
3189.00,0.0102
3188.00,0.0102
3187.00,0.0102
3186.00,0.0101
3185.00,0.0101
3184.00,0.0101
3183.00,0.0101
3182.00,0.0101
3181.00,0.0100
3180.00,0.0100
3179.00,0.0100
3178.00,0.0099
3177.00,0.0099
3176.00,0.0099
3175.00,0.0098
3174.00,0.0098
3173.00,0.0098
3172.00,0.0098
3171.00,0.0098
3170.00,0.0097
3169.00,0.0097
3168.00,0.0097
3167.00,0.0097
3166.00,0.0097
3165.00,0.0097
3164.00,0.0097
3163.00,0.0096
3162.00,0.0096
3161.00,0.0096
3160.00,0.0096
3159.00,0.0096
3158.00,0.0095
3157.00,0.0095
3156.00,0.0095
3155.00,0.0095
3154.00,0.0094
3153.00,0.0094
3152.00,0.0094
3151.00,0.0094
3150.00,0.0093
3149.00,0.0093
3148.00,0.0094
3147.00,0.0093
3146.00,0.0093
3145.00,0.0093
3144.00,0.0093
3143.00,0.0092
3142.00,0.0092
3141.00,0.0092
3140.00,0.0092
3139.00,0.0092
3138.00,0.0092
3137.00,0.0092
3136.00,0.0092
3135.00,0.0092
3134.00,0.0091
3133.00,0.0091
3132.00,0.0091
3131.00,0.0090
3130.00,0.0090
3129.00,0.0090
3128.00,0.0090
3127.00,0.0090
3126.00,0.0090
3125.00,0.0090
3124.00,0.0090
3123.00,0.0090
3122.00,0.0090
3121.00,0.0090
3120.00,0.0090
3119.00,0.0090
3118.00,0.0090
3117.00,0.0090
3116.00,0.0090
3115.00,0.0089
3114.00,0.0089
3113.00,0.0089
3112.00,0.0089
3111.00,0.0089
3110.00,0.0089
3109.00,0.0088
3108.00,0.0088
3107.00,0.0088
3106.00,0.0088
3105.00,0.0088
3104.00,0.0088
3103.00,0.0087
3102.00,0.0087
3101.00,0.0087
3100.00,0.0086
3099.00,0.0086
3098.00,0.0086
3097.00,0.0086
3096.00,0.0086
3095.00,0.0085
3094.00,0.0085
3093.00,0.0085
3092.00,0.0085
3091.00,0.0085
3090.00,0.0085
3089.00,0.0084
3088.00,0.0084
3087.00,0.0084
3086.00,0.0083
3085.00,0.0083
3084.00,0.0083
3083.00,0.0083
3082.00,0.0083
3081.00,0.0082
3080.00,0.0082
3079.00,0.0082
3078.00,0.0082
3077.00,0.0082
3076.00,0.0082
3075.00,0.0081
3074.00,0.0081
3073.00,0.0081
3072.00,0.0081
3071.00,0.0081
3070.00,0.0081
3069.00,0.0081
3068.00,0.0081
3067.00,0.0080
3066.00,0.0080
3065.00,0.0080
3064.00,0.0080
3063.00,0.0080
3062.00,0.0079
3061.00,0.0079
3060.00,0.0079
3059.00,0.0079
3058.00,0.0079
3057.00,0.0079
3056.00,0.0079
3055.00,0.0079
3054.00,0.0078
3053.00,0.0078
3052.00,0.0078
3051.00,0.0077
3050.00,0.0077
3049.00,0.0077
3048.00,0.0077
3047.00,0.0077
3046.00,0.0077
3045.00,0.0076
3044.00,0.0076
3043.00,0.0076
3042.00,0.0076
3041.00,0.0075
3040.00,0.0075
3039.00,0.0075
3038.00,0.0075
3037.00,0.0075
3036.00,0.0074
3035.00,0.0074
3034.00,0.0074
3033.00,0.0074
3032.00,0.0074
3031.00,0.0074
3030.00,0.0073
3029.00,0.0073
3028.00,0.0073
3027.00,0.0073
3026.00,0.0073
3025.00,0.0073
3024.00,0.0073
3023.00,0.0073
3022.00,0.0073
3021.00,0.0073
3020.00,0.0073
3019.00,0.0073
3018.00,0.0073
3017.00,0.0073
3016.00,0.0073
3015.00,0.0073
3014.00,0.0073
3013.00,0.0073
3012.00,0.0073
3011.00,0.0073
3010.00,0.0073
3009.00,0.0073
3008.00,0.0074
3007.00,0.0074
3006.00,0.0074
3005.00,0.0075
3004.00,0.0075
3003.00,0.0076
3002.00,0.0076
3001.00,0.0077
3000.00,0.0078
2999.00,0.0079
2998.00,0.0080
2997.00,0.0081
2996.00,0.0082
2995.00,0.0084
2994.00,0.0086
2993.00,0.0087
2992.00,0.0090
2991.00,0.0092
2990.00,0.0096
2989.00,0.0099
2988.00,0.0103
2987.00,0.0107
2986.00,0.0112
2985.00,0.0117
2984.00,0.0123
2983.00,0.0130
2982.00,0.0139
2981.00,0.0149
2980.00,0.0162
2979.00,0.0176
2978.00,0.0193
2977.00,0.0212
2976.00,0.0235
2975.00,0.0261
2974.00,0.0290
2973.00,0.0323
2972.00,0.0361
2971.00,0.0402
2970.00,0.0448
2969.00,0.0495
2968.00,0.0544
2967.00,0.0591
2966.00,0.0634
2965.00,0.0668
2964.00,0.0690
2963.00,0.0698
2962.00,0.0689
2961.00,0.0664
2960.00,0.0625
2959.00,0.0578
2958.00,0.0526
2957.00,0.0473
2956.00,0.0422
2955.00,0.0375
2954.00,0.0334
2953.00,0.0298
2952.00,0.0268
2951.00,0.0242
2950.00,0.0220
2949.00,0.0201
2948.00,0.0185
2947.00,0.0171
2946.00,0.0159
2945.00,0.0149
2944.00,0.0140
2943.00,0.0132
2942.00,0.0125
2941.00,0.0119
2940.00,0.0113
2939.00,0.0108
2938.00,0.0103
2937.00,0.0099
2936.00,0.0095
2935.00,0.0091
2934.00,0.0088
2933.00,0.0085
2932.00,0.0082
2931.00,0.0080
2930.00,0.0077
2929.00,0.0075
2928.00,0.0073
2927.00,0.0071
2926.00,0.0069
2925.00,0.0068
2924.00,0.0067
2923.00,0.0066
2922.00,0.0066
2921.00,0.0067
2920.00,0.0067
2919.00,0.0068
2918.00,0.0069
2917.00,0.0072
2916.00,0.0075
2915.00,0.0079
2914.00,0.0084
2913.00,0.0089
2912.00,0.0095
2911.00,0.0100
2910.00,0.0106
2909.00,0.0111
2908.00,0.0115
2907.00,0.0117
2906.00,0.0119
2905.00,0.0118
2904.00,0.0117
2903.00,0.0114
2902.00,0.0111
2901.00,0.0106
2900.00,0.0102
2899.00,0.0098
2898.00,0.0093
2897.00,0.0089
2896.00,0.0086
2895.00,0.0082
2894.00,0.0079
2893.00,0.0077
2892.00,0.0074
2891.00,0.0072
2890.00,0.0070
2889.00,0.0068
2888.00,0.0067
2887.00,0.0066
2886.00,0.0065
2885.00,0.0064
2884.00,0.0063
2883.00,0.0061
2882.00,0.0060
2881.00,0.0060
2880.00,0.0059
2879.00,0.0058
2878.00,0.0058
2877.00,0.0057
2876.00,0.0056
2875.00,0.0055
2874.00,0.0054
2873.00,0.0053
2872.00,0.0052
2871.00,0.0051
2870.00,0.0051
2869.00,0.0050
2868.00,0.0049
2867.00,0.0049
2866.00,0.0048
2865.00,0.0047
2864.00,0.0046
2863.00,0.0045
2862.00,0.0044
2861.00,0.0043
2860.00,0.0042
2859.00,0.0041
2858.00,0.0040
2857.00,0.0039
2856.00,0.0038
2855.00,0.0037
2854.00,0.0036
2853.00,0.0035
2852.00,0.0035
2851.00,0.0034
2850.00,0.0033
2849.00,0.0033
2848.00,0.0034
2847.00,0.0035
2846.00,0.0037
2845.00,0.0038
2844.00,0.0040
2843.00,0.0041
2842.00,0.0041
2841.00,0.0042
2840.00,0.0042
2839.00,0.0042
2838.00,0.0042
2837.00,0.0042
2836.00,0.0042
2835.00,0.0042
2834.00,0.0042
2833.00,0.0043
2832.00,0.0043
2831.00,0.0042
2830.00,0.0042
2829.00,0.0042
2828.00,0.0042
2827.00,0.0042
2826.00,0.0042
2825.00,0.0041
2824.00,0.0041
2823.00,0.0041
2822.00,0.0041
2821.00,0.0042
2820.00,0.0042
2819.00,0.0042
2818.00,0.0042
2817.00,0.0042
2816.00,0.0042
2815.00,0.0042
2814.00,0.0042
2813.00,0.0042
2812.00,0.0042
2811.00,0.0041
2810.00,0.0041
2809.00,0.0041
2808.00,0.0041
2807.00,0.0041
2806.00,0.0041
2805.00,0.0041
2804.00,0.0041
2803.00,0.0041
2802.00,0.0041
2801.00,0.0041
2800.00,0.0041
2799.00,0.0040
2798.00,0.0040
2797.00,0.0040
2796.00,0.0040
2795.00,0.0040
2794.00,0.0039
2793.00,0.0039
2792.00,0.0039
2791.00,0.0038
2790.00,0.0037
2789.00,0.0037
2788.00,0.0036
2787.00,0.0036
2786.00,0.0035
2785.00,0.0034
2784.00,0.0034
2783.00,0.0033
2782.00,0.0033
2781.00,0.0032
2780.00,0.0032
2779.00,0.0031
2778.00,0.0030
2777.00,0.0030
2776.00,0.0030
2775.00,0.0029
2774.00,0.0029
2773.00,0.0029
2772.00,0.0028
2771.00,0.0028
2770.00,0.0028
2769.00,0.0028
2768.00,0.0027
2767.00,0.0027
2766.00,0.0027
2765.00,0.0026
2764.00,0.0026
2763.00,0.0026
2762.00,0.0026
2761.00,0.0025
2760.00,0.0025
2759.00,0.0025
2758.00,0.0025
2757.00,0.0025
