Created as New Dataset,Sample 637 By YargerLab Date Saturday, June 07 2025
cm-1,A
4000.00,0.0099
3999.00,0.0099
3998.00,0.0099
3997.00,0.0099
3996.00,0.0099
3995.00,0.0099
3994.00,0.0099
3993.00,0.0099
3992.00,0.0099
3991.00,0.0099
3990.00,0.0099
3989.00,0.0100
3988.00,0.0100
3987.00,0.0099
3986.00,0.0099
3985.00,0.0099
3984.00,0.0099
3983.00,0.0099
3982.00,0.0099
3981.00,0.0099
3980.00,0.0099
3979.00,0.0099
3978.00,0.0098
3977.00,0.0098
3976.00,0.0099
3975.00,0.0099
3974.00,0.0099
3973.00,0.0099
3972.00,0.0099
3971.00,0.0099
3970.00,0.0098
3969.00,0.0098
3968.00,0.0098
3967.00,0.0098
3966.00,0.0098
3965.00,0.0098
3964.00,0.0098
3963.00,0.0098
3962.00,0.0098
3961.00,0.0098
3960.00,0.0098
3959.00,0.0098
3958.00,0.0098
3957.00,0.0098
3956.00,0.0098
3955.00,0.0098
3954.00,0.0098
3953.00,0.0098
3952.00,0.0098
3951.00,0.0098
3950.00,0.0097
3949.00,0.0097
3948.00,0.0097
3947.00,0.0096
3946.00,0.0096
3945.00,0.0096
3944.00,0.0097
3943.00,0.0097
3942.00,0.0098
3941.00,0.0098
3940.00,0.0098
3939.00,0.0097
3938.00,0.0097
3937.00,0.0097
3936.00,0.0097
3935.00,0.0096
3934.00,0.0095
3933.00,0.0095
3932.00,0.0096
3931.00,0.0097
3930.00,0.0097
3929.00,0.0098
3928.00,0.0098
3927.00,0.0099
3926.00,0.0099
3925.00,0.0099
3924.00,0.0100
3923.00,0.0099
3922.00,0.0098
3921.00,0.0097
3920.00,0.0096
3919.00,0.0096
3918.00,0.0096
3917.00,0.0096
3916.00,0.0097
3915.00,0.0097
3914.00,0.0098
3913.00,0.0098
3912.00,0.0098
3911.00,0.0098
3910.00,0.0098
3909.00,0.0098
3908.00,0.0097
3907.00,0.0097
3906.00,0.0096
3905.00,0.0095
3904.00,0.0093
3903.00,0.0091
3902.00,0.0090
3901.00,0.0089
3900.00,0.0090
3899.00,0.0091
3898.00,0.0092
3897.00,0.0092
3896.00,0.0093
3895.00,0.0093
3894.00,0.0094
3893.00,0.0095
3892.00,0.0095
3891.00,0.0095
3890.00,0.0094
3889.00,0.0093
3888.00,0.0092
3887.00,0.0090
3886.00,0.0090
3885.00,0.0091
3884.00,0.0091
3883.00,0.0091
3882.00,0.0090
3881.00,0.0091
3880.00,0.0091
3879.00,0.0092
3878.00,0.0092
3877.00,0.0091
3876.00,0.0091
3875.00,0.0091
3874.00,0.0092
3873.00,0.0093
3872.00,0.0091
3871.00,0.0090
3870.00,0.0089
3869.00,0.0089
3868.00,0.0090
3867.00,0.0089
3866.00,0.0088
3865.00,0.0088
3864.00,0.0090
3863.00,0.0090
3862.00,0.0090
3861.00,0.0089
3860.00,0.0090
3859.00,0.0091
3858.00,0.0093
3857.00,0.0095
3856.00,0.0096
3855.00,0.0096
3854.00,0.0094
3853.00,0.0092
3852.00,0.0090
3851.00,0.0089
3850.00,0.0088
3849.00,0.0088
3848.00,0.0088
3847.00,0.0089
3846.00,0.0089
3845.00,0.0089
3844.00,0.0089
3843.00,0.0089
3842.00,0.0089
3841.00,0.0089
3840.00,0.0088
3839.00,0.0089
3838.00,0.0089
3837.00,0.0089
3836.00,0.0089
3835.00,0.0089
3834.00,0.0089
3833.00,0.0089
3832.00,0.0089
3831.00,0.0089
3830.00,0.0089
3829.00,0.0089
3828.00,0.0089
3827.00,0.0090
3826.00,0.0090
3825.00,0.0090
3824.00,0.0089
3823.00,0.0088
3822.00,0.0088
3821.00,0.0088
3820.00,0.0089
3819.00,0.0090
3818.00,0.0089
3817.00,0.0088
3816.00,0.0088
3815.00,0.0090
3814.00,0.0091
3813.00,0.0091
3812.00,0.0092
3811.00,0.0092
3810.00,0.0093
3809.00,0.0093
3808.00,0.0092
3807.00,0.0091
3806.00,0.0091
3805.00,0.0090
3804.00,0.0089
3803.00,0.0088
3802.00,0.0088
3801.00,0.0089
3800.00,0.0089
3799.00,0.0089
3798.00,0.0088
3797.00,0.0089
3796.00,0.0090
3795.00,0.0091
3794.00,0.0092
3793.00,0.0092
3792.00,0.0093
3791.00,0.0093
3790.00,0.0094
3789.00,0.0094
3788.00,0.0093
3787.00,0.0093
3786.00,0.0093
3785.00,0.0093
3784.00,0.0093
3783.00,0.0092
3782.00,0.0092
3781.00,0.0091
3780.00,0.0091
3779.00,0.0091
3778.00,0.0092
3777.00,0.0092
3776.00,0.0091
3775.00,0.0091
3774.00,0.0091
3773.00,0.0091
3772.00,0.0091
3771.00,0.0090
3770.00,0.0089
3769.00,0.0089
3768.00,0.0089
3767.00,0.0088
3766.00,0.0088
3765.00,0.0089
3764.00,0.0089
3763.00,0.0089
3762.00,0.0088
3761.00,0.0088
3760.00,0.0087
3759.00,0.0087
3758.00,0.0087
3757.00,0.0087
3756.00,0.0086
3755.00,0.0086
3754.00,0.0085
3753.00,0.0084
3752.00,0.0084
3751.00,0.0083
3750.00,0.0082
3749.00,0.0081
3748.00,0.0081
3747.00,0.0081
3746.00,0.0080
3745.00,0.0080
3744.00,0.0080
3743.00,0.0081
3742.00,0.0081
3741.00,0.0080
3740.00,0.0079
3739.00,0.0078
3738.00,0.0077
3737.00,0.0077
3736.00,0.0077
3735.00,0.0079
3734.00,0.0079
3733.00,0.0080
3732.00,0.0080
3731.00,0.0081
3730.00,0.0083
3729.00,0.0083
3728.00,0.0083
3727.00,0.0083
3726.00,0.0084
3725.00,0.0084
3724.00,0.0084
3723.00,0.0084
3722.00,0.0084
3721.00,0.0085
3720.00,0.0086
3719.00,0.0086
3718.00,0.0086
3717.00,0.0087
3716.00,0.0087
3715.00,0.0087
3714.00,0.0086
3713.00,0.0085
3712.00,0.0084
3711.00,0.0084
3710.00,0.0083
3709.00,0.0083
3708.00,0.0083
3707.00,0.0084
3706.00,0.0085
3705.00,0.0085
3704.00,0.0086
3703.00,0.0086
3702.00,0.0086
3701.00,0.0087
3700.00,0.0087
3699.00,0.0086
3698.00,0.0086
3697.00,0.0086
3696.00,0.0086
3695.00,0.0087
3694.00,0.0086
3693.00,0.0086
3692.00,0.0086
3691.00,0.0086
3690.00,0.0085
3689.00,0.0084
3688.00,0.0083
3687.00,0.0082
3686.00,0.0083
3685.00,0.0083
3684.00,0.0084
3683.00,0.0084
3682.00,0.0083
3681.00,0.0083
3680.00,0.0083
3679.00,0.0083
3678.00,0.0082
3677.00,0.0081
3676.00,0.0080
3675.00,0.0080
3674.00,0.0081
3673.00,0.0080
3672.00,0.0079
3671.00,0.0078
3670.00,0.0079
3669.00,0.0081
3668.00,0.0081
3667.00,0.0082
3666.00,0.0082
3665.00,0.0082
3664.00,0.0083
3663.00,0.0084
3662.00,0.0085
3661.00,0.0085
3660.00,0.0085
3659.00,0.0085
3658.00,0.0084
3657.00,0.0083
3656.00,0.0082
3655.00,0.0081
3654.00,0.0080
3653.00,0.0078
3652.00,0.0076
3651.00,0.0076
3650.00,0.0075
3649.00,0.0075
3648.00,0.0074
3647.00,0.0074
3646.00,0.0075
3645.00,0.0077
3644.00,0.0078
3643.00,0.0080
3642.00,0.0081
3641.00,0.0082
3640.00,0.0082
3639.00,0.0082
3638.00,0.0082
3637.00,0.0081
3636.00,0.0081
3635.00,0.0080
3634.00,0.0080
3633.00,0.0080
3632.00,0.0079
3631.00,0.0078
3630.00,0.0077
3629.00,0.0077
3628.00,0.0077
3627.00,0.0077
3626.00,0.0076
3625.00,0.0076
3624.00,0.0077
3623.00,0.0078
3622.00,0.0078
3621.00,0.0079
3620.00,0.0079
3619.00,0.0079
3618.00,0.0077
3617.00,0.0076
3616.00,0.0075
3615.00,0.0075
3614.00,0.0075
3613.00,0.0075
3612.00,0.0075
3611.00,0.0075
3610.00,0.0074
3609.00,0.0074
3608.00,0.0075
3607.00,0.0076
3606.00,0.0077
3605.00,0.0078
3604.00,0.0078
3603.00,0.0079
3602.00,0.0079
3601.00,0.0079
3600.00,0.0079
3599.00,0.0079
3598.00,0.0078
3597.00,0.0078
3596.00,0.0078
3595.00,0.0078
3594.00,0.0078
3593.00,0.0077
3592.00,0.0077
3591.00,0.0076
3590.00,0.0075
3589.00,0.0076
3588.00,0.0076
3587.00,0.0077
3586.00,0.0077
3585.00,0.0077
3584.00,0.0077
3583.00,0.0077
3582.00,0.0078
3581.00,0.0079
3580.00,0.0079
3579.00,0.0080
3578.00,0.0080
3577.00,0.0080
3576.00,0.0080
3575.00,0.0080
3574.00,0.0080
3573.00,0.0080
3572.00,0.0079
3571.00,0.0078
3570.00,0.0077
3569.00,0.0075
3568.00,0.0075
3567.00,0.0075
3566.00,0.0075
3565.00,0.0075
3564.00,0.0076
3563.00,0.0076
3562.00,0.0077
3561.00,0.0078
3560.00,0.0079
3559.00,0.0079
3558.00,0.0080
3557.00,0.0080
3556.00,0.0080
3555.00,0.0079
3554.00,0.0079
3553.00,0.0079
3552.00,0.0079
3551.00,0.0079
3550.00,0.0079
3549.00,0.0078
3548.00,0.0077
3547.00,0.0076
3546.00,0.0077
3545.00,0.0077
3544.00,0.0078
3543.00,0.0078
3542.00,0.0079
3541.00,0.0080
3540.00,0.0080
3539.00,0.0080
3538.00,0.0080
3537.00,0.0080
3536.00,0.0080
3535.00,0.0080
3534.00,0.0080
3533.00,0.0079
3532.00,0.0079
3531.00,0.0079
3530.00,0.0079
3529.00,0.0079
3528.00,0.0079
3527.00,0.0078
3526.00,0.0078
3525.00,0.0078
3524.00,0.0078
3523.00,0.0078
3522.00,0.0078
3521.00,0.0079
3520.00,0.0079
3519.00,0.0079
3518.00,0.0079
3517.00,0.0079
3516.00,0.0079
3515.00,0.0079
3514.00,0.0079
3513.00,0.0079
3512.00,0.0079
3511.00,0.0079
3510.00,0.0079
3509.00,0.0079
3508.00,0.0079
3507.00,0.0079
3506.00,0.0078
3505.00,0.0078
3504.00,0.0078
3503.00,0.0078
3502.00,0.0078
3501.00,0.0078
3500.00,0.0078
3499.00,0.0078
3498.00,0.0078
3497.00,0.0079
3496.00,0.0079
3495.00,0.0079
3494.00,0.0079
3493.00,0.0079
3492.00,0.0079
3491.00,0.0078
3490.00,0.0079
3489.00,0.0079
3488.00,0.0079
3487.00,0.0079
3486.00,0.0078
3485.00,0.0078
3484.00,0.0078
3483.00,0.0078
3482.00,0.0078
3481.00,0.0078
3480.00,0.0078
3479.00,0.0078
3478.00,0.0079
3477.00,0.0079
3476.00,0.0079
3475.00,0.0079
3474.00,0.0078
3473.00,0.0078
3472.00,0.0078
3471.00,0.0078
3470.00,0.0078
3469.00,0.0078
3468.00,0.0078
3467.00,0.0078
3466.00,0.0078
3465.00,0.0078
3464.00,0.0078
3463.00,0.0078
3462.00,0.0078
3461.00,0.0078
3460.00,0.0078
3459.00,0.0078
3458.00,0.0078
3457.00,0.0078
3456.00,0.0078
3455.00,0.0078
3454.00,0.0078
3453.00,0.0079
3452.00,0.0079
3451.00,0.0079
3450.00,0.0079
3449.00,0.0079
3448.00,0.0079
3447.00,0.0079
3446.00,0.0079
3445.00,0.0079
3444.00,0.0079
3443.00,0.0079
3442.00,0.0079
3441.00,0.0079
3440.00,0.0079
3439.00,0.0079
3438.00,0.0079
3437.00,0.0079
3436.00,0.0079
3435.00,0.0080
3434.00,0.0080
3433.00,0.0081
3432.00,0.0081
3431.00,0.0082
3430.00,0.0082
3429.00,0.0083
3428.00,0.0083
3427.00,0.0084
3426.00,0.0084
3425.00,0.0085
3424.00,0.0085
3423.00,0.0086
3422.00,0.0087
3421.00,0.0088
3420.00,0.0089
3419.00,0.0090
3418.00,0.0091
3417.00,0.0092
3416.00,0.0092
3415.00,0.0093
3414.00,0.0095
3413.00,0.0096
3412.00,0.0098
3411.00,0.0100
3410.00,0.0102
3409.00,0.0104
3408.00,0.0106
3407.00,0.0109
3406.00,0.0112
3405.00,0.0114
3404.00,0.0116
3403.00,0.0119
3402.00,0.0121
3401.00,0.0125
3400.00,0.0129
3399.00,0.0135
3398.00,0.0141
3397.00,0.0147
3396.00,0.0154
3395.00,0.0160
3394.00,0.0167
3393.00,0.0174
3392.00,0.0184
3391.00,0.0194
3390.00,0.0207
3389.00,0.0221
3388.00,0.0236
3387.00,0.0252
3386.00,0.0271
3385.00,0.0291
3384.00,0.0313
3383.00,0.0337
3382.00,0.0363
3381.00,0.0391
3380.00,0.0421
3379.00,0.0452
3378.00,0.0483
3377.00,0.0514
3376.00,0.0543
3375.00,0.0570
3374.00,0.0592
3373.00,0.0610
3372.00,0.0622
3371.00,0.0630
3370.00,0.0632
3369.00,0.0631
3368.00,0.0627
3367.00,0.0619
3366.00,0.0608
3365.00,0.0596
3364.00,0.0581
3363.00,0.0564
3362.00,0.0546
3361.00,0.0528
3360.00,0.0509
3359.00,0.0490
3358.00,0.0472
3357.00,0.0454
3356.00,0.0436
3355.00,0.0418
3354.00,0.0401
3353.00,0.0384
3352.00,0.0369
3351.00,0.0355
3350.00,0.0342
3349.00,0.0330
3348.00,0.0318
3347.00,0.0307
3346.00,0.0297
3345.00,0.0287
3344.00,0.0278
3343.00,0.0269
3342.00,0.0262
3341.00,0.0254
3340.00,0.0248
3339.00,0.0241
3338.00,0.0235
3337.00,0.0230
3336.00,0.0225
3335.00,0.0221
3334.00,0.0216
3333.00,0.0212
3332.00,0.0208
3331.00,0.0205
3330.00,0.0201
3329.00,0.0198
3328.00,0.0195
3327.00,0.0192
3326.00,0.0190
3325.00,0.0187
3324.00,0.0185
3323.00,0.0183
3322.00,0.0181
3321.00,0.0180
3320.00,0.0178
3319.00,0.0176
3318.00,0.0175
3317.00,0.0174
3316.00,0.0172
3315.00,0.0171
3314.00,0.0169
3313.00,0.0167
3312.00,0.0166
3311.00,0.0164
3310.00,0.0163
3309.00,0.0162
3308.00,0.0160
3307.00,0.0159
3306.00,0.0158
3305.00,0.0158
3304.00,0.0157
3303.00,0.0156
3302.00,0.0156
3301.00,0.0154
3300.00,0.0153
3299.00,0.0152
3298.00,0.0150
3297.00,0.0148
3296.00,0.0146
3295.00,0.0145
3294.00,0.0143
3293.00,0.0142
3292.00,0.0141
3291.00,0.0140
3290.00,0.0140
3289.00,0.0139
3288.00,0.0138
3287.00,0.0137
3286.00,0.0135
3285.00,0.0134
3284.00,0.0133
3283.00,0.0131
3282.00,0.0130
3281.00,0.0128
3280.00,0.0127
3279.00,0.0126
3278.00,0.0124
3277.00,0.0123
3276.00,0.0121
3275.00,0.0120
3274.00,0.0119
3273.00,0.0118
3272.00,0.0117
3271.00,0.0117
3270.00,0.0117
3269.00,0.0117
3268.00,0.0117
3267.00,0.0117
3266.00,0.0117
3265.00,0.0117
3264.00,0.0117
3263.00,0.0117
3262.00,0.0117
3261.00,0.0116
3260.00,0.0116
3259.00,0.0115
3258.00,0.0115
3257.00,0.0115
3256.00,0.0115
3255.00,0.0116
3254.00,0.0116
3253.00,0.0116
3252.00,0.0117
3251.00,0.0117
3250.00,0.0116
3249.00,0.0116
3248.00,0.0116
3247.00,0.0116
3246.00,0.0117
3245.00,0.0118
3244.00,0.0118
3243.00,0.0119
3242.00,0.0119
3241.00,0.0120
3240.00,0.0120
3239.00,0.0119
3238.00,0.0119
3237.00,0.0118
3236.00,0.0118
3235.00,0.0117
3234.00,0.0116
3233.00,0.0117
3232.00,0.0117
3231.00,0.0117
3230.00,0.0118
3229.00,0.0118
3228.00,0.0117
3227.00,0.0117
3226.00,0.0116
3225.00,0.0115
3224.00,0.0114
3223.00,0.0113
3222.00,0.0112
3221.00,0.0111
3220.00,0.0110
3219.00,0.0109
3218.00,0.0108
3217.00,0.0108
3216.00,0.0107
3215.00,0.0106
3214.00,0.0106
3213.00,0.0105
3212.00,0.0105
3211.00,0.0104
3210.00,0.0104
3209.00,0.0103
3208.00,0.0103
3207.00,0.0102
3206.00,0.0101
3205.00,0.0101
3204.00,0.0100
3203.00,0.0100
3202.00,0.0100
3201.00,0.0100
3200.00,0.0100
3199.00,0.0099
3198.00,0.0099
3197.00,0.0098
3196.00,0.0098
3195.00,0.0098
3194.00,0.0098
3193.00,0.0097
3192.00,0.0097
3191.00,0.0097
3190.00,0.0097
3189.00,0.0096
3188.00,0.0096
3187.00,0.0096
3186.00,0.0096
3185.00,0.0096
3184.00,0.0096
3183.00,0.0096
3182.00,0.0096
3181.00,0.0095
3180.00,0.0095
3179.00,0.0095
3178.00,0.0095
3177.00,0.0094
3176.00,0.0094
3175.00,0.0094
3174.00,0.0094
3173.00,0.0094
3172.00,0.0094
3171.00,0.0094
3170.00,0.0094
3169.00,0.0094
3168.00,0.0094
3167.00,0.0094
3166.00,0.0094
3165.00,0.0094
3164.00,0.0094
3163.00,0.0094
3162.00,0.0094
3161.00,0.0094
3160.00,0.0094
3159.00,0.0094
3158.00,0.0094
3157.00,0.0093
3156.00,0.0093
3155.00,0.0093
3154.00,0.0093
3153.00,0.0093
3152.00,0.0093
3151.00,0.0094
3150.00,0.0094
3149.00,0.0094
3148.00,0.0095
3147.00,0.0095
3146.00,0.0095
3145.00,0.0095
3144.00,0.0095
3143.00,0.0095
3142.00,0.0095
3141.00,0.0095
3140.00,0.0095
3139.00,0.0095
3138.00,0.0095
3137.00,0.0095
3136.00,0.0096
3135.00,0.0096
3134.00,0.0096
3133.00,0.0097
3132.00,0.0097
3131.00,0.0097
3130.00,0.0098
3129.00,0.0098
3128.00,0.0099
3127.00,0.0099
3126.00,0.0100
3125.00,0.0100
3124.00,0.0100
3123.00,0.0100
3122.00,0.0100
3121.00,0.0101
3120.00,0.0101
3119.00,0.0102
3118.00,0.0102
3117.00,0.0103
3116.00,0.0103
3115.00,0.0104
3114.00,0.0105
3113.00,0.0107
3112.00,0.0108
3111.00,0.0108
3110.00,0.0109
3109.00,0.0110
3108.00,0.0111
3107.00,0.0112
3106.00,0.0113
3105.00,0.0114
3104.00,0.0115
3103.00,0.0115
3102.00,0.0116
3101.00,0.0116
3100.00,0.0117
3099.00,0.0117
3098.00,0.0117
3097.00,0.0117
3096.00,0.0117
3095.00,0.0116
3094.00,0.0116
3093.00,0.0116
3092.00,0.0115
3091.00,0.0115
3090.00,0.0114
3089.00,0.0113
3088.00,0.0113
3087.00,0.0112
3086.00,0.0112
3085.00,0.0112
3084.00,0.0112
3083.00,0.0111
3082.00,0.0111
3081.00,0.0111
3080.00,0.0112
3079.00,0.0112
3078.00,0.0113
3077.00,0.0114
3076.00,0.0115
3075.00,0.0116
3074.00,0.0118
3073.00,0.0120
3072.00,0.0121
3071.00,0.0122
3070.00,0.0122
3069.00,0.0122
3068.00,0.0121
3067.00,0.0119
3066.00,0.0117
3065.00,0.0114
3064.00,0.0112
3063.00,0.0110
3062.00,0.0108
3061.00,0.0106
3060.00,0.0105
3059.00,0.0104
3058.00,0.0104
3057.00,0.0104
3056.00,0.0105
3055.00,0.0105
3054.00,0.0106
3053.00,0.0106
3052.00,0.0106
3051.00,0.0105
3050.00,0.0104
3049.00,0.0104
3048.00,0.0103
3047.00,0.0102
3046.00,0.0101
3045.00,0.0100
3044.00,0.0099
3043.00,0.0099
3042.00,0.0099
3041.00,0.0099
3040.00,0.0099
3039.00,0.0099
3038.00,0.0100
3037.00,0.0100
3036.00,0.0100
3035.00,0.0100
3034.00,0.0100
3033.00,0.0101
3032.00,0.0102
3031.00,0.0103
3030.00,0.0104
3029.00,0.0105
3028.00,0.0105
3027.00,0.0106
3026.00,0.0108
3025.00,0.0109
3024.00,0.0110
3023.00,0.0112
3022.00,0.0113
3021.00,0.0115
3020.00,0.0116
3019.00,0.0117
3018.00,0.0118
3017.00,0.0120
3016.00,0.0121
3015.00,0.0122
3014.00,0.0123
3013.00,0.0124
3012.00,0.0126
3011.00,0.0128
3010.00,0.0131
3009.00,0.0134
3008.00,0.0137
3007.00,0.0140
3006.00,0.0143
3005.00,0.0146
3004.00,0.0150
3003.00,0.0153
3002.00,0.0157
3001.00,0.0160
3000.00,0.0164
2999.00,0.0169
2998.00,0.0174
2997.00,0.0179
2996.00,0.0185
2995.00,0.0190
2994.00,0.0196
2993.00,0.0201
2992.00,0.0205
2991.00,0.0209
2990.00,0.0213
2989.00,0.0215
2988.00,0.0217
2987.00,0.0218
2986.00,0.0219
2985.00,0.0220
2984.00,0.0221
2983.00,0.0222
2982.00,0.0223
2981.00,0.0223
2980.00,0.0222
2979.00,0.0219
2978.00,0.0214
2977.00,0.0208
2976.00,0.0201
2975.00,0.0194
2974.00,0.0188
2973.00,0.0182
2972.00,0.0178
2971.00,0.0174
2970.00,0.0172
2969.00,0.0170
2968.00,0.0169
2967.00,0.0169
2966.00,0.0170
2965.00,0.0172
2964.00,0.0174
2963.00,0.0177
2962.00,0.0181
2961.00,0.0185
2960.00,0.0190
2959.00,0.0194
2958.00,0.0199
2957.00,0.0203
2956.00,0.0208
2955.00,0.0212
2954.00,0.0217
2953.00,0.0223
2952.00,0.0229
2951.00,0.0235
2950.00,0.0239
2949.00,0.0242
2948.00,0.0243
2947.00,0.0243
2946.00,0.0241
2945.00,0.0238
2944.00,0.0235
2943.00,0.0231
2942.00,0.0228
2941.00,0.0224
2940.00,0.0220
2939.00,0.0216
2938.00,0.0212
2937.00,0.0209
2936.00,0.0205
2935.00,0.0201
2934.00,0.0197
2933.00,0.0193
2932.00,0.0188
2931.00,0.0182
2930.00,0.0177
2929.00,0.0173
2928.00,0.0169
2927.00,0.0166
2926.00,0.0163
2925.00,0.0160
2924.00,0.0157
2923.00,0.0154
2922.00,0.0151
2921.00,0.0148
2920.00,0.0146
2919.00,0.0144
2918.00,0.0142
2917.00,0.0141
2916.00,0.0140
2915.00,0.0140
2914.00,0.0139
2913.00,0.0140
2912.00,0.0140
2911.00,0.0141
2910.00,0.0142
2909.00,0.0143
2908.00,0.0143
2907.00,0.0144
2906.00,0.0145
2905.00,0.0145
2904.00,0.0145
2903.00,0.0146
2902.00,0.0146
2901.00,0.0146
2900.00,0.0145
2899.00,0.0145
2898.00,0.0144
2897.00,0.0142
2896.00,0.0141
2895.00,0.0140
2894.00,0.0138
2893.00,0.0137
2892.00,0.0137
2891.00,0.0136
2890.00,0.0135
2889.00,0.0135
2888.00,0.0134
2887.00,0.0133
2886.00,0.0132
2885.00,0.0131
2884.00,0.0131
2883.00,0.0130
2882.00,0.0129
2881.00,0.0128
2880.00,0.0128
2879.00,0.0127
2878.00,0.0126
2877.00,0.0125
2876.00,0.0125
2875.00,0.0124
2874.00,0.0123
2873.00,0.0122
2872.00,0.0121
2871.00,0.0119
2870.00,0.0118
2869.00,0.0116
2868.00,0.0115
2867.00,0.0114
2866.00,0.0113
2865.00,0.0113
2864.00,0.0112
2863.00,0.0111
2862.00,0.0111
2861.00,0.0110
2860.00,0.0110
2859.00,0.0110
2858.00,0.0110
2857.00,0.0110
2856.00,0.0110
2855.00,0.0111
2854.00,0.0111
2853.00,0.0112
2852.00,0.0112
2851.00,0.0112
2850.00,0.0111
2849.00,0.0111
2848.00,0.0111
2847.00,0.0111
2846.00,0.0112
2845.00,0.0112
2844.00,0.0113
2843.00,0.0114
2842.00,0.0114
2841.00,0.0115
2840.00,0.0115
2839.00,0.0115
2838.00,0.0116
2837.00,0.0116
2836.00,0.0115
2835.00,0.0115
2834.00,0.0114
2833.00,0.0113
2832.00,0.0112
2831.00,0.0111
2830.00,0.0111
2829.00,0.0110
2828.00,0.0109
2827.00,0.0108
2826.00,0.0107
2825.00,0.0105
2824.00,0.0104
2823.00,0.0104
2822.00,0.0103
2821.00,0.0103
2820.00,0.0103
2819.00,0.0103
2818.00,0.0103
2817.00,0.0104
2816.00,0.0104
2815.00,0.0104
2814.00,0.0104
2813.00,0.0105
2812.00,0.0105
2811.00,0.0105
2810.00,0.0105
2809.00,0.0106
2808.00,0.0106
2807.00,0.0106
2806.00,0.0106
2805.00,0.0106
2804.00,0.0106
2803.00,0.0106
2802.00,0.0106
2801.00,0.0106
2800.00,0.0105
2799.00,0.0105
2798.00,0.0104
2797.00,0.0103
2796.00,0.0103
2795.00,0.0102
2794.00,0.0101
2793.00,0.0100
2792.00,0.0099
2791.00,0.0098
2790.00,0.0097
2789.00,0.0096
2788.00,0.0095
2787.00,0.0095
2786.00,0.0094
2785.00,0.0093
2784.00,0.0093
2783.00,0.0092
2782.00,0.0091
2781.00,0.0091
2780.00,0.0090
2779.00,0.0090
2778.00,0.0089
2777.00,0.0089
2776.00,0.0089
2775.00,0.0088
2774.00,0.0088
2773.00,0.0088
2772.00,0.0088
2771.00,0.0088
2770.00,0.0088
2769.00,0.0088
2768.00,0.0088
2767.00,0.0088
2766.00,0.0088
2765.00,0.0088
2764.00,0.0088
2763.00,0.0088
2762.00,0.0088
2761.00,0.0088
2760.00,0.0088
2759.00,0.0088
2758.00,0.0087
2757.00,0.0087
