Created as New Dataset,Sample 839 By YargerLab Date Wednesday, July 16 2025
cm-1,A
4000.00,0.0149
3999.00,0.0149
3998.00,0.0149
3997.00,0.0149
3996.00,0.0149
3995.00,0.0149
3994.00,0.0149
3993.00,0.0149
3992.00,0.0149
3991.00,0.0149
3990.00,0.0149
3989.00,0.0149
3988.00,0.0149
3987.00,0.0149
3986.00,0.0149
3985.00,0.0149
3984.00,0.0149
3983.00,0.0149
3982.00,0.0149
3981.00,0.0149
3980.00,0.0149
3979.00,0.0149
3978.00,0.0149
3977.00,0.0149
3976.00,0.0149
3975.00,0.0148
3974.00,0.0148
3973.00,0.0148
3972.00,0.0148
3971.00,0.0148
3970.00,0.0148
3969.00,0.0148
3968.00,0.0148
3967.00,0.0148
3966.00,0.0148
3965.00,0.0148
3964.00,0.0148
3963.00,0.0148
3962.00,0.0148
3961.00,0.0148
3960.00,0.0148
3959.00,0.0148
3958.00,0.0148
3957.00,0.0148
3956.00,0.0148
3955.00,0.0148
3954.00,0.0148
3953.00,0.0148
3952.00,0.0147
3951.00,0.0147
3950.00,0.0147
3949.00,0.0148
3948.00,0.0148
3947.00,0.0148
3946.00,0.0148
3945.00,0.0148
3944.00,0.0147
3943.00,0.0147
3942.00,0.0147
3941.00,0.0147
3940.00,0.0147
3939.00,0.0147
3938.00,0.0147
3937.00,0.0147
3936.00,0.0147
3935.00,0.0147
3934.00,0.0147
3933.00,0.0146
3932.00,0.0146
3931.00,0.0146
3930.00,0.0146
3929.00,0.0146
3928.00,0.0146
3927.00,0.0146
3926.00,0.0146
3925.00,0.0146
3924.00,0.0147
3923.00,0.0147
3922.00,0.0147
3921.00,0.0147
3920.00,0.0146
3919.00,0.0146
3918.00,0.0146
3917.00,0.0146
3916.00,0.0146
3915.00,0.0146
3914.00,0.0146
3913.00,0.0146
3912.00,0.0146
3911.00,0.0146
3910.00,0.0145
3909.00,0.0145
3908.00,0.0145
3907.00,0.0145
3906.00,0.0145
3905.00,0.0145
3904.00,0.0145
3903.00,0.0145
3902.00,0.0145
3901.00,0.0146
3900.00,0.0146
3899.00,0.0146
3898.00,0.0146
3897.00,0.0146
3896.00,0.0145
3895.00,0.0145
3894.00,0.0145
3893.00,0.0144
3892.00,0.0144
3891.00,0.0144
3890.00,0.0145
3889.00,0.0145
3888.00,0.0145
3887.00,0.0145
3886.00,0.0145
3885.00,0.0145
3884.00,0.0145
3883.00,0.0145
3882.00,0.0145
3881.00,0.0144
3880.00,0.0144
3879.00,0.0144
3878.00,0.0144
3877.00,0.0144
3876.00,0.0144
3875.00,0.0144
3874.00,0.0144
3873.00,0.0144
3872.00,0.0144
3871.00,0.0144
3870.00,0.0144
3869.00,0.0144
3868.00,0.0144
3867.00,0.0144
3866.00,0.0144
3865.00,0.0143
3864.00,0.0143
3863.00,0.0143
3862.00,0.0143
3861.00,0.0143
3860.00,0.0143
3859.00,0.0143
3858.00,0.0143
3857.00,0.0142
3856.00,0.0142
3855.00,0.0142
3854.00,0.0142
3853.00,0.0143
3852.00,0.0143
3851.00,0.0143
3850.00,0.0143
3849.00,0.0142
3848.00,0.0142
3847.00,0.0142
3846.00,0.0142
3845.00,0.0142
3844.00,0.0142
3843.00,0.0142
3842.00,0.0142
3841.00,0.0142
3840.00,0.0142
3839.00,0.0142
3838.00,0.0142
3837.00,0.0142
3836.00,0.0142
3835.00,0.0142
3834.00,0.0142
3833.00,0.0142
3832.00,0.0142
3831.00,0.0142
3830.00,0.0141
3829.00,0.0141
3828.00,0.0141
3827.00,0.0141
3826.00,0.0141
3825.00,0.0141
3824.00,0.0141
3823.00,0.0141
3822.00,0.0141
3821.00,0.0141
3820.00,0.0141
3819.00,0.0141
3818.00,0.0141
3817.00,0.0141
3816.00,0.0141
3815.00,0.0141
3814.00,0.0141
3813.00,0.0141
3812.00,0.0140
3811.00,0.0140
3810.00,0.0140
3809.00,0.0140
3808.00,0.0140
3807.00,0.0141
3806.00,0.0141
3805.00,0.0140
3804.00,0.0140
3803.00,0.0140
3802.00,0.0140
3801.00,0.0140
3800.00,0.0139
3799.00,0.0139
3798.00,0.0139
3797.00,0.0139
3796.00,0.0139
3795.00,0.0139
3794.00,0.0139
3793.00,0.0139
3792.00,0.0139
3791.00,0.0139
3790.00,0.0139
3789.00,0.0139
3788.00,0.0139
3787.00,0.0139
3786.00,0.0139
3785.00,0.0139
3784.00,0.0139
3783.00,0.0138
3782.00,0.0138
3781.00,0.0138
3780.00,0.0138
3779.00,0.0138
3778.00,0.0138
3777.00,0.0138
3776.00,0.0138
3775.00,0.0138
3774.00,0.0138
3773.00,0.0138
3772.00,0.0138
3771.00,0.0138
3770.00,0.0138
3769.00,0.0138
3768.00,0.0138
3767.00,0.0138
3766.00,0.0138
3765.00,0.0138
3764.00,0.0138
3763.00,0.0137
3762.00,0.0137
3761.00,0.0137
3760.00,0.0137
3759.00,0.0137
3758.00,0.0137
3757.00,0.0138
3756.00,0.0138
3755.00,0.0138
3754.00,0.0138
3753.00,0.0138
3752.00,0.0138
3751.00,0.0138
3750.00,0.0138
3749.00,0.0138
3748.00,0.0137
3747.00,0.0137
3746.00,0.0137
3745.00,0.0137
3744.00,0.0137
3743.00,0.0136
3742.00,0.0136
3741.00,0.0136
3740.00,0.0136
3739.00,0.0136
3738.00,0.0136
3737.00,0.0136
3736.00,0.0136
3735.00,0.0136
3734.00,0.0135
3733.00,0.0135
3732.00,0.0135
3731.00,0.0135
3730.00,0.0135
3729.00,0.0135
3728.00,0.0134
3727.00,0.0134
3726.00,0.0134
3725.00,0.0134
3724.00,0.0134
3723.00,0.0134
3722.00,0.0134
3721.00,0.0134
3720.00,0.0134
3719.00,0.0134
3718.00,0.0134
3717.00,0.0134
3716.00,0.0134
3715.00,0.0134
3714.00,0.0134
3713.00,0.0134
3712.00,0.0134
3711.00,0.0134
3710.00,0.0134
3709.00,0.0134
3708.00,0.0134
3707.00,0.0134
3706.00,0.0134
3705.00,0.0133
3704.00,0.0133
3703.00,0.0133
3702.00,0.0133
3701.00,0.0133
3700.00,0.0133
3699.00,0.0133
3698.00,0.0133
3697.00,0.0133
3696.00,0.0133
3695.00,0.0133
3694.00,0.0133
3693.00,0.0133
3692.00,0.0133
3691.00,0.0132
3690.00,0.0132
3689.00,0.0132
3688.00,0.0132
3687.00,0.0132
3686.00,0.0132
3685.00,0.0132
3684.00,0.0132
3683.00,0.0132
3682.00,0.0133
3681.00,0.0133
3680.00,0.0133
3679.00,0.0133
3678.00,0.0134
3677.00,0.0134
3676.00,0.0134
3675.00,0.0134
3674.00,0.0134
3673.00,0.0134
3672.00,0.0134
3671.00,0.0135
3670.00,0.0135
3669.00,0.0135
3668.00,0.0135
3667.00,0.0135
3666.00,0.0136
3665.00,0.0136
3664.00,0.0136
3663.00,0.0137
3662.00,0.0137
3661.00,0.0137
3660.00,0.0137
3659.00,0.0137
3658.00,0.0138
3657.00,0.0139
3656.00,0.0140
3655.00,0.0140
3654.00,0.0141
3653.00,0.0141
3652.00,0.0142
3651.00,0.0142
3650.00,0.0142
3649.00,0.0142
3648.00,0.0142
3647.00,0.0143
3646.00,0.0143
3645.00,0.0144
3644.00,0.0145
3643.00,0.0145
3642.00,0.0145
3641.00,0.0145
3640.00,0.0146
3639.00,0.0146
3638.00,0.0147
3637.00,0.0147
3636.00,0.0148
3635.00,0.0149
3634.00,0.0150
3633.00,0.0151
3632.00,0.0151
3631.00,0.0152
3630.00,0.0153
3629.00,0.0154
3628.00,0.0154
3627.00,0.0154
3626.00,0.0154
3625.00,0.0155
3624.00,0.0156
3623.00,0.0157
3622.00,0.0158
3621.00,0.0158
3620.00,0.0159
3619.00,0.0159
3618.00,0.0159
3617.00,0.0160
3616.00,0.0160
3615.00,0.0161
3614.00,0.0162
3613.00,0.0163
3612.00,0.0165
3611.00,0.0166
3610.00,0.0167
3609.00,0.0167
3608.00,0.0168
3607.00,0.0168
3606.00,0.0168
3605.00,0.0169
3604.00,0.0170
3603.00,0.0170
3602.00,0.0170
3601.00,0.0171
3600.00,0.0171
3599.00,0.0172
3598.00,0.0173
3597.00,0.0174
3596.00,0.0175
3595.00,0.0176
3594.00,0.0177
3593.00,0.0178
3592.00,0.0179
3591.00,0.0179
3590.00,0.0180
3589.00,0.0181
3588.00,0.0181
3587.00,0.0182
3586.00,0.0182
3585.00,0.0183
3584.00,0.0184
3583.00,0.0185
3582.00,0.0186
3581.00,0.0187
3580.00,0.0188
3579.00,0.0188
3578.00,0.0189
3577.00,0.0190
3576.00,0.0191
3575.00,0.0192
3574.00,0.0193
3573.00,0.0194
3572.00,0.0195
3571.00,0.0196
3570.00,0.0197
3569.00,0.0198
3568.00,0.0199
3567.00,0.0199
3566.00,0.0200
3565.00,0.0200
3564.00,0.0201
3563.00,0.0202
3562.00,0.0203
3561.00,0.0204
3560.00,0.0206
3559.00,0.0207
3558.00,0.0208
3557.00,0.0208
3556.00,0.0209
3555.00,0.0210
3554.00,0.0211
3553.00,0.0212
3552.00,0.0213
3551.00,0.0214
3550.00,0.0215
3549.00,0.0216
3548.00,0.0218
3547.00,0.0219
3546.00,0.0220
3545.00,0.0220
3544.00,0.0221
3543.00,0.0221
3542.00,0.0222
3541.00,0.0223
3540.00,0.0224
3539.00,0.0225
3538.00,0.0226
3537.00,0.0227
3536.00,0.0228
3535.00,0.0229
3534.00,0.0230
3533.00,0.0231
3532.00,0.0232
3531.00,0.0233
3530.00,0.0234
3529.00,0.0235
3528.00,0.0236
3527.00,0.0237
3526.00,0.0238
3525.00,0.0239
3524.00,0.0240
3523.00,0.0240
3522.00,0.0241
3521.00,0.0242
3520.00,0.0242
3519.00,0.0243
3518.00,0.0244
3517.00,0.0245
3516.00,0.0246
3515.00,0.0246
3514.00,0.0247
3513.00,0.0248
3512.00,0.0249
3511.00,0.0250
3510.00,0.0250
3509.00,0.0251
3508.00,0.0251
3507.00,0.0252
3506.00,0.0253
3505.00,0.0254
3504.00,0.0255
3503.00,0.0256
3502.00,0.0257
3501.00,0.0257
3500.00,0.0258
3499.00,0.0259
3498.00,0.0259
3497.00,0.0260
3496.00,0.0261
3495.00,0.0262
3494.00,0.0262
3493.00,0.0263
3492.00,0.0264
3491.00,0.0264
3490.00,0.0265
3489.00,0.0266
3488.00,0.0266
3487.00,0.0267
3486.00,0.0268
3485.00,0.0269
3484.00,0.0269
3483.00,0.0270
3482.00,0.0271
3481.00,0.0271
3480.00,0.0272
3479.00,0.0273
3478.00,0.0273
3477.00,0.0274
3476.00,0.0274
3475.00,0.0275
3474.00,0.0276
3473.00,0.0276
3472.00,0.0277
3471.00,0.0278
3470.00,0.0278
3469.00,0.0279
3468.00,0.0280
3467.00,0.0280
3466.00,0.0281
3465.00,0.0281
3464.00,0.0282
3463.00,0.0283
3462.00,0.0283
3461.00,0.0284
3460.00,0.0284
3459.00,0.0284
3458.00,0.0285
3457.00,0.0285
3456.00,0.0286
3455.00,0.0287
3454.00,0.0287
3453.00,0.0288
3452.00,0.0289
3451.00,0.0290
3450.00,0.0291
3449.00,0.0292
3448.00,0.0292
3447.00,0.0293
3446.00,0.0293
3445.00,0.0293
3444.00,0.0294
3443.00,0.0295
3442.00,0.0296
3441.00,0.0297
3440.00,0.0298
3439.00,0.0299
3438.00,0.0299
3437.00,0.0300
3436.00,0.0301
3435.00,0.0302
3434.00,0.0303
3433.00,0.0304
3432.00,0.0305
3431.00,0.0305
3430.00,0.0306
3429.00,0.0307
3428.00,0.0308
3427.00,0.0309
3426.00,0.0309
3425.00,0.0310
3424.00,0.0311
3423.00,0.0312
3422.00,0.0314
3421.00,0.0315
3420.00,0.0316
3419.00,0.0317
3418.00,0.0318
3417.00,0.0319
3416.00,0.0320
3415.00,0.0321
3414.00,0.0323
3413.00,0.0324
3412.00,0.0325
3411.00,0.0326
3410.00,0.0327
3409.00,0.0328
3408.00,0.0329
3407.00,0.0330
3406.00,0.0331
3405.00,0.0332
3404.00,0.0333
3403.00,0.0334
3402.00,0.0335
3401.00,0.0336
3400.00,0.0337
3399.00,0.0338
3398.00,0.0339
3397.00,0.0341
3396.00,0.0342
3395.00,0.0343
3394.00,0.0344
3393.00,0.0345
3392.00,0.0346
3391.00,0.0347
3390.00,0.0348
3389.00,0.0349
3388.00,0.0351
3387.00,0.0352
3386.00,0.0353
3385.00,0.0355
3384.00,0.0356
3383.00,0.0357
3382.00,0.0358
3381.00,0.0359
3380.00,0.0360
3379.00,0.0362
3378.00,0.0363
3377.00,0.0364
3376.00,0.0366
3375.00,0.0367
3374.00,0.0369
3373.00,0.0370
3372.00,0.0372
3371.00,0.0373
3370.00,0.0374
3369.00,0.0376
3368.00,0.0378
3367.00,0.0380
3366.00,0.0382
3365.00,0.0384
3364.00,0.0386
3363.00,0.0388
3362.00,0.0390
3361.00,0.0392
3360.00,0.0394
3359.00,0.0396
3358.00,0.0398
3357.00,0.0400
3356.00,0.0402
3355.00,0.0404
3354.00,0.0406
3353.00,0.0408
3352.00,0.0411
3351.00,0.0413
3350.00,0.0416
3349.00,0.0419
3348.00,0.0422
3347.00,0.0425
3346.00,0.0427
3345.00,0.0429
3344.00,0.0432
3343.00,0.0435
3342.00,0.0438
3341.00,0.0440
3340.00,0.0443
3339.00,0.0446
3338.00,0.0450
3337.00,0.0454
3336.00,0.0457
3335.00,0.0461
3334.00,0.0465
3333.00,0.0468
3332.00,0.0472
3331.00,0.0476
3330.00,0.0480
3329.00,0.0484
3328.00,0.0488
3327.00,0.0492
3326.00,0.0496
3325.00,0.0500
3324.00,0.0504
3323.00,0.0509
3322.00,0.0513
3321.00,0.0518
3320.00,0.0523
3319.00,0.0528
3318.00,0.0533
3317.00,0.0538
3316.00,0.0543
3315.00,0.0547
3314.00,0.0552
3313.00,0.0557
3312.00,0.0562
3311.00,0.0567
3310.00,0.0571
3309.00,0.0575
3308.00,0.0580
3307.00,0.0585
3306.00,0.0590
3305.00,0.0596
3304.00,0.0602
3303.00,0.0607
3302.00,0.0613
3301.00,0.0618
3300.00,0.0623
3299.00,0.0627
3298.00,0.0631
3297.00,0.0635
3296.00,0.0638
3295.00,0.0642
3294.00,0.0646
3293.00,0.0650
3292.00,0.0653
3291.00,0.0656
3290.00,0.0659
3289.00,0.0662
3288.00,0.0664
3287.00,0.0666
3286.00,0.0667
3285.00,0.0668
3284.00,0.0668
3283.00,0.0668
3282.00,0.0667
3281.00,0.0666
3280.00,0.0664
3279.00,0.0662
3278.00,0.0660
3277.00,0.0657
3276.00,0.0654
3275.00,0.0650
3274.00,0.0647
3273.00,0.0643
3272.00,0.0638
3271.00,0.0634
3270.00,0.0630
3269.00,0.0627
3268.00,0.0623
3267.00,0.0618
3266.00,0.0614
3265.00,0.0609
3264.00,0.0605
3263.00,0.0600
3262.00,0.0595
3261.00,0.0590
3260.00,0.0585
3259.00,0.0580
3258.00,0.0575
3257.00,0.0570
3256.00,0.0565
3255.00,0.0561
3254.00,0.0557
3253.00,0.0553
3252.00,0.0549
3251.00,0.0545
3250.00,0.0540
3249.00,0.0536
3248.00,0.0531
3247.00,0.0527
3246.00,0.0524
3245.00,0.0521
3244.00,0.0518
3243.00,0.0515
3242.00,0.0512
3241.00,0.0509
3240.00,0.0506
3239.00,0.0503
3238.00,0.0499
3237.00,0.0496
3236.00,0.0492
3235.00,0.0489
3234.00,0.0485
3233.00,0.0483
3232.00,0.0481
3231.00,0.0479
3230.00,0.0477
3229.00,0.0474
3228.00,0.0472
3227.00,0.0470
3226.00,0.0467
3225.00,0.0465
3224.00,0.0462
3223.00,0.0460
3222.00,0.0457
3221.00,0.0455
3220.00,0.0453
3219.00,0.0451
3218.00,0.0448
3217.00,0.0446
3216.00,0.0444
3215.00,0.0442
3214.00,0.0440
3213.00,0.0438
3212.00,0.0436
3211.00,0.0434
3210.00,0.0432
3209.00,0.0430
3208.00,0.0428
3207.00,0.0426
3206.00,0.0424
3205.00,0.0422
3204.00,0.0419
3203.00,0.0417
3202.00,0.0415
3201.00,0.0413
3200.00,0.0411
3199.00,0.0409
3198.00,0.0407
3197.00,0.0405
3196.00,0.0403
3195.00,0.0401
3194.00,0.0399
3193.00,0.0396
3192.00,0.0394
3191.00,0.0392
3190.00,0.0390
3189.00,0.0388
3188.00,0.0386
3187.00,0.0384
3186.00,0.0382
3185.00,0.0380
3184.00,0.0378
3183.00,0.0375
3182.00,0.0373
3181.00,0.0371
3180.00,0.0369
3179.00,0.0367
3178.00,0.0365
3177.00,0.0363
3176.00,0.0361
3175.00,0.0358
3174.00,0.0356
3173.00,0.0354
3172.00,0.0353
3171.00,0.0351
3170.00,0.0349
3169.00,0.0347
3168.00,0.0345
3167.00,0.0344
3166.00,0.0342
3165.00,0.0340
3164.00,0.0338
3163.00,0.0337
3162.00,0.0335
3161.00,0.0334
3160.00,0.0332
3159.00,0.0330
3158.00,0.0328
3157.00,0.0327
3156.00,0.0325
3155.00,0.0323
3154.00,0.0322
3153.00,0.0320
3152.00,0.0319
3151.00,0.0318
3150.00,0.0316
3149.00,0.0315
3148.00,0.0314
3147.00,0.0313
3146.00,0.0312
3145.00,0.0310
3144.00,0.0309
3143.00,0.0308
3142.00,0.0307
3141.00,0.0306
3140.00,0.0304
3139.00,0.0303
3138.00,0.0303
3137.00,0.0302
3136.00,0.0302
3135.00,0.0301
3134.00,0.0300
3133.00,0.0300
3132.00,0.0299
3131.00,0.0298
3130.00,0.0298
3129.00,0.0297
3128.00,0.0297
3127.00,0.0296
3126.00,0.0296
3125.00,0.0295
3124.00,0.0294
3123.00,0.0294
3122.00,0.0293
3121.00,0.0292
3120.00,0.0292
3119.00,0.0292
3118.00,0.0291
3117.00,0.0291
3116.00,0.0292
3115.00,0.0292
3114.00,0.0293
3113.00,0.0294
3112.00,0.0294
3111.00,0.0294
3110.00,0.0294
3109.00,0.0294
3108.00,0.0295
3107.00,0.0296
3106.00,0.0297
3105.00,0.0297
3104.00,0.0298
3103.00,0.0298
3102.00,0.0298
3101.00,0.0298
3100.00,0.0299
3099.00,0.0300
3098.00,0.0301
3097.00,0.0302
3096.00,0.0303
3095.00,0.0303
3094.00,0.0303
3093.00,0.0303
3092.00,0.0303
3091.00,0.0304
3090.00,0.0304
3089.00,0.0305
3088.00,0.0306
3087.00,0.0306
3086.00,0.0306
3085.00,0.0307
3084.00,0.0307
3083.00,0.0308
3082.00,0.0308
3081.00,0.0308
3080.00,0.0308
3079.00,0.0309
3078.00,0.0309
3077.00,0.0310
3076.00,0.0311
3075.00,0.0312
3074.00,0.0313
3073.00,0.0313
3072.00,0.0313
3071.00,0.0312
3070.00,0.0312
3069.00,0.0312
3068.00,0.0311
3067.00,0.0311
3066.00,0.0311
3065.00,0.0310
3064.00,0.0310
3063.00,0.0310
3062.00,0.0310
3061.00,0.0309
3060.00,0.0308
3059.00,0.0307
3058.00,0.0306
3057.00,0.0304
3056.00,0.0303
3055.00,0.0301
3054.00,0.0300
3053.00,0.0299
3052.00,0.0298
3051.00,0.0296
3050.00,0.0295
3049.00,0.0294
3048.00,0.0293
3047.00,0.0291
3046.00,0.0289
3045.00,0.0288
3044.00,0.0286
3043.00,0.0285
3042.00,0.0284
3041.00,0.0283
3040.00,0.0282
3039.00,0.0281
3038.00,0.0280
3037.00,0.0278
3036.00,0.0276
3035.00,0.0274
3034.00,0.0273
3033.00,0.0272
3032.00,0.0272
3031.00,0.0271
3030.00,0.0270
3029.00,0.0270
3028.00,0.0268
3027.00,0.0267
3026.00,0.0266
3025.00,0.0264
3024.00,0.0263
3023.00,0.0262
3022.00,0.0261
3021.00,0.0260
3020.00,0.0259
3019.00,0.0258
3018.00,0.0256
3017.00,0.0255
3016.00,0.0254
3015.00,0.0252
3014.00,0.0252
3013.00,0.0251
3012.00,0.0251
3011.00,0.0251
3010.00,0.0251
3009.00,0.0251
3008.00,0.0251
3007.00,0.0251
3006.00,0.0250
3005.00,0.0250
3004.00,0.0250
3003.00,0.0250
3002.00,0.0250
3001.00,0.0250
3000.00,0.0250
2999.00,0.0250
2998.00,0.0251
2997.00,0.0252
2996.00,0.0252
2995.00,0.0253
2994.00,0.0254
2993.00,0.0255
2992.00,0.0256
2991.00,0.0257
2990.00,0.0259
2989.00,0.0260
2988.00,0.0262
2987.00,0.0263
2986.00,0.0264
2985.00,0.0266
2984.00,0.0267
2983.00,0.0268
2982.00,0.0269
2981.00,0.0270
2980.00,0.0271
2979.00,0.0272
2978.00,0.0274
2977.00,0.0275
2976.00,0.0277
2975.00,0.0278
2974.00,0.0279
2973.00,0.0281
2972.00,0.0282
2971.00,0.0283
2970.00,0.0285
2969.00,0.0286
2968.00,0.0287
2967.00,0.0288
2966.00,0.0289
2965.00,0.0289
2964.00,0.0290
2963.00,0.0290
2962.00,0.0290
2961.00,0.0291
2960.00,0.0291
2959.00,0.0291
2958.00,0.0291
2957.00,0.0291
2956.00,0.0290
2955.00,0.0290
2954.00,0.0289
2953.00,0.0288
2952.00,0.0288
2951.00,0.0287
2950.00,0.0287
2949.00,0.0287
2948.00,0.0288
2947.00,0.0289
2946.00,0.0290
2945.00,0.0292
2944.00,0.0294
2943.00,0.0297
2942.00,0.0300
2941.00,0.0303
2940.00,0.0306
2939.00,0.0309
2938.00,0.0313
2937.00,0.0316
2936.00,0.0319
2935.00,0.0322
2934.00,0.0325
2933.00,0.0328
2932.00,0.0330
2931.00,0.0333
2930.00,0.0336
2929.00,0.0339
2928.00,0.0342
2927.00,0.0344
2926.00,0.0347
2925.00,0.0350
2924.00,0.0353
2923.00,0.0356
2922.00,0.0359
2921.00,0.0362
2920.00,0.0364
2919.00,0.0365
2918.00,0.0364
2917.00,0.0361
2916.00,0.0357
2915.00,0.0350
2914.00,0.0341
2913.00,0.0333
2912.00,0.0324
2911.00,0.0316
2910.00,0.0309
2909.00,0.0303
2908.00,0.0298
2907.00,0.0294
2906.00,0.0290
2905.00,0.0286
2904.00,0.0284
2903.00,0.0281
2902.00,0.0279
2901.00,0.0277
2900.00,0.0274
2899.00,0.0272
2898.00,0.0270
2897.00,0.0268
2896.00,0.0267
2895.00,0.0265
2894.00,0.0264
2893.00,0.0262
2892.00,0.0261
2891.00,0.0260
2890.00,0.0258
2889.00,0.0257
2888.00,0.0256
2887.00,0.0255
2886.00,0.0254
2885.00,0.0253
2884.00,0.0253
2883.00,0.0253
2882.00,0.0253
2881.00,0.0253
2880.00,0.0253
2879.00,0.0254
2878.00,0.0254
2877.00,0.0254
2876.00,0.0254
2875.00,0.0254
2874.00,0.0254
2873.00,0.0253
2872.00,0.0253
2871.00,0.0252
2870.00,0.0251
2869.00,0.0250
2868.00,0.0249
2867.00,0.0247
2866.00,0.0246
2865.00,0.0246
2864.00,0.0245
2863.00,0.0245
2862.00,0.0246
2861.00,0.0247
2860.00,0.0249
2859.00,0.0251
2858.00,0.0254
2857.00,0.0256
2856.00,0.0260
2855.00,0.0264
2854.00,0.0268
2853.00,0.0273
2852.00,0.0277
2851.00,0.0280
2850.00,0.0280
2849.00,0.0278
2848.00,0.0273
2847.00,0.0266
2846.00,0.0258
2845.00,0.0250
2844.00,0.0244
2843.00,0.0237
2842.00,0.0232
2841.00,0.0228
2840.00,0.0225
2839.00,0.0222
2838.00,0.0220
2837.00,0.0218
2836.00,0.0217
2835.00,0.0215
2834.00,0.0214
2833.00,0.0213
2832.00,0.0212
2831.00,0.0211
2830.00,0.0211
2829.00,0.0210
2828.00,0.0209
2827.00,0.0209
2826.00,0.0208
2825.00,0.0208
2824.00,0.0208
2823.00,0.0207
2822.00,0.0207
2821.00,0.0206
2820.00,0.0206
2819.00,0.0205
2818.00,0.0205
2817.00,0.0204
2816.00,0.0204
2815.00,0.0203
2814.00,0.0202
2813.00,0.0202
2812.00,0.0201
2811.00,0.0201
2810.00,0.0201
2809.00,0.0200
2808.00,0.0200
2807.00,0.0200
2806.00,0.0199
2805.00,0.0199
2804.00,0.0199
2803.00,0.0198
2802.00,0.0198
2801.00,0.0197
2800.00,0.0197
2799.00,0.0196
2798.00,0.0196
2797.00,0.0196
2796.00,0.0195
2795.00,0.0195
2794.00,0.0195
2793.00,0.0194
2792.00,0.0194
2791.00,0.0194
2790.00,0.0193
2789.00,0.0193
2788.00,0.0192
2787.00,0.0192
2786.00,0.0191
2785.00,0.0191
2784.00,0.0191
2783.00,0.0190
2782.00,0.0190
2781.00,0.0190
2780.00,0.0189
2779.00,0.0189
2778.00,0.0188
2777.00,0.0188
2776.00,0.0187
2775.00,0.0187
2774.00,0.0187
2773.00,0.0186
2772.00,0.0186
2771.00,0.0186
2770.00,0.0186
2769.00,0.0185
2768.00,0.0185
2767.00,0.0185
2766.00,0.0184
2765.00,0.0184
2764.00,0.0184
2763.00,0.0184
2762.00,0.0183
2761.00,0.0183
2760.00,0.0182
2759.00,0.0182
2758.00,0.0181
2757.00,0.0181
