Created as New Dataset,Sample 718 By YargerLab Date Tuesday, June 24 2025
cm-1,A
4000.00,0.0058
3999.00,0.0058
3998.00,0.0058
3997.00,0.0058
3996.00,0.0058
3995.00,0.0058
3994.00,0.0058
3993.00,0.0058
3992.00,0.0058
3991.00,0.0058
3990.00,0.0058
3989.00,0.0058
3988.00,0.0058
3987.00,0.0058
3986.00,0.0058
3985.00,0.0057
3984.00,0.0057
3983.00,0.0057
3982.00,0.0057
3981.00,0.0057
3980.00,0.0057
3979.00,0.0058
3978.00,0.0058
3977.00,0.0058
3976.00,0.0058
3975.00,0.0058
3974.00,0.0058
3973.00,0.0058
3972.00,0.0058
3971.00,0.0058
3970.00,0.0058
3969.00,0.0058
3968.00,0.0058
3967.00,0.0058
3966.00,0.0058
3965.00,0.0058
3964.00,0.0058
3963.00,0.0058
3962.00,0.0058
3961.00,0.0058
3960.00,0.0058
3959.00,0.0058
3958.00,0.0058
3957.00,0.0058
3956.00,0.0058
3955.00,0.0058
3954.00,0.0058
3953.00,0.0058
3952.00,0.0058
3951.00,0.0058
3950.00,0.0058
3949.00,0.0058
3948.00,0.0058
3947.00,0.0058
3946.00,0.0058
3945.00,0.0058
3944.00,0.0058
3943.00,0.0058
3942.00,0.0058
3941.00,0.0058
3940.00,0.0058
3939.00,0.0058
3938.00,0.0058
3937.00,0.0058
3936.00,0.0058
3935.00,0.0058
3934.00,0.0058
3933.00,0.0058
3932.00,0.0058
3931.00,0.0058
3930.00,0.0058
3929.00,0.0058
3928.00,0.0058
3927.00,0.0058
3926.00,0.0058
3925.00,0.0058
3924.00,0.0058
3923.00,0.0058
3922.00,0.0058
3921.00,0.0058
3920.00,0.0058
3919.00,0.0058
3918.00,0.0058
3917.00,0.0058
3916.00,0.0058
3915.00,0.0058
3914.00,0.0057
3913.00,0.0057
3912.00,0.0057
3911.00,0.0057
3910.00,0.0057
3909.00,0.0057
3908.00,0.0057
3907.00,0.0057
3906.00,0.0057
3905.00,0.0057
3904.00,0.0057
3903.00,0.0057
3902.00,0.0057
3901.00,0.0056
3900.00,0.0056
3899.00,0.0056
3898.00,0.0056
3897.00,0.0056
3896.00,0.0056
3895.00,0.0056
3894.00,0.0056
3893.00,0.0056
3892.00,0.0056
3891.00,0.0056
3890.00,0.0056
3889.00,0.0056
3888.00,0.0056
3887.00,0.0056
3886.00,0.0056
3885.00,0.0056
3884.00,0.0055
3883.00,0.0055
3882.00,0.0055
3881.00,0.0055
3880.00,0.0055
3879.00,0.0056
3878.00,0.0055
3877.00,0.0055
3876.00,0.0055
3875.00,0.0055
3874.00,0.0055
3873.00,0.0055
3872.00,0.0056
3871.00,0.0056
3870.00,0.0056
3869.00,0.0055
3868.00,0.0055
3867.00,0.0055
3866.00,0.0055
3865.00,0.0055
3864.00,0.0055
3863.00,0.0055
3862.00,0.0055
3861.00,0.0055
3860.00,0.0055
3859.00,0.0056
3858.00,0.0056
3857.00,0.0056
3856.00,0.0056
3855.00,0.0056
3854.00,0.0056
3853.00,0.0056
3852.00,0.0056
3851.00,0.0056
3850.00,0.0056
3849.00,0.0055
3848.00,0.0055
3847.00,0.0055
3846.00,0.0055
3845.00,0.0055
3844.00,0.0055
3843.00,0.0055
3842.00,0.0055
3841.00,0.0055
3840.00,0.0055
3839.00,0.0056
3838.00,0.0056
3837.00,0.0056
3836.00,0.0056
3835.00,0.0055
3834.00,0.0055
3833.00,0.0055
3832.00,0.0055
3831.00,0.0055
3830.00,0.0055
3829.00,0.0055
3828.00,0.0055
3827.00,0.0055
3826.00,0.0055
3825.00,0.0055
3824.00,0.0054
3823.00,0.0054
3822.00,0.0054
3821.00,0.0054
3820.00,0.0054
3819.00,0.0054
3818.00,0.0054
3817.00,0.0054
3816.00,0.0054
3815.00,0.0054
3814.00,0.0054
3813.00,0.0054
3812.00,0.0054
3811.00,0.0054
3810.00,0.0054
3809.00,0.0054
3808.00,0.0054
3807.00,0.0054
3806.00,0.0054
3805.00,0.0054
3804.00,0.0054
3803.00,0.0054
3802.00,0.0054
3801.00,0.0054
3800.00,0.0054
3799.00,0.0054
3798.00,0.0054
3797.00,0.0054
3796.00,0.0054
3795.00,0.0054
3794.00,0.0054
3793.00,0.0054
3792.00,0.0054
3791.00,0.0054
3790.00,0.0054
3789.00,0.0054
3788.00,0.0054
3787.00,0.0054
3786.00,0.0054
3785.00,0.0055
3784.00,0.0055
3783.00,0.0055
3782.00,0.0055
3781.00,0.0054
3780.00,0.0054
3779.00,0.0054
3778.00,0.0054
3777.00,0.0054
3776.00,0.0054
3775.00,0.0054
3774.00,0.0054
3773.00,0.0054
3772.00,0.0054
3771.00,0.0054
3770.00,0.0054
3769.00,0.0054
3768.00,0.0054
3767.00,0.0054
3766.00,0.0054
3765.00,0.0054
3764.00,0.0054
3763.00,0.0054
3762.00,0.0054
3761.00,0.0054
3760.00,0.0054
3759.00,0.0054
3758.00,0.0054
3757.00,0.0054
3756.00,0.0054
3755.00,0.0054
3754.00,0.0054
3753.00,0.0054
3752.00,0.0054
3751.00,0.0054
3750.00,0.0054
3749.00,0.0054
3748.00,0.0054
3747.00,0.0054
3746.00,0.0054
3745.00,0.0054
3744.00,0.0053
3743.00,0.0053
3742.00,0.0053
3741.00,0.0053
3740.00,0.0053
3739.00,0.0053
3738.00,0.0053
3737.00,0.0053
3736.00,0.0053
3735.00,0.0053
3734.00,0.0053
3733.00,0.0053
3732.00,0.0053
3731.00,0.0053
3730.00,0.0053
3729.00,0.0053
3728.00,0.0053
3727.00,0.0053
3726.00,0.0053
3725.00,0.0053
3724.00,0.0053
3723.00,0.0053
3722.00,0.0053
3721.00,0.0053
3720.00,0.0053
3719.00,0.0052
3718.00,0.0052
3717.00,0.0052
3716.00,0.0052
3715.00,0.0052
3714.00,0.0052
3713.00,0.0052
3712.00,0.0052
3711.00,0.0052
3710.00,0.0052
3709.00,0.0052
3708.00,0.0052
3707.00,0.0052
3706.00,0.0051
3705.00,0.0051
3704.00,0.0051
3703.00,0.0051
3702.00,0.0051
3701.00,0.0051
3700.00,0.0052
3699.00,0.0052
3698.00,0.0051
3697.00,0.0051
3696.00,0.0051
3695.00,0.0051
3694.00,0.0051
3693.00,0.0050
3692.00,0.0050
3691.00,0.0051
3690.00,0.0051
3689.00,0.0051
3688.00,0.0052
3687.00,0.0052
3686.00,0.0052
3685.00,0.0052
3684.00,0.0052
3683.00,0.0051
3682.00,0.0051
3681.00,0.0051
3680.00,0.0051
3679.00,0.0051
3678.00,0.0051
3677.00,0.0051
3676.00,0.0052
3675.00,0.0052
3674.00,0.0053
3673.00,0.0053
3672.00,0.0052
3671.00,0.0052
3670.00,0.0052
3669.00,0.0052
3668.00,0.0052
3667.00,0.0052
3666.00,0.0052
3665.00,0.0052
3664.00,0.0052
3663.00,0.0052
3662.00,0.0052
3661.00,0.0052
3660.00,0.0053
3659.00,0.0053
3658.00,0.0053
3657.00,0.0053
3656.00,0.0053
3655.00,0.0054
3654.00,0.0054
3653.00,0.0054
3652.00,0.0053
3651.00,0.0053
3650.00,0.0053
3649.00,0.0053
3648.00,0.0053
3647.00,0.0054
3646.00,0.0054
3645.00,0.0054
3644.00,0.0054
3643.00,0.0054
3642.00,0.0054
3641.00,0.0054
3640.00,0.0054
3639.00,0.0054
3638.00,0.0054
3637.00,0.0054
3636.00,0.0054
3635.00,0.0054
3634.00,0.0054
3633.00,0.0053
3632.00,0.0053
3631.00,0.0053
3630.00,0.0053
3629.00,0.0053
3628.00,0.0053
3627.00,0.0054
3626.00,0.0054
3625.00,0.0054
3624.00,0.0053
3623.00,0.0053
3622.00,0.0053
3621.00,0.0053
3620.00,0.0054
3619.00,0.0054
3618.00,0.0054
3617.00,0.0054
3616.00,0.0054
3615.00,0.0054
3614.00,0.0055
3613.00,0.0055
3612.00,0.0055
3611.00,0.0055
3610.00,0.0054
3609.00,0.0054
3608.00,0.0054
3607.00,0.0054
3606.00,0.0054
3605.00,0.0054
3604.00,0.0054
3603.00,0.0054
3602.00,0.0054
3601.00,0.0054
3600.00,0.0054
3599.00,0.0055
3598.00,0.0055
3597.00,0.0055
3596.00,0.0055
3595.00,0.0054
3594.00,0.0054
3593.00,0.0054
3592.00,0.0054
3591.00,0.0054
3590.00,0.0054
3589.00,0.0054
3588.00,0.0055
3587.00,0.0055
3586.00,0.0055
3585.00,0.0054
3584.00,0.0054
3583.00,0.0054
3582.00,0.0054
3581.00,0.0054
3580.00,0.0054
3579.00,0.0054
3578.00,0.0055
3577.00,0.0055
3576.00,0.0055
3575.00,0.0055
3574.00,0.0055
3573.00,0.0055
3572.00,0.0056
3571.00,0.0056
3570.00,0.0056
3569.00,0.0056
3568.00,0.0056
3567.00,0.0056
3566.00,0.0056
3565.00,0.0056
3564.00,0.0056
3563.00,0.0056
3562.00,0.0056
3561.00,0.0056
3560.00,0.0056
3559.00,0.0057
3558.00,0.0057
3557.00,0.0057
3556.00,0.0058
3555.00,0.0058
3554.00,0.0058
3553.00,0.0059
3552.00,0.0059
3551.00,0.0059
3550.00,0.0059
3549.00,0.0059
3548.00,0.0059
3547.00,0.0059
3546.00,0.0059
3545.00,0.0059
3544.00,0.0060
3543.00,0.0060
3542.00,0.0060
3541.00,0.0060
3540.00,0.0060
3539.00,0.0060
3538.00,0.0060
3537.00,0.0060
3536.00,0.0060
3535.00,0.0060
3534.00,0.0061
3533.00,0.0061
3532.00,0.0061
3531.00,0.0061
3530.00,0.0062
3529.00,0.0062
3528.00,0.0062
3527.00,0.0062
3526.00,0.0062
3525.00,0.0062
3524.00,0.0062
3523.00,0.0062
3522.00,0.0062
3521.00,0.0062
3520.00,0.0063
3519.00,0.0063
3518.00,0.0063
3517.00,0.0063
3516.00,0.0063
3515.00,0.0063
3514.00,0.0064
3513.00,0.0064
3512.00,0.0064
3511.00,0.0064
3510.00,0.0065
3509.00,0.0065
3508.00,0.0065
3507.00,0.0065
3506.00,0.0066
3505.00,0.0066
3504.00,0.0066
3503.00,0.0066
3502.00,0.0067
3501.00,0.0067
3500.00,0.0067
3499.00,0.0068
3498.00,0.0068
3497.00,0.0068
3496.00,0.0068
3495.00,0.0069
3494.00,0.0069
3493.00,0.0070
3492.00,0.0070
3491.00,0.0071
3490.00,0.0071
3489.00,0.0071
3488.00,0.0072
3487.00,0.0072
3486.00,0.0072
3485.00,0.0073
3484.00,0.0073
3483.00,0.0074
3482.00,0.0074
3481.00,0.0075
3480.00,0.0076
3479.00,0.0076
3478.00,0.0077
3477.00,0.0078
3476.00,0.0078
3475.00,0.0079
3474.00,0.0080
3473.00,0.0080
3472.00,0.0081
3471.00,0.0081
3470.00,0.0081
3469.00,0.0082
3468.00,0.0083
3467.00,0.0084
3466.00,0.0085
3465.00,0.0086
3464.00,0.0087
3463.00,0.0088
3462.00,0.0089
3461.00,0.0090
3460.00,0.0091
3459.00,0.0091
3458.00,0.0092
3457.00,0.0093
3456.00,0.0094
3455.00,0.0095
3454.00,0.0095
3453.00,0.0096
3452.00,0.0096
3451.00,0.0097
3450.00,0.0097
3449.00,0.0098
3448.00,0.0098
3447.00,0.0098
3446.00,0.0099
3445.00,0.0099
3444.00,0.0099
3443.00,0.0099
3442.00,0.0099
3441.00,0.0099
3440.00,0.0099
3439.00,0.0098
3438.00,0.0098
3437.00,0.0098
3436.00,0.0097
3435.00,0.0097
3434.00,0.0097
3433.00,0.0097
3432.00,0.0096
3431.00,0.0096
3430.00,0.0096
3429.00,0.0095
3428.00,0.0095
3427.00,0.0095
3426.00,0.0095
3425.00,0.0095
3424.00,0.0095
3423.00,0.0095
3422.00,0.0095
3421.00,0.0096
3420.00,0.0096
3419.00,0.0096
3418.00,0.0097
3417.00,0.0097
3416.00,0.0097
3415.00,0.0097
3414.00,0.0097
3413.00,0.0098
3412.00,0.0098
3411.00,0.0099
3410.00,0.0099
3409.00,0.0100
3408.00,0.0101
3407.00,0.0101
3406.00,0.0102
3405.00,0.0102
3404.00,0.0102
3403.00,0.0102
3402.00,0.0103
3401.00,0.0103
3400.00,0.0105
3399.00,0.0106
3398.00,0.0108
3397.00,0.0109
3396.00,0.0110
3395.00,0.0111
3394.00,0.0112
3393.00,0.0114
3392.00,0.0115
3391.00,0.0117
3390.00,0.0119
3389.00,0.0121
3388.00,0.0123
3387.00,0.0125
3386.00,0.0127
3385.00,0.0129
3384.00,0.0131
3383.00,0.0132
3382.00,0.0134
3381.00,0.0136
3380.00,0.0138
3379.00,0.0140
3378.00,0.0142
3377.00,0.0144
3376.00,0.0146
3375.00,0.0148
3374.00,0.0150
3373.00,0.0152
3372.00,0.0154
3371.00,0.0156
3370.00,0.0158
3369.00,0.0160
3368.00,0.0163
3367.00,0.0167
3366.00,0.0171
3365.00,0.0175
3364.00,0.0179
3363.00,0.0183
3362.00,0.0187
3361.00,0.0191
3360.00,0.0196
3359.00,0.0202
3358.00,0.0208
3357.00,0.0214
3356.00,0.0221
3355.00,0.0227
3354.00,0.0234
3353.00,0.0241
3352.00,0.0249
3351.00,0.0258
3350.00,0.0267
3349.00,0.0278
3348.00,0.0289
3347.00,0.0300
3346.00,0.0311
3345.00,0.0322
3344.00,0.0334
3343.00,0.0345
3342.00,0.0357
3341.00,0.0369
3340.00,0.0381
3339.00,0.0392
3338.00,0.0404
3337.00,0.0415
3336.00,0.0425
3335.00,0.0434
3334.00,0.0442
3333.00,0.0449
3332.00,0.0455
3331.00,0.0459
3330.00,0.0462
3329.00,0.0464
3328.00,0.0466
3327.00,0.0467
3326.00,0.0467
3325.00,0.0467
3324.00,0.0467
3323.00,0.0466
3322.00,0.0464
3321.00,0.0461
3320.00,0.0458
3319.00,0.0454
3318.00,0.0449
3317.00,0.0443
3316.00,0.0437
3315.00,0.0431
3314.00,0.0424
3313.00,0.0416
3312.00,0.0408
3311.00,0.0400
3310.00,0.0392
3309.00,0.0384
3308.00,0.0376
3307.00,0.0368
3306.00,0.0360
3305.00,0.0353
3304.00,0.0346
3303.00,0.0340
3302.00,0.0334
3301.00,0.0328
3300.00,0.0322
3299.00,0.0316
3298.00,0.0310
3297.00,0.0304
3296.00,0.0298
3295.00,0.0293
3294.00,0.0288
3293.00,0.0283
3292.00,0.0279
3291.00,0.0275
3290.00,0.0271
3289.00,0.0267
3288.00,0.0262
3287.00,0.0258
3286.00,0.0254
3285.00,0.0249
3284.00,0.0245
3283.00,0.0242
3282.00,0.0239
3281.00,0.0236
3280.00,0.0233
3279.00,0.0230
3278.00,0.0228
3277.00,0.0226
3276.00,0.0225
3275.00,0.0223
3274.00,0.0222
3273.00,0.0221
3272.00,0.0221
3271.00,0.0220
3270.00,0.0220
3269.00,0.0220
3268.00,0.0220
3267.00,0.0220
3266.00,0.0220
3265.00,0.0220
3264.00,0.0219
3263.00,0.0219
3262.00,0.0218
3261.00,0.0217
3260.00,0.0216
3259.00,0.0214
3258.00,0.0213
3257.00,0.0211
3256.00,0.0210
3255.00,0.0208
3254.00,0.0207
3253.00,0.0206
3252.00,0.0205
3251.00,0.0204
3250.00,0.0203
3249.00,0.0202
3248.00,0.0201
3247.00,0.0200
3246.00,0.0200
3245.00,0.0199
3244.00,0.0198
3243.00,0.0198
3242.00,0.0197
3241.00,0.0196
3240.00,0.0195
3239.00,0.0194
3238.00,0.0193
3237.00,0.0192
3236.00,0.0191
3235.00,0.0189
3234.00,0.0187
3233.00,0.0185
3232.00,0.0183
3231.00,0.0181
3230.00,0.0179
3229.00,0.0177
3228.00,0.0175
3227.00,0.0173
3226.00,0.0171
3225.00,0.0169
3224.00,0.0167
3223.00,0.0165
3222.00,0.0164
3221.00,0.0162
3220.00,0.0160
3219.00,0.0159
3218.00,0.0158
3217.00,0.0156
3216.00,0.0155
3215.00,0.0154
3214.00,0.0153
3213.00,0.0152
3212.00,0.0151
3211.00,0.0150
3210.00,0.0149
3209.00,0.0148
3208.00,0.0147
3207.00,0.0146
3206.00,0.0144
3205.00,0.0143
3204.00,0.0142
3203.00,0.0141
3202.00,0.0140
3201.00,0.0139
3200.00,0.0138
3199.00,0.0137
3198.00,0.0136
3197.00,0.0134
3196.00,0.0133
3195.00,0.0132
3194.00,0.0131
3193.00,0.0131
3192.00,0.0130
3191.00,0.0129
3190.00,0.0128
3189.00,0.0128
3188.00,0.0127
3187.00,0.0127
3186.00,0.0126
3185.00,0.0126
3184.00,0.0126
3183.00,0.0125
3182.00,0.0125
3181.00,0.0124
3180.00,0.0124
3179.00,0.0123
3178.00,0.0123
3177.00,0.0123
3176.00,0.0122
3175.00,0.0122
3174.00,0.0121
3173.00,0.0121
3172.00,0.0120
3171.00,0.0120
3170.00,0.0119
3169.00,0.0119
3168.00,0.0119
3167.00,0.0119
3166.00,0.0119
3165.00,0.0119
3164.00,0.0119
3163.00,0.0119
3162.00,0.0119
3161.00,0.0119
3160.00,0.0119
3159.00,0.0119
3158.00,0.0119
3157.00,0.0119
3156.00,0.0119
3155.00,0.0119
3154.00,0.0119
3153.00,0.0119
3152.00,0.0119
3151.00,0.0120
3150.00,0.0120
3149.00,0.0120
3148.00,0.0120
3147.00,0.0121
3146.00,0.0121
3145.00,0.0121
3144.00,0.0120
3143.00,0.0120
3142.00,0.0120
3141.00,0.0120
3140.00,0.0121
3139.00,0.0121
3138.00,0.0121
3137.00,0.0122
3136.00,0.0122
3135.00,0.0123
3134.00,0.0123
3133.00,0.0124
3132.00,0.0125
3131.00,0.0125
3130.00,0.0126
3129.00,0.0126
3128.00,0.0127
3127.00,0.0128
3126.00,0.0129
3125.00,0.0130
3124.00,0.0131
3123.00,0.0132
3122.00,0.0133
3121.00,0.0134
3120.00,0.0135
3119.00,0.0137
3118.00,0.0138
3117.00,0.0140
3116.00,0.0143
3115.00,0.0146
3114.00,0.0149
3113.00,0.0151
3112.00,0.0153
3111.00,0.0156
3110.00,0.0158
3109.00,0.0160
3108.00,0.0162
3107.00,0.0164
3106.00,0.0166
3105.00,0.0167
3104.00,0.0168
3103.00,0.0169
3102.00,0.0169
3101.00,0.0169
3100.00,0.0169
3099.00,0.0169
3098.00,0.0168
3097.00,0.0167
3096.00,0.0166
3095.00,0.0165
3094.00,0.0164
3093.00,0.0162
3092.00,0.0161
3091.00,0.0160
3090.00,0.0159
3089.00,0.0158
3088.00,0.0158
3087.00,0.0157
3086.00,0.0157
3085.00,0.0157
3084.00,0.0157
3083.00,0.0157
3082.00,0.0157
3081.00,0.0156
3080.00,0.0156
3079.00,0.0156
3078.00,0.0156
3077.00,0.0156
3076.00,0.0155
3075.00,0.0153
3074.00,0.0152
3073.00,0.0150
3072.00,0.0149
3071.00,0.0147
3070.00,0.0145
3069.00,0.0144
3068.00,0.0143
3067.00,0.0143
3066.00,0.0144
3065.00,0.0144
3064.00,0.0145
3063.00,0.0145
3062.00,0.0145
3061.00,0.0144
3060.00,0.0143
3059.00,0.0141
3058.00,0.0139
3057.00,0.0138
3056.00,0.0137
3055.00,0.0136
3054.00,0.0135
3053.00,0.0134
3052.00,0.0134
3051.00,0.0134
3050.00,0.0134
3049.00,0.0134
3048.00,0.0134
3047.00,0.0135
3046.00,0.0134
3045.00,0.0135
3044.00,0.0135
3043.00,0.0135
3042.00,0.0136
3041.00,0.0138
3040.00,0.0139
3039.00,0.0141
3038.00,0.0143
3037.00,0.0144
3036.00,0.0146
3035.00,0.0147
3034.00,0.0149
3033.00,0.0152
3032.00,0.0154
3031.00,0.0155
3030.00,0.0157
3029.00,0.0158
3028.00,0.0159
3027.00,0.0159
3026.00,0.0160
3025.00,0.0160
3024.00,0.0159
3023.00,0.0159
3022.00,0.0158
3021.00,0.0158
3020.00,0.0157
3019.00,0.0157
3018.00,0.0157
3017.00,0.0157
3016.00,0.0158
3015.00,0.0159
3014.00,0.0160
3013.00,0.0163
3012.00,0.0166
3011.00,0.0169
3010.00,0.0173
3009.00,0.0177
3008.00,0.0182
3007.00,0.0186
3006.00,0.0191
3005.00,0.0195
3004.00,0.0200
3003.00,0.0204
3002.00,0.0207
3001.00,0.0210
3000.00,0.0212
2999.00,0.0214
2998.00,0.0215
2997.00,0.0215
2996.00,0.0214
2995.00,0.0212
2994.00,0.0208
2993.00,0.0204
2992.00,0.0200
2991.00,0.0196
2990.00,0.0192
2989.00,0.0188
2988.00,0.0184
2987.00,0.0181
2986.00,0.0178
2985.00,0.0176
2984.00,0.0173
2983.00,0.0171
2982.00,0.0169
2981.00,0.0168
2980.00,0.0167
2979.00,0.0167
2978.00,0.0167
2977.00,0.0167
2976.00,0.0166
2975.00,0.0166
2974.00,0.0167
2973.00,0.0168
2972.00,0.0170
2971.00,0.0172
2970.00,0.0175
2969.00,0.0178
2968.00,0.0183
2967.00,0.0188
2966.00,0.0194
2965.00,0.0202
2964.00,0.0212
2963.00,0.0223
2962.00,0.0235
2961.00,0.0249
2960.00,0.0265
2959.00,0.0281
2958.00,0.0298
2957.00,0.0314
2956.00,0.0328
2955.00,0.0340
2954.00,0.0348
2953.00,0.0353
2952.00,0.0353
2951.00,0.0348
2950.00,0.0340
2949.00,0.0328
2948.00,0.0313
2947.00,0.0298
2946.00,0.0282
2945.00,0.0267
2944.00,0.0253
2943.00,0.0241
2942.00,0.0231
2941.00,0.0223
2940.00,0.0216
2939.00,0.0211
2938.00,0.0207
2937.00,0.0204
2936.00,0.0202
2935.00,0.0201
2934.00,0.0199
2933.00,0.0198
2932.00,0.0197
2931.00,0.0195
2930.00,0.0194
2929.00,0.0192
2928.00,0.0190
2927.00,0.0188
2926.00,0.0185
2925.00,0.0183
2924.00,0.0180
2923.00,0.0177
2922.00,0.0174
2921.00,0.0171
2920.00,0.0168
2919.00,0.0165
2918.00,0.0162
2917.00,0.0160
2916.00,0.0158
2915.00,0.0157
2914.00,0.0156
2913.00,0.0155
2912.00,0.0154
2911.00,0.0154
2910.00,0.0153
2909.00,0.0152
2908.00,0.0152
2907.00,0.0151
2906.00,0.0150
2905.00,0.0149
2904.00,0.0148
2903.00,0.0147
2902.00,0.0146
2901.00,0.0145
2900.00,0.0144
2899.00,0.0143
2898.00,0.0142
2897.00,0.0140
2896.00,0.0139
2895.00,0.0138
2894.00,0.0137
2893.00,0.0137
2892.00,0.0136
2891.00,0.0136
2890.00,0.0136
2889.00,0.0136
2888.00,0.0136
2887.00,0.0137
2886.00,0.0137
2885.00,0.0137
2884.00,0.0137
2883.00,0.0137
2882.00,0.0137
2881.00,0.0137
2880.00,0.0137
2879.00,0.0137
2878.00,0.0137
2877.00,0.0137
2876.00,0.0137
2875.00,0.0137
2874.00,0.0137
2873.00,0.0138
2872.00,0.0138
2871.00,0.0138
2870.00,0.0137
2869.00,0.0137
2868.00,0.0136
2867.00,0.0135
2866.00,0.0134
2865.00,0.0133
2864.00,0.0132
2863.00,0.0131
2862.00,0.0131
2861.00,0.0130
2860.00,0.0130
2859.00,0.0129
2858.00,0.0129
2857.00,0.0129
2856.00,0.0129
2855.00,0.0130
2854.00,0.0130
2853.00,0.0131
2852.00,0.0131
2851.00,0.0132
2850.00,0.0134
2849.00,0.0135
2848.00,0.0138
2847.00,0.0140
2846.00,0.0143
2845.00,0.0146
2844.00,0.0149
2843.00,0.0150
2842.00,0.0150
2841.00,0.0149
2840.00,0.0147
2839.00,0.0144
2838.00,0.0141
2837.00,0.0138
2836.00,0.0136
2835.00,0.0133
2834.00,0.0131
2833.00,0.0129
2832.00,0.0127
2831.00,0.0125
2830.00,0.0123
2829.00,0.0121
2828.00,0.0120
2827.00,0.0119
2826.00,0.0119
2825.00,0.0118
2824.00,0.0117
2823.00,0.0116
2822.00,0.0116
2821.00,0.0115
2820.00,0.0115
2819.00,0.0115
2818.00,0.0115
2817.00,0.0114
2816.00,0.0114
2815.00,0.0114
2814.00,0.0113
2813.00,0.0113
2812.00,0.0113
2811.00,0.0112
2810.00,0.0112
2809.00,0.0111
2808.00,0.0111
2807.00,0.0111
2806.00,0.0110
2805.00,0.0109
2804.00,0.0109
2803.00,0.0108
2802.00,0.0107
2801.00,0.0106
2800.00,0.0105
2799.00,0.0105
2798.00,0.0104
2797.00,0.0103
2796.00,0.0103
2795.00,0.0102
2794.00,0.0101
2793.00,0.0101
2792.00,0.0100
2791.00,0.0099
2790.00,0.0098
2789.00,0.0097
2788.00,0.0097
2787.00,0.0096
2786.00,0.0095
2785.00,0.0095
2784.00,0.0094
2783.00,0.0094
2782.00,0.0094
2781.00,0.0094
2780.00,0.0094
2779.00,0.0094
2778.00,0.0093
2777.00,0.0093
2776.00,0.0093
2775.00,0.0093
2774.00,0.0093
2773.00,0.0093
2772.00,0.0093
2771.00,0.0092
2770.00,0.0092
2769.00,0.0092
2768.00,0.0092
2767.00,0.0092
2766.00,0.0092
2765.00,0.0092
2764.00,0.0092
2763.00,0.0092
2762.00,0.0092
2761.00,0.0091
2760.00,0.0091
2759.00,0.0091
2758.00,0.0091
2757.00,0.0091
