Created as New Dataset,Sample 879 By YargerLab Date Wednesday, July 23 2025
cm-1,A
4000.00,0.0010
3999.00,0.0010
3998.00,0.0010
3997.00,0.0010
3996.00,0.0010
3995.00,0.0010
3994.00,0.0009
3993.00,0.0009
3992.00,0.0009
3991.00,0.0009
3990.00,0.0010
3989.00,0.0010
3988.00,0.0010
3987.00,0.0010
3986.00,0.0009
3985.00,0.0009
3984.00,0.0009
3983.00,0.0009
3982.00,0.0009
3981.00,0.0009
3980.00,0.0009
3979.00,0.0008
3978.00,0.0008
3977.00,0.0008
3976.00,0.0008
3975.00,0.0009
3974.00,0.0009
3973.00,0.0009
3972.00,0.0009
3971.00,0.0009
3970.00,0.0009
3969.00,0.0009
3968.00,0.0009
3967.00,0.0009
3966.00,0.0009
3965.00,0.0009
3964.00,0.0009
3963.00,0.0009
3962.00,0.0009
3961.00,0.0008
3960.00,0.0008
3959.00,0.0008
3958.00,0.0008
3957.00,0.0008
3956.00,0.0009
3955.00,0.0009
3954.00,0.0009
3953.00,0.0009
3952.00,0.0009
3951.00,0.0009
3950.00,0.0009
3949.00,0.0009
3948.00,0.0009
3947.00,0.0009
3946.00,0.0009
3945.00,0.0009
3944.00,0.0008
3943.00,0.0008
3942.00,0.0008
3941.00,0.0009
3940.00,0.0009
3939.00,0.0009
3938.00,0.0009
3937.00,0.0009
3936.00,0.0009
3935.00,0.0009
3934.00,0.0009
3933.00,0.0009
3932.00,0.0008
3931.00,0.0008
3930.00,0.0008
3929.00,0.0008
3928.00,0.0008
3927.00,0.0008
3926.00,0.0009
3925.00,0.0009
3924.00,0.0009
3923.00,0.0009
3922.00,0.0009
3921.00,0.0009
3920.00,0.0009
3919.00,0.0009
3918.00,0.0009
3917.00,0.0009
3916.00,0.0009
3915.00,0.0009
3914.00,0.0009
3913.00,0.0009
3912.00,0.0009
3911.00,0.0009
3910.00,0.0009
3909.00,0.0009
3908.00,0.0009
3907.00,0.0009
3906.00,0.0010
3905.00,0.0010
3904.00,0.0010
3903.00,0.0010
3902.00,0.0010
3901.00,0.0010
3900.00,0.0009
3899.00,0.0009
3898.00,0.0009
3897.00,0.0009
3896.00,0.0009
3895.00,0.0009
3894.00,0.0009
3893.00,0.0009
3892.00,0.0009
3891.00,0.0009
3890.00,0.0010
3889.00,0.0010
3888.00,0.0010
3887.00,0.0009
3886.00,0.0009
3885.00,0.0009
3884.00,0.0009
3883.00,0.0009
3882.00,0.0008
3881.00,0.0008
3880.00,0.0008
3879.00,0.0008
3878.00,0.0008
3877.00,0.0009
3876.00,0.0009
3875.00,0.0009
3874.00,0.0010
3873.00,0.0010
3872.00,0.0010
3871.00,0.0010
3870.00,0.0010
3869.00,0.0010
3868.00,0.0010
3867.00,0.0010
3866.00,0.0010
3865.00,0.0010
3864.00,0.0009
3863.00,0.0009
3862.00,0.0009
3861.00,0.0009
3860.00,0.0009
3859.00,0.0009
3858.00,0.0010
3857.00,0.0010
3856.00,0.0011
3855.00,0.0011
3854.00,0.0011
3853.00,0.0011
3852.00,0.0011
3851.00,0.0011
3850.00,0.0010
3849.00,0.0010
3848.00,0.0009
3847.00,0.0009
3846.00,0.0009
3845.00,0.0009
3844.00,0.0009
3843.00,0.0009
3842.00,0.0010
3841.00,0.0010
3840.00,0.0010
3839.00,0.0010
3838.00,0.0010
3837.00,0.0010
3836.00,0.0010
3835.00,0.0010
3834.00,0.0010
3833.00,0.0009
3832.00,0.0009
3831.00,0.0009
3830.00,0.0009
3829.00,0.0009
3828.00,0.0009
3827.00,0.0009
3826.00,0.0009
3825.00,0.0010
3824.00,0.0010
3823.00,0.0010
3822.00,0.0010
3821.00,0.0009
3820.00,0.0009
3819.00,0.0010
3818.00,0.0010
3817.00,0.0010
3816.00,0.0010
3815.00,0.0011
3814.00,0.0011
3813.00,0.0011
3812.00,0.0011
3811.00,0.0011
3810.00,0.0011
3809.00,0.0011
3808.00,0.0010
3807.00,0.0010
3806.00,0.0010
3805.00,0.0011
3804.00,0.0011
3803.00,0.0010
3802.00,0.0010
3801.00,0.0010
3800.00,0.0010
3799.00,0.0010
3798.00,0.0010
3797.00,0.0010
3796.00,0.0009
3795.00,0.0009
3794.00,0.0009
3793.00,0.0009
3792.00,0.0009
3791.00,0.0010
3790.00,0.0010
3789.00,0.0010
3788.00,0.0009
3787.00,0.0010
3786.00,0.0010
3785.00,0.0010
3784.00,0.0010
3783.00,0.0010
3782.00,0.0009
3781.00,0.0009
3780.00,0.0009
3779.00,0.0009
3778.00,0.0009
3777.00,0.0009
3776.00,0.0009
3775.00,0.0009
3774.00,0.0010
3773.00,0.0010
3772.00,0.0010
3771.00,0.0010
3770.00,0.0010
3769.00,0.0010
3768.00,0.0010
3767.00,0.0010
3766.00,0.0010
3765.00,0.0010
3764.00,0.0010
3763.00,0.0010
3762.00,0.0010
3761.00,0.0010
3760.00,0.0009
3759.00,0.0009
3758.00,0.0009
3757.00,0.0009
3756.00,0.0009
3755.00,0.0009
3754.00,0.0010
3753.00,0.0010
3752.00,0.0010
3751.00,0.0010
3750.00,0.0010
3749.00,0.0011
3748.00,0.0011
3747.00,0.0011
3746.00,0.0011
3745.00,0.0011
3744.00,0.0011
3743.00,0.0011
3742.00,0.0011
3741.00,0.0010
3740.00,0.0010
3739.00,0.0009
3738.00,0.0009
3737.00,0.0009
3736.00,0.0009
3735.00,0.0009
3734.00,0.0010
3733.00,0.0010
3732.00,0.0010
3731.00,0.0010
3730.00,0.0010
3729.00,0.0010
3728.00,0.0009
3727.00,0.0009
3726.00,0.0009
3725.00,0.0009
3724.00,0.0009
3723.00,0.0009
3722.00,0.0009
3721.00,0.0009
3720.00,0.0009
3719.00,0.0009
3718.00,0.0009
3717.00,0.0009
3716.00,0.0009
3715.00,0.0010
3714.00,0.0010
3713.00,0.0010
3712.00,0.0010
3711.00,0.0010
3710.00,0.0010
3709.00,0.0010
3708.00,0.0010
3707.00,0.0009
3706.00,0.0009
3705.00,0.0009
3704.00,0.0009
3703.00,0.0009
3702.00,0.0009
3701.00,0.0009
3700.00,0.0009
3699.00,0.0009
3698.00,0.0008
3697.00,0.0008
3696.00,0.0008
3695.00,0.0008
3694.00,0.0009
3693.00,0.0009
3692.00,0.0009
3691.00,0.0009
3690.00,0.0010
3689.00,0.0010
3688.00,0.0010
3687.00,0.0010
3686.00,0.0010
3685.00,0.0010
3684.00,0.0009
3683.00,0.0009
3682.00,0.0009
3681.00,0.0009
3680.00,0.0009
3679.00,0.0009
3678.00,0.0010
3677.00,0.0010
3676.00,0.0010
3675.00,0.0010
3674.00,0.0011
3673.00,0.0011
3672.00,0.0011
3671.00,0.0011
3670.00,0.0010
3669.00,0.0010
3668.00,0.0010
3667.00,0.0010
3666.00,0.0010
3665.00,0.0010
3664.00,0.0010
3663.00,0.0010
3662.00,0.0010
3661.00,0.0010
3660.00,0.0011
3659.00,0.0011
3658.00,0.0011
3657.00,0.0011
3656.00,0.0011
3655.00,0.0011
3654.00,0.0011
3653.00,0.0012
3652.00,0.0012
3651.00,0.0013
3650.00,0.0013
3649.00,0.0012
3648.00,0.0012
3647.00,0.0012
3646.00,0.0012
3645.00,0.0011
3644.00,0.0011
3643.00,0.0010
3642.00,0.0010
3641.00,0.0010
3640.00,0.0010
3639.00,0.0010
3638.00,0.0010
3637.00,0.0010
3636.00,0.0010
3635.00,0.0010
3634.00,0.0010
3633.00,0.0010
3632.00,0.0011
3631.00,0.0011
3630.00,0.0010
3629.00,0.0010
3628.00,0.0010
3627.00,0.0010
3626.00,0.0011
3625.00,0.0011
3624.00,0.0011
3623.00,0.0011
3622.00,0.0011
3621.00,0.0011
3620.00,0.0010
3619.00,0.0010
3618.00,0.0010
3617.00,0.0010
3616.00,0.0010
3615.00,0.0010
3614.00,0.0010
3613.00,0.0010
3612.00,0.0011
3611.00,0.0011
3610.00,0.0011
3609.00,0.0011
3608.00,0.0011
3607.00,0.0011
3606.00,0.0011
3605.00,0.0011
3604.00,0.0011
3603.00,0.0011
3602.00,0.0011
3601.00,0.0011
3600.00,0.0011
3599.00,0.0011
3598.00,0.0011
3597.00,0.0011
3596.00,0.0011
3595.00,0.0011
3594.00,0.0011
3593.00,0.0012
3592.00,0.0012
3591.00,0.0012
3590.00,0.0012
3589.00,0.0012
3588.00,0.0011
3587.00,0.0011
3586.00,0.0012
3585.00,0.0012
3584.00,0.0012
3583.00,0.0012
3582.00,0.0012
3581.00,0.0012
3580.00,0.0012
3579.00,0.0012
3578.00,0.0012
3577.00,0.0012
3576.00,0.0012
3575.00,0.0012
3574.00,0.0012
3573.00,0.0012
3572.00,0.0012
3571.00,0.0012
3570.00,0.0012
3569.00,0.0012
3568.00,0.0012
3567.00,0.0011
3566.00,0.0011
3565.00,0.0012
3564.00,0.0012
3563.00,0.0012
3562.00,0.0012
3561.00,0.0012
3560.00,0.0013
3559.00,0.0013
3558.00,0.0013
3557.00,0.0014
3556.00,0.0014
3555.00,0.0014
3554.00,0.0014
3553.00,0.0014
3552.00,0.0014
3551.00,0.0014
3550.00,0.0014
3549.00,0.0014
3548.00,0.0014
3547.00,0.0014
3546.00,0.0014
3545.00,0.0014
3544.00,0.0014
3543.00,0.0014
3542.00,0.0014
3541.00,0.0015
3540.00,0.0015
3539.00,0.0015
3538.00,0.0015
3537.00,0.0015
3536.00,0.0015
3535.00,0.0015
3534.00,0.0015
3533.00,0.0015
3532.00,0.0015
3531.00,0.0015
3530.00,0.0015
3529.00,0.0015
3528.00,0.0015
3527.00,0.0015
3526.00,0.0015
3525.00,0.0016
3524.00,0.0016
3523.00,0.0016
3522.00,0.0015
3521.00,0.0015
3520.00,0.0015
3519.00,0.0015
3518.00,0.0015
3517.00,0.0015
3516.00,0.0015
3515.00,0.0016
3514.00,0.0016
3513.00,0.0016
3512.00,0.0016
3511.00,0.0016
3510.00,0.0015
3509.00,0.0015
3508.00,0.0015
3507.00,0.0015
3506.00,0.0016
3505.00,0.0016
3504.00,0.0017
3503.00,0.0017
3502.00,0.0017
3501.00,0.0018
3500.00,0.0018
3499.00,0.0018
3498.00,0.0017
3497.00,0.0017
3496.00,0.0017
3495.00,0.0017
3494.00,0.0017
3493.00,0.0017
3492.00,0.0017
3491.00,0.0018
3490.00,0.0018
3489.00,0.0018
3488.00,0.0017
3487.00,0.0017
3486.00,0.0017
3485.00,0.0017
3484.00,0.0017
3483.00,0.0017
3482.00,0.0017
3481.00,0.0017
3480.00,0.0017
3479.00,0.0017
3478.00,0.0017
3477.00,0.0018
3476.00,0.0018
3475.00,0.0018
3474.00,0.0018
3473.00,0.0018
3472.00,0.0018
3471.00,0.0018
3470.00,0.0018
3469.00,0.0018
3468.00,0.0018
3467.00,0.0018
3466.00,0.0018
3465.00,0.0018
3464.00,0.0018
3463.00,0.0018
3462.00,0.0018
3461.00,0.0018
3460.00,0.0018
3459.00,0.0018
3458.00,0.0018
3457.00,0.0018
3456.00,0.0018
3455.00,0.0018
3454.00,0.0019
3453.00,0.0019
3452.00,0.0019
3451.00,0.0019
3450.00,0.0020
3449.00,0.0020
3448.00,0.0020
3447.00,0.0020
3446.00,0.0020
3445.00,0.0020
3444.00,0.0020
3443.00,0.0020
3442.00,0.0020
3441.00,0.0019
3440.00,0.0019
3439.00,0.0019
3438.00,0.0019
3437.00,0.0019
3436.00,0.0019
3435.00,0.0019
3434.00,0.0019
3433.00,0.0019
3432.00,0.0019
3431.00,0.0019
3430.00,0.0019
3429.00,0.0018
3428.00,0.0018
3427.00,0.0018
3426.00,0.0019
3425.00,0.0019
3424.00,0.0019
3423.00,0.0019
3422.00,0.0019
3421.00,0.0019
3420.00,0.0019
3419.00,0.0018
3418.00,0.0018
3417.00,0.0018
3416.00,0.0018
3415.00,0.0019
3414.00,0.0019
3413.00,0.0019
3412.00,0.0019
3411.00,0.0019
3410.00,0.0019
3409.00,0.0019
3408.00,0.0019
3407.00,0.0019
3406.00,0.0019
3405.00,0.0019
3404.00,0.0019
3403.00,0.0019
3402.00,0.0019
3401.00,0.0019
3400.00,0.0019
3399.00,0.0019
3398.00,0.0019
3397.00,0.0019
3396.00,0.0019
3395.00,0.0019
3394.00,0.0019
3393.00,0.0019
3392.00,0.0019
3391.00,0.0019
3390.00,0.0019
3389.00,0.0019
3388.00,0.0019
3387.00,0.0019
3386.00,0.0019
3385.00,0.0019
3384.00,0.0018
3383.00,0.0018
3382.00,0.0018
3381.00,0.0018
3380.00,0.0018
3379.00,0.0018
3378.00,0.0018
3377.00,0.0018
3376.00,0.0019
3375.00,0.0019
3374.00,0.0018
3373.00,0.0018
3372.00,0.0018
3371.00,0.0018
3370.00,0.0018
3369.00,0.0018
3368.00,0.0018
3367.00,0.0018
3366.00,0.0018
3365.00,0.0018
3364.00,0.0018
3363.00,0.0018
3362.00,0.0018
3361.00,0.0018
3360.00,0.0018
3359.00,0.0018
3358.00,0.0019
3357.00,0.0018
3356.00,0.0018
3355.00,0.0018
3354.00,0.0018
3353.00,0.0018
3352.00,0.0018
3351.00,0.0018
3350.00,0.0018
3349.00,0.0018
3348.00,0.0018
3347.00,0.0018
3346.00,0.0018
3345.00,0.0018
3344.00,0.0018
3343.00,0.0018
3342.00,0.0018
3341.00,0.0018
3340.00,0.0018
3339.00,0.0017
3338.00,0.0017
3337.00,0.0017
3336.00,0.0017
3335.00,0.0017
3334.00,0.0017
3333.00,0.0017
3332.00,0.0017
3331.00,0.0017
3330.00,0.0017
3329.00,0.0018
3328.00,0.0018
3327.00,0.0018
3326.00,0.0017
3325.00,0.0017
3324.00,0.0017
3323.00,0.0018
3322.00,0.0018
3321.00,0.0018
3320.00,0.0018
3319.00,0.0018
3318.00,0.0018
3317.00,0.0018
3316.00,0.0017
3315.00,0.0017
3314.00,0.0017
3313.00,0.0017
3312.00,0.0018
3311.00,0.0018
3310.00,0.0018
3309.00,0.0018
3308.00,0.0018
3307.00,0.0017
3306.00,0.0017
3305.00,0.0017
3304.00,0.0017
3303.00,0.0017
3302.00,0.0017
3301.00,0.0017
3300.00,0.0017
3299.00,0.0017
3298.00,0.0017
3297.00,0.0017
3296.00,0.0017
3295.00,0.0017
3294.00,0.0017
3293.00,0.0017
3292.00,0.0017
3291.00,0.0017
3290.00,0.0017
3289.00,0.0016
3288.00,0.0016
3287.00,0.0017
3286.00,0.0017
3285.00,0.0017
3284.00,0.0017
3283.00,0.0017
3282.00,0.0017
3281.00,0.0017
3280.00,0.0017
3279.00,0.0017
3278.00,0.0017
3277.00,0.0017
3276.00,0.0017
3275.00,0.0017
3274.00,0.0017
3273.00,0.0017
3272.00,0.0017
3271.00,0.0016
3270.00,0.0016
3269.00,0.0016
3268.00,0.0016
3267.00,0.0016
3266.00,0.0016
3265.00,0.0016
3264.00,0.0016
3263.00,0.0016
3262.00,0.0016
3261.00,0.0016
3260.00,0.0016
3259.00,0.0016
3258.00,0.0016
3257.00,0.0016
3256.00,0.0016
3255.00,0.0016
3254.00,0.0016
3253.00,0.0016
3252.00,0.0016
3251.00,0.0016
3250.00,0.0016
3249.00,0.0016
3248.00,0.0016
3247.00,0.0016
3246.00,0.0016
3245.00,0.0016
3244.00,0.0016
3243.00,0.0016
3242.00,0.0016
3241.00,0.0016
3240.00,0.0016
3239.00,0.0016
3238.00,0.0016
3237.00,0.0016
3236.00,0.0016
3235.00,0.0016
3234.00,0.0015
3233.00,0.0015
3232.00,0.0015
3231.00,0.0015
3230.00,0.0015
3229.00,0.0015
3228.00,0.0015
3227.00,0.0015
3226.00,0.0015
3225.00,0.0015
3224.00,0.0016
3223.00,0.0016
3222.00,0.0016
3221.00,0.0016
3220.00,0.0016
3219.00,0.0015
3218.00,0.0015
3217.00,0.0015
3216.00,0.0015
3215.00,0.0016
3214.00,0.0016
3213.00,0.0016
3212.00,0.0015
3211.00,0.0016
3210.00,0.0016
3209.00,0.0016
3208.00,0.0016
3207.00,0.0017
3206.00,0.0017
3205.00,0.0017
3204.00,0.0017
3203.00,0.0017
3202.00,0.0017
3201.00,0.0017
3200.00,0.0017
3199.00,0.0017
3198.00,0.0017
3197.00,0.0016
3196.00,0.0016
3195.00,0.0016
3194.00,0.0016
3193.00,0.0016
3192.00,0.0016
3191.00,0.0016
3190.00,0.0015
3189.00,0.0015
3188.00,0.0015
3187.00,0.0015
3186.00,0.0015
3185.00,0.0015
3184.00,0.0015
3183.00,0.0015
3182.00,0.0015
3181.00,0.0015
3180.00,0.0015
3179.00,0.0015
3178.00,0.0015
3177.00,0.0015
3176.00,0.0015
3175.00,0.0015
3174.00,0.0015
3173.00,0.0015
3172.00,0.0015
3171.00,0.0015
3170.00,0.0016
3169.00,0.0016
3168.00,0.0016
3167.00,0.0016
3166.00,0.0016
3165.00,0.0016
3164.00,0.0016
3163.00,0.0016
3162.00,0.0016
3161.00,0.0016
3160.00,0.0016
3159.00,0.0015
3158.00,0.0015
3157.00,0.0015
3156.00,0.0015
3155.00,0.0015
3154.00,0.0015
3153.00,0.0015
3152.00,0.0015
3151.00,0.0015
3150.00,0.0014
3149.00,0.0014
3148.00,0.0014
3147.00,0.0014
3146.00,0.0014
3145.00,0.0014
3144.00,0.0014
3143.00,0.0014
3142.00,0.0013
3141.00,0.0013
3140.00,0.0013
3139.00,0.0014
3138.00,0.0014
3137.00,0.0014
3136.00,0.0014
3135.00,0.0014
3134.00,0.0014
3133.00,0.0014
3132.00,0.0013
3131.00,0.0013
3130.00,0.0013
3129.00,0.0013
3128.00,0.0014
3127.00,0.0014
3126.00,0.0014
3125.00,0.0015
3124.00,0.0015
3123.00,0.0015
3122.00,0.0015
3121.00,0.0015
3120.00,0.0016
3119.00,0.0016
3118.00,0.0017
3117.00,0.0017
3116.00,0.0018
3115.00,0.0019
3114.00,0.0020
3113.00,0.0021
3112.00,0.0023
3111.00,0.0024
3110.00,0.0026
3109.00,0.0028
3108.00,0.0030
3107.00,0.0032
3106.00,0.0034
3105.00,0.0035
3104.00,0.0035
3103.00,0.0035
3102.00,0.0035
3101.00,0.0034
3100.00,0.0033
3099.00,0.0033
3098.00,0.0033
3097.00,0.0033
3096.00,0.0034
3095.00,0.0035
3094.00,0.0037
3093.00,0.0039
3092.00,0.0043
3091.00,0.0047
3090.00,0.0052
3089.00,0.0058
3088.00,0.0064
3087.00,0.0070
3086.00,0.0076
3085.00,0.0080
3084.00,0.0083
3083.00,0.0085
3082.00,0.0085
3081.00,0.0082
3080.00,0.0079
3079.00,0.0075
3078.00,0.0071
3077.00,0.0068
3076.00,0.0066
3075.00,0.0064
3074.00,0.0063
3073.00,0.0064
3072.00,0.0065
3071.00,0.0067
3070.00,0.0071
3069.00,0.0075
3068.00,0.0080
3067.00,0.0085
3066.00,0.0091
3065.00,0.0098
3064.00,0.0104
3063.00,0.0109
3062.00,0.0114
3061.00,0.0116
3060.00,0.0117
3059.00,0.0115
3058.00,0.0112
3057.00,0.0107
3056.00,0.0101
3055.00,0.0094
3054.00,0.0088
3053.00,0.0082
3052.00,0.0077
3051.00,0.0073
3050.00,0.0069
3049.00,0.0066
3048.00,0.0064
3047.00,0.0062
3046.00,0.0061
3045.00,0.0061
3044.00,0.0062
3043.00,0.0064
3042.00,0.0067
3041.00,0.0070
3040.00,0.0074
3039.00,0.0080
3038.00,0.0086
3037.00,0.0093
3036.00,0.0102
3035.00,0.0113
3034.00,0.0125
3033.00,0.0139
3032.00,0.0154
3031.00,0.0170
3030.00,0.0185
3029.00,0.0199
3028.00,0.0211
3027.00,0.0219
3026.00,0.0222
3025.00,0.0220
3024.00,0.0212
3023.00,0.0199
3022.00,0.0183
3021.00,0.0165
3020.00,0.0146
3019.00,0.0129
3018.00,0.0113
3017.00,0.0100
3016.00,0.0089
3015.00,0.0080
3014.00,0.0073
3013.00,0.0068
3012.00,0.0064
3011.00,0.0061
3010.00,0.0059
3009.00,0.0059
3008.00,0.0059
3007.00,0.0061
3006.00,0.0063
3005.00,0.0065
3004.00,0.0066
3003.00,0.0067
3002.00,0.0067
3001.00,0.0066
3000.00,0.0064
2999.00,0.0060
2998.00,0.0057
2997.00,0.0053
2996.00,0.0049
2995.00,0.0046
2994.00,0.0043
2993.00,0.0040
2992.00,0.0039
2991.00,0.0038
2990.00,0.0037
2989.00,0.0037
2988.00,0.0037
2987.00,0.0037
2986.00,0.0037
2985.00,0.0037
2984.00,0.0036
2983.00,0.0036
2982.00,0.0036
2981.00,0.0036
2980.00,0.0036
2979.00,0.0037
2978.00,0.0038
2977.00,0.0039
2976.00,0.0039
2975.00,0.0040
2974.00,0.0041
2973.00,0.0041
2972.00,0.0042
2971.00,0.0043
2970.00,0.0044
2969.00,0.0045
2968.00,0.0046
2967.00,0.0048
2966.00,0.0049
2965.00,0.0051
2964.00,0.0052
2963.00,0.0054
2962.00,0.0056
2961.00,0.0058
2960.00,0.0061
2959.00,0.0063
2958.00,0.0065
2957.00,0.0068
2956.00,0.0071
2955.00,0.0074
2954.00,0.0077
2953.00,0.0080
2952.00,0.0083
2951.00,0.0087
2950.00,0.0091
2949.00,0.0096
2948.00,0.0101
2947.00,0.0106
2946.00,0.0112
2945.00,0.0118
2944.00,0.0125
2943.00,0.0131
2942.00,0.0139
2941.00,0.0146
2940.00,0.0154
2939.00,0.0163
2938.00,0.0172
2937.00,0.0181
2936.00,0.0190
2935.00,0.0200
2934.00,0.0209
2933.00,0.0219
2932.00,0.0228
2931.00,0.0237
2930.00,0.0245
2929.00,0.0253
2928.00,0.0260
2927.00,0.0266
2926.00,0.0270
2925.00,0.0274
2924.00,0.0277
2923.00,0.0278
2922.00,0.0278
2921.00,0.0278
2920.00,0.0276
2919.00,0.0273
2918.00,0.0270
2917.00,0.0266
2916.00,0.0261
2915.00,0.0256
2914.00,0.0250
2913.00,0.0244
2912.00,0.0237
2911.00,0.0231
2910.00,0.0225
2909.00,0.0218
2908.00,0.0212
2907.00,0.0206
2906.00,0.0199
2905.00,0.0192
2904.00,0.0184
2903.00,0.0177
2902.00,0.0170
2901.00,0.0164
2900.00,0.0157
2899.00,0.0150
2898.00,0.0144
2897.00,0.0138
2896.00,0.0133
2895.00,0.0129
2894.00,0.0125
2893.00,0.0121
2892.00,0.0118
2891.00,0.0115
2890.00,0.0112
2889.00,0.0109
2888.00,0.0106
2887.00,0.0103
2886.00,0.0101
2885.00,0.0098
2884.00,0.0096
2883.00,0.0094
2882.00,0.0092
2881.00,0.0089
2880.00,0.0087
2879.00,0.0085
2878.00,0.0084
2877.00,0.0082
2876.00,0.0080
2875.00,0.0079
2874.00,0.0078
2873.00,0.0077
2872.00,0.0076
2871.00,0.0076
2870.00,0.0076
2869.00,0.0076
2868.00,0.0076
2867.00,0.0077
2866.00,0.0078
2865.00,0.0080
2864.00,0.0082
2863.00,0.0085
2862.00,0.0088
2861.00,0.0092
2860.00,0.0096
2859.00,0.0100
2858.00,0.0104
2857.00,0.0108
2856.00,0.0112
2855.00,0.0115
2854.00,0.0119
2853.00,0.0121
2852.00,0.0123
2851.00,0.0125
2850.00,0.0125
2849.00,0.0124
2848.00,0.0122
2847.00,0.0120
2846.00,0.0116
2845.00,0.0111
2844.00,0.0105
2843.00,0.0099
2842.00,0.0092
2841.00,0.0085
2840.00,0.0077
2839.00,0.0070
2838.00,0.0064
2837.00,0.0059
2836.00,0.0054
2835.00,0.0050
2834.00,0.0046
2833.00,0.0043
2832.00,0.0041
2831.00,0.0039
2830.00,0.0037
2829.00,0.0036
2828.00,0.0035
2827.00,0.0034
2826.00,0.0033
2825.00,0.0032
2824.00,0.0031
2823.00,0.0031
2822.00,0.0030
2821.00,0.0029
2820.00,0.0029
2819.00,0.0028
2818.00,0.0028
2817.00,0.0028
2816.00,0.0028
2815.00,0.0028
2814.00,0.0027
2813.00,0.0027
2812.00,0.0027
2811.00,0.0027
2810.00,0.0027
2809.00,0.0026
2808.00,0.0026
2807.00,0.0026
2806.00,0.0025
2805.00,0.0025
2804.00,0.0025
2803.00,0.0024
2802.00,0.0024
2801.00,0.0024
2800.00,0.0023
2799.00,0.0023
2798.00,0.0023
2797.00,0.0023
2796.00,0.0023
2795.00,0.0022
2794.00,0.0022
2793.00,0.0022
2792.00,0.0022
2791.00,0.0022
2790.00,0.0022
2789.00,0.0022
2788.00,0.0022
2787.00,0.0022
2786.00,0.0022
2785.00,0.0022
2784.00,0.0021
2783.00,0.0021
2782.00,0.0021
2781.00,0.0021
2780.00,0.0021
2779.00,0.0021
2778.00,0.0021
2777.00,0.0021
2776.00,0.0021
2775.00,0.0020
2774.00,0.0020
2773.00,0.0020
2772.00,0.0020
2771.00,0.0020
2770.00,0.0020
2769.00,0.0020
2768.00,0.0019
2767.00,0.0019
2766.00,0.0019
2765.00,0.0019
2764.00,0.0019
2763.00,0.0019
2762.00,0.0019
2761.00,0.0019
2760.00,0.0019
2759.00,0.0019
2758.00,0.0019
2757.00,0.0018
