Created as New Dataset,Sample 1042 By YargerLab Date Monday, August 04 2025
cm-1,A
4000.00,0.0045
3999.00,0.0045
3998.00,0.0045
3997.00,0.0045
3996.00,0.0045
3995.00,0.0045
3994.00,0.0045
3993.00,0.0045
3992.00,0.0045
3991.00,0.0045
3990.00,0.0045
3989.00,0.0045
3988.00,0.0045
3987.00,0.0045
3986.00,0.0045
3985.00,0.0045
3984.00,0.0045
3983.00,0.0045
3982.00,0.0046
3981.00,0.0046
3980.00,0.0045
3979.00,0.0045
3978.00,0.0045
3977.00,0.0045
3976.00,0.0045
3975.00,0.0045
3974.00,0.0045
3973.00,0.0045
3972.00,0.0045
3971.00,0.0045
3970.00,0.0045
3969.00,0.0045
3968.00,0.0045
3967.00,0.0045
3966.00,0.0045
3965.00,0.0045
3964.00,0.0045
3963.00,0.0045
3962.00,0.0046
3961.00,0.0046
3960.00,0.0046
3959.00,0.0046
3958.00,0.0046
3957.00,0.0046
3956.00,0.0046
3955.00,0.0046
3954.00,0.0045
3953.00,0.0045
3952.00,0.0045
3951.00,0.0045
3950.00,0.0045
3949.00,0.0045
3948.00,0.0045
3947.00,0.0046
3946.00,0.0046
3945.00,0.0046
3944.00,0.0046
3943.00,0.0046
3942.00,0.0046
3941.00,0.0046
3940.00,0.0046
3939.00,0.0046
3938.00,0.0046
3937.00,0.0046
3936.00,0.0046
3935.00,0.0046
3934.00,0.0046
3933.00,0.0046
3932.00,0.0046
3931.00,0.0046
3930.00,0.0046
3929.00,0.0046
3928.00,0.0046
3927.00,0.0046
3926.00,0.0046
3925.00,0.0046
3924.00,0.0046
3923.00,0.0046
3922.00,0.0046
3921.00,0.0046
3920.00,0.0046
3919.00,0.0046
3918.00,0.0046
3917.00,0.0046
3916.00,0.0046
3915.00,0.0046
3914.00,0.0046
3913.00,0.0046
3912.00,0.0046
3911.00,0.0046
3910.00,0.0046
3909.00,0.0046
3908.00,0.0046
3907.00,0.0046
3906.00,0.0047
3905.00,0.0047
3904.00,0.0048
3903.00,0.0048
3902.00,0.0048
3901.00,0.0048
3900.00,0.0048
3899.00,0.0047
3898.00,0.0047
3897.00,0.0047
3896.00,0.0047
3895.00,0.0047
3894.00,0.0047
3893.00,0.0047
3892.00,0.0046
3891.00,0.0046
3890.00,0.0047
3889.00,0.0047
3888.00,0.0047
3887.00,0.0047
3886.00,0.0048
3885.00,0.0048
3884.00,0.0048
3883.00,0.0048
3882.00,0.0048
3881.00,0.0047
3880.00,0.0047
3879.00,0.0047
3878.00,0.0047
3877.00,0.0047
3876.00,0.0047
3875.00,0.0047
3874.00,0.0047
3873.00,0.0047
3872.00,0.0048
3871.00,0.0048
3870.00,0.0048
3869.00,0.0048
3868.00,0.0048
3867.00,0.0048
3866.00,0.0047
3865.00,0.0048
3864.00,0.0048
3863.00,0.0047
3862.00,0.0047
3861.00,0.0047
3860.00,0.0047
3859.00,0.0047
3858.00,0.0047
3857.00,0.0048
3856.00,0.0049
3855.00,0.0049
3854.00,0.0050
3853.00,0.0050
3852.00,0.0050
3851.00,0.0051
3850.00,0.0050
3849.00,0.0049
3848.00,0.0048
3847.00,0.0048
3846.00,0.0047
3845.00,0.0047
3844.00,0.0047
3843.00,0.0047
3842.00,0.0047
3841.00,0.0048
3840.00,0.0048
3839.00,0.0048
3838.00,0.0048
3837.00,0.0048
3836.00,0.0048
3835.00,0.0048
3834.00,0.0048
3833.00,0.0048
3832.00,0.0048
3831.00,0.0048
3830.00,0.0047
3829.00,0.0047
3828.00,0.0047
3827.00,0.0047
3826.00,0.0047
3825.00,0.0047
3824.00,0.0048
3823.00,0.0048
3822.00,0.0048
3821.00,0.0049
3820.00,0.0049
3819.00,0.0049
3818.00,0.0048
3817.00,0.0048
3816.00,0.0048
3815.00,0.0048
3814.00,0.0048
3813.00,0.0047
3812.00,0.0047
3811.00,0.0047
3810.00,0.0048
3809.00,0.0048
3808.00,0.0048
3807.00,0.0048
3806.00,0.0048
3805.00,0.0049
3804.00,0.0049
3803.00,0.0049
3802.00,0.0049
3801.00,0.0049
3800.00,0.0049
3799.00,0.0048
3798.00,0.0048
3797.00,0.0047
3796.00,0.0047
3795.00,0.0047
3794.00,0.0046
3793.00,0.0046
3792.00,0.0046
3791.00,0.0046
3790.00,0.0046
3789.00,0.0046
3788.00,0.0045
3787.00,0.0045
3786.00,0.0045
3785.00,0.0045
3784.00,0.0045
3783.00,0.0046
3782.00,0.0046
3781.00,0.0046
3780.00,0.0046
3779.00,0.0046
3778.00,0.0046
3777.00,0.0046
3776.00,0.0046
3775.00,0.0046
3774.00,0.0046
3773.00,0.0046
3772.00,0.0046
3771.00,0.0046
3770.00,0.0047
3769.00,0.0047
3768.00,0.0047
3767.00,0.0047
3766.00,0.0047
3765.00,0.0047
3764.00,0.0047
3763.00,0.0047
3762.00,0.0047
3761.00,0.0047
3760.00,0.0048
3759.00,0.0048
3758.00,0.0048
3757.00,0.0048
3756.00,0.0048
3755.00,0.0048
3754.00,0.0049
3753.00,0.0050
3752.00,0.0050
3751.00,0.0051
3750.00,0.0051
3749.00,0.0051
3748.00,0.0051
3747.00,0.0051
3746.00,0.0051
3745.00,0.0050
3744.00,0.0050
3743.00,0.0050
3742.00,0.0050
3741.00,0.0049
3740.00,0.0049
3739.00,0.0049
3738.00,0.0049
3737.00,0.0049
3736.00,0.0049
3735.00,0.0049
3734.00,0.0049
3733.00,0.0049
3732.00,0.0048
3731.00,0.0048
3730.00,0.0048
3729.00,0.0047
3728.00,0.0047
3727.00,0.0046
3726.00,0.0046
3725.00,0.0046
3724.00,0.0046
3723.00,0.0046
3722.00,0.0046
3721.00,0.0046
3720.00,0.0046
3719.00,0.0046
3718.00,0.0046
3717.00,0.0046
3716.00,0.0047
3715.00,0.0047
3714.00,0.0048
3713.00,0.0048
3712.00,0.0048
3711.00,0.0048
3710.00,0.0047
3709.00,0.0047
3708.00,0.0047
3707.00,0.0047
3706.00,0.0047
3705.00,0.0046
3704.00,0.0046
3703.00,0.0046
3702.00,0.0046
3701.00,0.0045
3700.00,0.0045
3699.00,0.0045
3698.00,0.0045
3697.00,0.0045
3696.00,0.0045
3695.00,0.0045
3694.00,0.0046
3693.00,0.0046
3692.00,0.0047
3691.00,0.0048
3690.00,0.0048
3689.00,0.0048
3688.00,0.0049
3687.00,0.0049
3686.00,0.0048
3685.00,0.0048
3684.00,0.0047
3683.00,0.0046
3682.00,0.0046
3681.00,0.0046
3680.00,0.0047
3679.00,0.0048
3678.00,0.0049
3677.00,0.0050
3676.00,0.0050
3675.00,0.0051
3674.00,0.0051
3673.00,0.0051
3672.00,0.0051
3671.00,0.0050
3670.00,0.0050
3669.00,0.0050
3668.00,0.0050
3667.00,0.0049
3666.00,0.0049
3665.00,0.0049
3664.00,0.0049
3663.00,0.0048
3662.00,0.0048
3661.00,0.0048
3660.00,0.0049
3659.00,0.0049
3658.00,0.0049
3657.00,0.0050
3656.00,0.0050
3655.00,0.0051
3654.00,0.0052
3653.00,0.0052
3652.00,0.0053
3651.00,0.0054
3650.00,0.0054
3649.00,0.0054
3648.00,0.0054
3647.00,0.0054
3646.00,0.0054
3645.00,0.0054
3644.00,0.0053
3643.00,0.0053
3642.00,0.0053
3641.00,0.0053
3640.00,0.0053
3639.00,0.0053
3638.00,0.0053
3637.00,0.0053
3636.00,0.0054
3635.00,0.0054
3634.00,0.0055
3633.00,0.0056
3632.00,0.0057
3631.00,0.0058
3630.00,0.0058
3629.00,0.0059
3628.00,0.0059
3627.00,0.0059
3626.00,0.0059
3625.00,0.0059
3624.00,0.0059
3623.00,0.0059
3622.00,0.0059
3621.00,0.0060
3620.00,0.0060
3619.00,0.0061
3618.00,0.0061
3617.00,0.0062
3616.00,0.0063
3615.00,0.0063
3614.00,0.0064
3613.00,0.0064
3612.00,0.0065
3611.00,0.0065
3610.00,0.0065
3609.00,0.0066
3608.00,0.0066
3607.00,0.0066
3606.00,0.0067
3605.00,0.0067
3604.00,0.0067
3603.00,0.0067
3602.00,0.0068
3601.00,0.0068
3600.00,0.0068
3599.00,0.0069
3598.00,0.0069
3597.00,0.0070
3596.00,0.0071
3595.00,0.0071
3594.00,0.0072
3593.00,0.0073
3592.00,0.0073
3591.00,0.0074
3590.00,0.0075
3589.00,0.0076
3588.00,0.0076
3587.00,0.0076
3586.00,0.0077
3585.00,0.0077
3584.00,0.0078
3583.00,0.0078
3582.00,0.0079
3581.00,0.0079
3580.00,0.0080
3579.00,0.0080
3578.00,0.0081
3577.00,0.0082
3576.00,0.0083
3575.00,0.0084
3574.00,0.0085
3573.00,0.0085
3572.00,0.0086
3571.00,0.0087
3570.00,0.0088
3569.00,0.0090
3568.00,0.0090
3567.00,0.0091
3566.00,0.0091
3565.00,0.0092
3564.00,0.0092
3563.00,0.0093
3562.00,0.0094
3561.00,0.0094
3560.00,0.0095
3559.00,0.0095
3558.00,0.0096
3557.00,0.0097
3556.00,0.0097
3555.00,0.0098
3554.00,0.0099
3553.00,0.0100
3552.00,0.0100
3551.00,0.0101
3550.00,0.0102
3549.00,0.0103
3548.00,0.0104
3547.00,0.0104
3546.00,0.0105
3545.00,0.0105
3544.00,0.0106
3543.00,0.0106
3542.00,0.0106
3541.00,0.0107
3540.00,0.0108
3539.00,0.0108
3538.00,0.0109
3537.00,0.0110
3536.00,0.0110
3535.00,0.0111
3534.00,0.0111
3533.00,0.0112
3532.00,0.0113
3531.00,0.0114
3530.00,0.0114
3529.00,0.0115
3528.00,0.0115
3527.00,0.0116
3526.00,0.0117
3525.00,0.0117
3524.00,0.0118
3523.00,0.0119
3522.00,0.0119
3521.00,0.0119
3520.00,0.0120
3519.00,0.0120
3518.00,0.0121
3517.00,0.0121
3516.00,0.0122
3515.00,0.0122
3514.00,0.0122
3513.00,0.0123
3512.00,0.0123
3511.00,0.0124
3510.00,0.0124
3509.00,0.0124
3508.00,0.0124
3507.00,0.0125
3506.00,0.0126
3505.00,0.0126
3504.00,0.0127
3503.00,0.0127
3502.00,0.0127
3501.00,0.0128
3500.00,0.0128
3499.00,0.0129
3498.00,0.0130
3497.00,0.0130
3496.00,0.0130
3495.00,0.0130
3494.00,0.0131
3493.00,0.0131
3492.00,0.0132
3491.00,0.0132
3490.00,0.0133
3489.00,0.0133
3488.00,0.0133
3487.00,0.0134
3486.00,0.0134
3485.00,0.0135
3484.00,0.0135
3483.00,0.0136
3482.00,0.0136
3481.00,0.0136
3480.00,0.0137
3479.00,0.0137
3478.00,0.0138
3477.00,0.0139
3476.00,0.0139
3475.00,0.0140
3474.00,0.0141
3473.00,0.0141
3472.00,0.0142
3471.00,0.0143
3470.00,0.0143
3469.00,0.0144
3468.00,0.0144
3467.00,0.0145
3466.00,0.0145
3465.00,0.0146
3464.00,0.0147
3463.00,0.0147
3462.00,0.0148
3461.00,0.0148
3460.00,0.0149
3459.00,0.0149
3458.00,0.0150
3457.00,0.0150
3456.00,0.0151
3455.00,0.0151
3454.00,0.0152
3453.00,0.0153
3452.00,0.0154
3451.00,0.0154
3450.00,0.0155
3449.00,0.0155
3448.00,0.0156
3447.00,0.0156
3446.00,0.0157
3445.00,0.0157
3444.00,0.0158
3443.00,0.0159
3442.00,0.0160
3441.00,0.0160
3440.00,0.0161
3439.00,0.0162
3438.00,0.0162
3437.00,0.0163
3436.00,0.0163
3435.00,0.0164
3434.00,0.0165
3433.00,0.0165
3432.00,0.0166
3431.00,0.0167
3430.00,0.0167
3429.00,0.0168
3428.00,0.0169
3427.00,0.0170
3426.00,0.0170
3425.00,0.0171
3424.00,0.0172
3423.00,0.0173
3422.00,0.0174
3421.00,0.0175
3420.00,0.0176
3419.00,0.0177
3418.00,0.0178
3417.00,0.0179
3416.00,0.0179
3415.00,0.0180
3414.00,0.0181
3413.00,0.0181
3412.00,0.0181
3411.00,0.0182
3410.00,0.0182
3409.00,0.0182
3408.00,0.0183
3407.00,0.0184
3406.00,0.0184
3405.00,0.0185
3404.00,0.0185
3403.00,0.0185
3402.00,0.0185
3401.00,0.0186
3400.00,0.0186
3399.00,0.0186
3398.00,0.0185
3397.00,0.0185
3396.00,0.0185
3395.00,0.0185
3394.00,0.0184
3393.00,0.0184
3392.00,0.0184
3391.00,0.0184
3390.00,0.0183
3389.00,0.0183
3388.00,0.0183
3387.00,0.0182
3386.00,0.0181
3385.00,0.0181
3384.00,0.0180
3383.00,0.0179
3382.00,0.0179
3381.00,0.0178
3380.00,0.0178
3379.00,0.0177
3378.00,0.0176
3377.00,0.0176
3376.00,0.0175
3375.00,0.0174
3374.00,0.0173
3373.00,0.0173
3372.00,0.0172
3371.00,0.0171
3370.00,0.0171
3369.00,0.0170
3368.00,0.0169
3367.00,0.0169
3366.00,0.0168
3365.00,0.0168
3364.00,0.0167
3363.00,0.0166
3362.00,0.0166
3361.00,0.0165
3360.00,0.0164
3359.00,0.0164
3358.00,0.0163
3357.00,0.0163
3356.00,0.0162
3355.00,0.0162
3354.00,0.0161
3353.00,0.0160
3352.00,0.0159
3351.00,0.0159
3350.00,0.0159
3349.00,0.0158
3348.00,0.0158
3347.00,0.0158
3346.00,0.0157
3345.00,0.0157
3344.00,0.0156
3343.00,0.0156
3342.00,0.0155
3341.00,0.0155
3340.00,0.0155
3339.00,0.0154
3338.00,0.0154
3337.00,0.0153
3336.00,0.0153
3335.00,0.0154
3334.00,0.0154
3333.00,0.0154
3332.00,0.0153
3331.00,0.0153
3330.00,0.0153
3329.00,0.0152
3328.00,0.0152
3327.00,0.0151
3326.00,0.0151
3325.00,0.0151
3324.00,0.0152
3323.00,0.0152
3322.00,0.0152
3321.00,0.0152
3320.00,0.0152
3319.00,0.0152
3318.00,0.0152
3317.00,0.0152
3316.00,0.0152
3315.00,0.0152
3314.00,0.0152
3313.00,0.0151
3312.00,0.0151
3311.00,0.0151
3310.00,0.0150
3309.00,0.0150
3308.00,0.0150
3307.00,0.0149
3306.00,0.0149
3305.00,0.0150
3304.00,0.0151
3303.00,0.0151
3302.00,0.0152
3301.00,0.0152
3300.00,0.0152
3299.00,0.0152
3298.00,0.0152
3297.00,0.0152
3296.00,0.0152
3295.00,0.0152
3294.00,0.0152
3293.00,0.0152
3292.00,0.0153
3291.00,0.0153
3290.00,0.0154
3289.00,0.0154
3288.00,0.0155
3287.00,0.0155
3286.00,0.0155
3285.00,0.0155
3284.00,0.0155
3283.00,0.0155
3282.00,0.0155
3281.00,0.0155
3280.00,0.0155
3279.00,0.0156
3278.00,0.0155
3277.00,0.0155
3276.00,0.0155
3275.00,0.0155
3274.00,0.0155
3273.00,0.0154
3272.00,0.0154
3271.00,0.0154
3270.00,0.0155
3269.00,0.0155
3268.00,0.0155
3267.00,0.0156
3266.00,0.0156
3265.00,0.0156
3264.00,0.0156
3263.00,0.0157
3262.00,0.0157
3261.00,0.0157
3260.00,0.0157
3259.00,0.0156
3258.00,0.0156
3257.00,0.0156
3256.00,0.0157
3255.00,0.0157
3254.00,0.0157
3253.00,0.0157
3252.00,0.0157
3251.00,0.0157
3250.00,0.0157
3249.00,0.0157
3248.00,0.0157
3247.00,0.0157
3246.00,0.0157
3245.00,0.0157
3244.00,0.0157
3243.00,0.0157
3242.00,0.0156
3241.00,0.0156
3240.00,0.0156
3239.00,0.0156
3238.00,0.0155
3237.00,0.0155
3236.00,0.0155
3235.00,0.0154
3234.00,0.0154
3233.00,0.0154
3232.00,0.0154
3231.00,0.0154
3230.00,0.0153
3229.00,0.0153
3228.00,0.0153
3227.00,0.0153
3226.00,0.0153
3225.00,0.0152
3224.00,0.0152
3223.00,0.0151
3222.00,0.0151
3221.00,0.0150
3220.00,0.0150
3219.00,0.0149
3218.00,0.0149
3217.00,0.0148
3216.00,0.0148
3215.00,0.0148
3214.00,0.0147
3213.00,0.0147
3212.00,0.0146
3211.00,0.0145
3210.00,0.0144
3209.00,0.0144
3208.00,0.0143
3207.00,0.0143
3206.00,0.0142
3205.00,0.0141
3204.00,0.0140
3203.00,0.0140
3202.00,0.0139
3201.00,0.0138
3200.00,0.0138
3199.00,0.0137
3198.00,0.0137
3197.00,0.0136
3196.00,0.0135
3195.00,0.0134
3194.00,0.0133
3193.00,0.0133
3192.00,0.0132
3191.00,0.0131
3190.00,0.0131
3189.00,0.0130
3188.00,0.0130
3187.00,0.0129
3186.00,0.0128
3185.00,0.0127
3184.00,0.0126
3183.00,0.0126
3182.00,0.0125
3181.00,0.0125
3180.00,0.0124
3179.00,0.0123
3178.00,0.0123
3177.00,0.0122
3176.00,0.0121
3175.00,0.0121
3174.00,0.0120
3173.00,0.0119
3172.00,0.0119
3171.00,0.0118
3170.00,0.0117
3169.00,0.0117
3168.00,0.0116
3167.00,0.0115
3166.00,0.0115
3165.00,0.0114
3164.00,0.0113
3163.00,0.0112
3162.00,0.0111
3161.00,0.0111
3160.00,0.0110
3159.00,0.0109
3158.00,0.0108
3157.00,0.0108
3156.00,0.0107
3155.00,0.0106
3154.00,0.0106
3153.00,0.0105
3152.00,0.0105
3151.00,0.0104
3150.00,0.0103
3149.00,0.0103
3148.00,0.0102
3147.00,0.0101
3146.00,0.0100
3145.00,0.0100
3144.00,0.0099
3143.00,0.0099
3142.00,0.0098
3141.00,0.0097
3140.00,0.0097
3139.00,0.0096
3138.00,0.0096
3137.00,0.0096
3136.00,0.0095
3135.00,0.0095
3134.00,0.0095
3133.00,0.0094
3132.00,0.0094
3131.00,0.0093
3130.00,0.0093
3129.00,0.0092
3128.00,0.0092
3127.00,0.0091
3126.00,0.0091
3125.00,0.0090
3124.00,0.0090
3123.00,0.0090
3122.00,0.0089
3121.00,0.0088
3120.00,0.0088
3119.00,0.0088
3118.00,0.0087
3117.00,0.0087
3116.00,0.0087
3115.00,0.0086
3114.00,0.0086
3113.00,0.0085
3112.00,0.0085
3111.00,0.0085
3110.00,0.0084
3109.00,0.0084
3108.00,0.0083
3107.00,0.0083
3106.00,0.0083
3105.00,0.0083
3104.00,0.0082
3103.00,0.0082
3102.00,0.0082
3101.00,0.0081
3100.00,0.0081
3099.00,0.0081
3098.00,0.0080
3097.00,0.0080
3096.00,0.0079
3095.00,0.0079
3094.00,0.0079
3093.00,0.0079
3092.00,0.0079
3091.00,0.0080
3090.00,0.0080
3089.00,0.0080
3088.00,0.0080
3087.00,0.0080
3086.00,0.0080
3085.00,0.0080
3084.00,0.0080
3083.00,0.0079
3082.00,0.0079
3081.00,0.0079
3080.00,0.0079
3079.00,0.0078
3078.00,0.0078
3077.00,0.0078
3076.00,0.0078
3075.00,0.0078
3074.00,0.0077
3073.00,0.0077
3072.00,0.0077
3071.00,0.0077
3070.00,0.0077
3069.00,0.0076
3068.00,0.0076
3067.00,0.0076
3066.00,0.0075
3065.00,0.0075
3064.00,0.0075
3063.00,0.0075
3062.00,0.0075
3061.00,0.0075
3060.00,0.0075
3059.00,0.0075
3058.00,0.0075
3057.00,0.0075
3056.00,0.0075
3055.00,0.0075
3054.00,0.0075
3053.00,0.0075
3052.00,0.0075
3051.00,0.0075
3050.00,0.0075
3049.00,0.0075
3048.00,0.0074
3047.00,0.0074
3046.00,0.0074
3045.00,0.0074
3044.00,0.0074
3043.00,0.0074
3042.00,0.0074
3041.00,0.0075
3040.00,0.0075
3039.00,0.0075
3038.00,0.0075
3037.00,0.0076
3036.00,0.0076
3035.00,0.0076
3034.00,0.0076
3033.00,0.0077
3032.00,0.0077
3031.00,0.0077
3030.00,0.0076
3029.00,0.0076
3028.00,0.0076
3027.00,0.0075
3026.00,0.0075
3025.00,0.0074
3024.00,0.0074
3023.00,0.0074
3022.00,0.0074
3021.00,0.0074
3020.00,0.0073
3019.00,0.0073
3018.00,0.0073
3017.00,0.0073
3016.00,0.0074
3015.00,0.0074
3014.00,0.0074
3013.00,0.0075
3012.00,0.0075
3011.00,0.0075
3010.00,0.0076
3009.00,0.0077
3008.00,0.0078
3007.00,0.0079
3006.00,0.0081
3005.00,0.0082
3004.00,0.0083
3003.00,0.0085
3002.00,0.0087
3001.00,0.0089
3000.00,0.0091
2999.00,0.0093
2998.00,0.0096
2997.00,0.0098
2996.00,0.0101
2995.00,0.0104
2994.00,0.0106
2993.00,0.0109
2992.00,0.0111
2991.00,0.0114
2990.00,0.0116
2989.00,0.0119
2988.00,0.0121
2987.00,0.0124
2986.00,0.0126
2985.00,0.0129
2984.00,0.0132
2983.00,0.0135
2982.00,0.0139
2981.00,0.0143
2980.00,0.0146
2979.00,0.0150
2978.00,0.0153
2977.00,0.0156
2976.00,0.0158
2975.00,0.0161
2974.00,0.0164
2973.00,0.0168
2972.00,0.0173
2971.00,0.0177
2970.00,0.0181
2969.00,0.0184
2968.00,0.0186
2967.00,0.0189
2966.00,0.0191
2965.00,0.0194
2964.00,0.0197
2963.00,0.0200
2962.00,0.0202
2961.00,0.0204
2960.00,0.0205
2959.00,0.0205
2958.00,0.0204
2957.00,0.0202
2956.00,0.0200
2955.00,0.0197
2954.00,0.0194
2953.00,0.0192
2952.00,0.0189
2951.00,0.0187
2950.00,0.0186
2949.00,0.0185
2948.00,0.0184
2947.00,0.0184
2946.00,0.0185
2945.00,0.0186
2944.00,0.0188
2943.00,0.0191
2942.00,0.0193
2941.00,0.0196
2940.00,0.0200
2939.00,0.0204
2938.00,0.0209
2937.00,0.0214
2936.00,0.0220
2935.00,0.0227
2934.00,0.0234
2933.00,0.0242
2932.00,0.0249
2931.00,0.0256
2930.00,0.0262
2929.00,0.0267
2928.00,0.0271
2927.00,0.0272
2926.00,0.0272
2925.00,0.0270
2924.00,0.0267
2923.00,0.0263
2922.00,0.0258
2921.00,0.0252
2920.00,0.0246
2919.00,0.0240
2918.00,0.0233
2917.00,0.0227
2916.00,0.0221
2915.00,0.0215
2914.00,0.0210
2913.00,0.0205
2912.00,0.0200
2911.00,0.0196
2910.00,0.0192
2909.00,0.0189
2908.00,0.0186
2907.00,0.0182
2906.00,0.0179
2905.00,0.0177
2904.00,0.0174
2903.00,0.0172
2902.00,0.0170
2901.00,0.0168
2900.00,0.0166
2899.00,0.0164
2898.00,0.0163
2897.00,0.0161
2896.00,0.0160
2895.00,0.0159
2894.00,0.0158
2893.00,0.0157
2892.00,0.0157
2891.00,0.0156
2890.00,0.0155
2889.00,0.0154
2888.00,0.0153
2887.00,0.0153
2886.00,0.0152
2885.00,0.0151
2884.00,0.0151
2883.00,0.0151
2882.00,0.0151
2881.00,0.0152
2880.00,0.0153
2879.00,0.0154
2878.00,0.0156
2877.00,0.0158
2876.00,0.0161
2875.00,0.0163
2874.00,0.0165
2873.00,0.0166
2872.00,0.0167
2871.00,0.0167
2870.00,0.0167
2869.00,0.0166
2868.00,0.0165
2867.00,0.0165
2866.00,0.0165
2865.00,0.0167
2864.00,0.0169
2863.00,0.0172
2862.00,0.0176
2861.00,0.0181
2860.00,0.0186
2859.00,0.0190
2858.00,0.0194
2857.00,0.0196
2856.00,0.0197
2855.00,0.0196
2854.00,0.0195
2853.00,0.0192
2852.00,0.0187
2851.00,0.0182
2850.00,0.0175
2849.00,0.0168
2848.00,0.0160
2847.00,0.0153
2846.00,0.0146
2845.00,0.0140
2844.00,0.0134
2843.00,0.0129
2842.00,0.0124
2841.00,0.0120
2840.00,0.0116
2839.00,0.0113
2838.00,0.0110
2837.00,0.0108
2836.00,0.0106
2835.00,0.0103
2834.00,0.0101
2833.00,0.0100
2832.00,0.0098
2831.00,0.0096
2830.00,0.0095
2829.00,0.0094
2828.00,0.0092
2827.00,0.0091
2826.00,0.0090
2825.00,0.0088
2824.00,0.0087
2823.00,0.0086
2822.00,0.0085
2821.00,0.0084
2820.00,0.0083
2819.00,0.0082
2818.00,0.0082
2817.00,0.0081
2816.00,0.0080
2815.00,0.0080
2814.00,0.0079
2813.00,0.0079
2812.00,0.0078
2811.00,0.0077
2810.00,0.0077
2809.00,0.0076
2808.00,0.0076
2807.00,0.0076
2806.00,0.0075
2805.00,0.0075
2804.00,0.0075
2803.00,0.0075
2802.00,0.0075
2801.00,0.0074
2800.00,0.0073
2799.00,0.0073
2798.00,0.0073
2797.00,0.0072
2796.00,0.0072
2795.00,0.0072
2794.00,0.0072
2793.00,0.0071
2792.00,0.0071
2791.00,0.0070
2790.00,0.0070
2789.00,0.0070
2788.00,0.0070
2787.00,0.0069
2786.00,0.0069
2785.00,0.0069
2784.00,0.0069
2783.00,0.0069
2782.00,0.0068
2781.00,0.0068
2780.00,0.0068
2779.00,0.0068
2778.00,0.0068
2777.00,0.0068
2776.00,0.0067
2775.00,0.0067
2774.00,0.0067
2773.00,0.0067
2772.00,0.0067
2771.00,0.0066
2770.00,0.0066
2769.00,0.0066
2768.00,0.0066
2767.00,0.0066
2766.00,0.0066
2765.00,0.0066
2764.00,0.0066
2763.00,0.0066
2762.00,0.0066
2761.00,0.0066
2760.00,0.0066
2759.00,0.0066
2758.00,0.0066
2757.00,0.0066
