Created as New Dataset,Sample 076 By YargerLab Date Thursday, August 14 2025
cm-1,A
4000.00,0.0096
3999.00,0.0096
3998.00,0.0096
3997.00,0.0096
3996.00,0.0096
3995.00,0.0096
3994.00,0.0096
3993.00,0.0096
3992.00,0.0096
3991.00,0.0096
3990.00,0.0096
3989.00,0.0096
3988.00,0.0095
3987.00,0.0096
3986.00,0.0096
3985.00,0.0096
3984.00,0.0096
3983.00,0.0096
3982.00,0.0096
3981.00,0.0096
3980.00,0.0096
3979.00,0.0096
3978.00,0.0097
3977.00,0.0097
3976.00,0.0097
3975.00,0.0097
3974.00,0.0097
3973.00,0.0096
3972.00,0.0096
3971.00,0.0096
3970.00,0.0097
3969.00,0.0097
3968.00,0.0097
3967.00,0.0097
3966.00,0.0098
3965.00,0.0098
3964.00,0.0098
3963.00,0.0098
3962.00,0.0098
3961.00,0.0098
3960.00,0.0098
3959.00,0.0098
3958.00,0.0098
3957.00,0.0098
3956.00,0.0098
3955.00,0.0098
3954.00,0.0098
3953.00,0.0098
3952.00,0.0098
3951.00,0.0098
3950.00,0.0098
3949.00,0.0098
3948.00,0.0097
3947.00,0.0097
3946.00,0.0097
3945.00,0.0097
3944.00,0.0097
3943.00,0.0097
3942.00,0.0098
3941.00,0.0098
3940.00,0.0098
3939.00,0.0098
3938.00,0.0098
3937.00,0.0098
3936.00,0.0098
3935.00,0.0098
3934.00,0.0097
3933.00,0.0097
3932.00,0.0098
3931.00,0.0098
3930.00,0.0098
3929.00,0.0098
3928.00,0.0098
3927.00,0.0098
3926.00,0.0098
3925.00,0.0099
3924.00,0.0099
3923.00,0.0099
3922.00,0.0099
3921.00,0.0099
3920.00,0.0099
3919.00,0.0098
3918.00,0.0098
3917.00,0.0098
3916.00,0.0098
3915.00,0.0098
3914.00,0.0097
3913.00,0.0097
3912.00,0.0097
3911.00,0.0097
3910.00,0.0097
3909.00,0.0097
3908.00,0.0097
3907.00,0.0097
3906.00,0.0097
3905.00,0.0096
3904.00,0.0096
3903.00,0.0096
3902.00,0.0096
3901.00,0.0095
3900.00,0.0096
3899.00,0.0096
3898.00,0.0096
3897.00,0.0096
3896.00,0.0096
3895.00,0.0096
3894.00,0.0096
3893.00,0.0096
3892.00,0.0096
3891.00,0.0095
3890.00,0.0095
3889.00,0.0095
3888.00,0.0095
3887.00,0.0095
3886.00,0.0095
3885.00,0.0095
3884.00,0.0095
3883.00,0.0095
3882.00,0.0095
3881.00,0.0095
3880.00,0.0095
3879.00,0.0095
3878.00,0.0095
3877.00,0.0095
3876.00,0.0095
3875.00,0.0095
3874.00,0.0095
3873.00,0.0095
3872.00,0.0094
3871.00,0.0094
3870.00,0.0094
3869.00,0.0094
3868.00,0.0094
3867.00,0.0094
3866.00,0.0094
3865.00,0.0094
3864.00,0.0095
3863.00,0.0094
3862.00,0.0094
3861.00,0.0094
3860.00,0.0095
3859.00,0.0095
3858.00,0.0095
3857.00,0.0095
3856.00,0.0095
3855.00,0.0094
3854.00,0.0094
3853.00,0.0094
3852.00,0.0094
3851.00,0.0094
3850.00,0.0094
3849.00,0.0094
3848.00,0.0094
3847.00,0.0094
3846.00,0.0094
3845.00,0.0094
3844.00,0.0095
3843.00,0.0095
3842.00,0.0095
3841.00,0.0095
3840.00,0.0095
3839.00,0.0095
3838.00,0.0094
3837.00,0.0094
3836.00,0.0093
3835.00,0.0093
3834.00,0.0093
3833.00,0.0093
3832.00,0.0093
3831.00,0.0094
3830.00,0.0094
3829.00,0.0094
3828.00,0.0094
3827.00,0.0094
3826.00,0.0094
3825.00,0.0094
3824.00,0.0094
3823.00,0.0093
3822.00,0.0093
3821.00,0.0094
3820.00,0.0093
3819.00,0.0093
3818.00,0.0093
3817.00,0.0093
3816.00,0.0093
3815.00,0.0093
3814.00,0.0093
3813.00,0.0093
3812.00,0.0093
3811.00,0.0093
3810.00,0.0093
3809.00,0.0093
3808.00,0.0093
3807.00,0.0093
3806.00,0.0093
3805.00,0.0093
3804.00,0.0093
3803.00,0.0093
3802.00,0.0093
3801.00,0.0093
3800.00,0.0093
3799.00,0.0093
3798.00,0.0093
3797.00,0.0092
3796.00,0.0092
3795.00,0.0092
3794.00,0.0092
3793.00,0.0092
3792.00,0.0092
3791.00,0.0092
3790.00,0.0093
3789.00,0.0093
3788.00,0.0093
3787.00,0.0093
3786.00,0.0093
3785.00,0.0093
3784.00,0.0093
3783.00,0.0093
3782.00,0.0093
3781.00,0.0093
3780.00,0.0093
3779.00,0.0093
3778.00,0.0093
3777.00,0.0093
3776.00,0.0093
3775.00,0.0093
3774.00,0.0093
3773.00,0.0093
3772.00,0.0092
3771.00,0.0092
3770.00,0.0092
3769.00,0.0092
3768.00,0.0092
3767.00,0.0092
3766.00,0.0092
3765.00,0.0092
3764.00,0.0092
3763.00,0.0093
3762.00,0.0093
3761.00,0.0092
3760.00,0.0092
3759.00,0.0092
3758.00,0.0092
3757.00,0.0092
3756.00,0.0092
3755.00,0.0092
3754.00,0.0092
3753.00,0.0092
3752.00,0.0091
3751.00,0.0091
3750.00,0.0091
3749.00,0.0091
3748.00,0.0090
3747.00,0.0090
3746.00,0.0090
3745.00,0.0090
3744.00,0.0090
3743.00,0.0090
3742.00,0.0090
3741.00,0.0090
3740.00,0.0090
3739.00,0.0090
3738.00,0.0090
3737.00,0.0090
3736.00,0.0090
3735.00,0.0089
3734.00,0.0089
3733.00,0.0089
3732.00,0.0089
3731.00,0.0089
3730.00,0.0089
3729.00,0.0089
3728.00,0.0089
3727.00,0.0089
3726.00,0.0089
3725.00,0.0089
3724.00,0.0089
3723.00,0.0090
3722.00,0.0090
3721.00,0.0090
3720.00,0.0090
3719.00,0.0090
3718.00,0.0090
3717.00,0.0090
3716.00,0.0089
3715.00,0.0089
3714.00,0.0089
3713.00,0.0089
3712.00,0.0089
3711.00,0.0089
3710.00,0.0089
3709.00,0.0088
3708.00,0.0088
3707.00,0.0088
3706.00,0.0088
3705.00,0.0089
3704.00,0.0089
3703.00,0.0089
3702.00,0.0088
3701.00,0.0088
3700.00,0.0088
3699.00,0.0088
3698.00,0.0088
3697.00,0.0088
3696.00,0.0088
3695.00,0.0088
3694.00,0.0088
3693.00,0.0088
3692.00,0.0088
3691.00,0.0088
3690.00,0.0088
3689.00,0.0089
3688.00,0.0088
3687.00,0.0088
3686.00,0.0088
3685.00,0.0087
3684.00,0.0087
3683.00,0.0087
3682.00,0.0088
3681.00,0.0088
3680.00,0.0088
3679.00,0.0088
3678.00,0.0088
3677.00,0.0088
3676.00,0.0088
3675.00,0.0087
3674.00,0.0087
3673.00,0.0086
3672.00,0.0086
3671.00,0.0086
3670.00,0.0086
3669.00,0.0086
3668.00,0.0086
3667.00,0.0086
3666.00,0.0087
3665.00,0.0087
3664.00,0.0087
3663.00,0.0087
3662.00,0.0087
3661.00,0.0087
3660.00,0.0087
3659.00,0.0086
3658.00,0.0086
3657.00,0.0086
3656.00,0.0086
3655.00,0.0086
3654.00,0.0086
3653.00,0.0086
3652.00,0.0086
3651.00,0.0086
3650.00,0.0086
3649.00,0.0086
3648.00,0.0086
3647.00,0.0086
3646.00,0.0086
3645.00,0.0086
3644.00,0.0086
3643.00,0.0086
3642.00,0.0086
3641.00,0.0085
3640.00,0.0085
3639.00,0.0085
3638.00,0.0085
3637.00,0.0085
3636.00,0.0085
3635.00,0.0086
3634.00,0.0086
3633.00,0.0086
3632.00,0.0086
3631.00,0.0086
3630.00,0.0086
3629.00,0.0086
3628.00,0.0086
3627.00,0.0085
3626.00,0.0085
3625.00,0.0086
3624.00,0.0086
3623.00,0.0086
3622.00,0.0087
3621.00,0.0087
3620.00,0.0087
3619.00,0.0087
3618.00,0.0087
3617.00,0.0087
3616.00,0.0086
3615.00,0.0086
3614.00,0.0086
3613.00,0.0087
3612.00,0.0087
3611.00,0.0087
3610.00,0.0087
3609.00,0.0087
3608.00,0.0087
3607.00,0.0087
3606.00,0.0087
3605.00,0.0087
3604.00,0.0087
3603.00,0.0088
3602.00,0.0088
3601.00,0.0088
3600.00,0.0088
3599.00,0.0088
3598.00,0.0089
3597.00,0.0089
3596.00,0.0088
3595.00,0.0088
3594.00,0.0088
3593.00,0.0089
3592.00,0.0089
3591.00,0.0089
3590.00,0.0089
3589.00,0.0089
3588.00,0.0089
3587.00,0.0089
3586.00,0.0090
3585.00,0.0090
3584.00,0.0091
3583.00,0.0091
3582.00,0.0091
3581.00,0.0092
3580.00,0.0092
3579.00,0.0092
3578.00,0.0092
3577.00,0.0093
3576.00,0.0093
3575.00,0.0094
3574.00,0.0094
3573.00,0.0095
3572.00,0.0095
3571.00,0.0096
3570.00,0.0096
3569.00,0.0097
3568.00,0.0097
3567.00,0.0098
3566.00,0.0099
3565.00,0.0099
3564.00,0.0100
3563.00,0.0101
3562.00,0.0102
3561.00,0.0103
3560.00,0.0104
3559.00,0.0105
3558.00,0.0106
3557.00,0.0107
3556.00,0.0108
3555.00,0.0110
3554.00,0.0111
3553.00,0.0113
3552.00,0.0115
3551.00,0.0117
3550.00,0.0119
3549.00,0.0121
3548.00,0.0123
3547.00,0.0126
3546.00,0.0130
3545.00,0.0133
3544.00,0.0137
3543.00,0.0141
3542.00,0.0146
3541.00,0.0150
3540.00,0.0156
3539.00,0.0162
3538.00,0.0169
3537.00,0.0177
3536.00,0.0187
3535.00,0.0198
3534.00,0.0210
3533.00,0.0224
3532.00,0.0240
3531.00,0.0260
3530.00,0.0283
3529.00,0.0310
3528.00,0.0339
3527.00,0.0371
3526.00,0.0404
3525.00,0.0436
3524.00,0.0466
3523.00,0.0492
3522.00,0.0513
3521.00,0.0526
3520.00,0.0533
3519.00,0.0533
3518.00,0.0527
3517.00,0.0516
3516.00,0.0500
3515.00,0.0482
3514.00,0.0461
3513.00,0.0439
3512.00,0.0418
3511.00,0.0397
3510.00,0.0377
3509.00,0.0359
3508.00,0.0343
3507.00,0.0329
3506.00,0.0317
3505.00,0.0307
3504.00,0.0298
3503.00,0.0291
3502.00,0.0284
3501.00,0.0279
3500.00,0.0276
3499.00,0.0273
3498.00,0.0271
3497.00,0.0270
3496.00,0.0269
3495.00,0.0269
3494.00,0.0269
3493.00,0.0269
3492.00,0.0270
3491.00,0.0271
3490.00,0.0273
3489.00,0.0275
3488.00,0.0277
3487.00,0.0279
3486.00,0.0281
3485.00,0.0284
3484.00,0.0286
3483.00,0.0289
3482.00,0.0293
3481.00,0.0297
3480.00,0.0301
3479.00,0.0305
3478.00,0.0309
3477.00,0.0314
3476.00,0.0319
3475.00,0.0324
3474.00,0.0329
3473.00,0.0334
3472.00,0.0340
3471.00,0.0346
3470.00,0.0352
3469.00,0.0358
3468.00,0.0364
3467.00,0.0371
3466.00,0.0377
3465.00,0.0384
3464.00,0.0391
3463.00,0.0398
3462.00,0.0405
3461.00,0.0413
3460.00,0.0420
3459.00,0.0427
3458.00,0.0434
3457.00,0.0441
3456.00,0.0448
3455.00,0.0455
3454.00,0.0462
3453.00,0.0470
3452.00,0.0477
3451.00,0.0484
3450.00,0.0491
3449.00,0.0497
3448.00,0.0504
3447.00,0.0511
3446.00,0.0518
3445.00,0.0524
3444.00,0.0531
3443.00,0.0537
3442.00,0.0544
3441.00,0.0550
3440.00,0.0557
3439.00,0.0563
3438.00,0.0570
3437.00,0.0576
3436.00,0.0582
3435.00,0.0588
3434.00,0.0594
3433.00,0.0600
3432.00,0.0606
3431.00,0.0612
3430.00,0.0618
3429.00,0.0624
3428.00,0.0630
3427.00,0.0636
3426.00,0.0643
3425.00,0.0650
3424.00,0.0657
3423.00,0.0666
3422.00,0.0675
3421.00,0.0685
3420.00,0.0696
3419.00,0.0707
3418.00,0.0718
3417.00,0.0730
3416.00,0.0741
3415.00,0.0753
3414.00,0.0764
3413.00,0.0775
3412.00,0.0784
3411.00,0.0792
3410.00,0.0799
3409.00,0.0803
3408.00,0.0805
3407.00,0.0805
3406.00,0.0802
3405.00,0.0796
3404.00,0.0788
3403.00,0.0777
3402.00,0.0764
3401.00,0.0747
3400.00,0.0729
3399.00,0.0709
3398.00,0.0688
3397.00,0.0666
3396.00,0.0644
3395.00,0.0623
3394.00,0.0601
3393.00,0.0581
3392.00,0.0561
3391.00,0.0542
3390.00,0.0524
3389.00,0.0507
3388.00,0.0490
3387.00,0.0475
3386.00,0.0461
3385.00,0.0448
3384.00,0.0436
3383.00,0.0425
3382.00,0.0414
3381.00,0.0404
3380.00,0.0395
3379.00,0.0385
3378.00,0.0377
3377.00,0.0368
3376.00,0.0360
3375.00,0.0353
3374.00,0.0345
3373.00,0.0339
3372.00,0.0332
3371.00,0.0327
3370.00,0.0321
3369.00,0.0315
3368.00,0.0309
3367.00,0.0304
3366.00,0.0298
3365.00,0.0293
3364.00,0.0288
3363.00,0.0283
3362.00,0.0278
3361.00,0.0274
3360.00,0.0269
3359.00,0.0265
3358.00,0.0261
3357.00,0.0257
3356.00,0.0253
3355.00,0.0249
3354.00,0.0246
3353.00,0.0242
3352.00,0.0239
3351.00,0.0236
3350.00,0.0233
3349.00,0.0230
3348.00,0.0226
3347.00,0.0224
3346.00,0.0221
3345.00,0.0218
3344.00,0.0216
3343.00,0.0214
3342.00,0.0211
3341.00,0.0209
3340.00,0.0206
3339.00,0.0204
3338.00,0.0202
3337.00,0.0200
3336.00,0.0198
3335.00,0.0196
3334.00,0.0194
3333.00,0.0192
3332.00,0.0190
3331.00,0.0188
3330.00,0.0187
3329.00,0.0186
3328.00,0.0184
3327.00,0.0183
3326.00,0.0181
3325.00,0.0180
3324.00,0.0178
3323.00,0.0177
3322.00,0.0175
3321.00,0.0174
3320.00,0.0173
3319.00,0.0171
3318.00,0.0170
3317.00,0.0169
3316.00,0.0167
3315.00,0.0166
3314.00,0.0166
3313.00,0.0165
3312.00,0.0164
3311.00,0.0163
3310.00,0.0162
3309.00,0.0160
3308.00,0.0159
3307.00,0.0158
3306.00,0.0158
3305.00,0.0157
3304.00,0.0156
3303.00,0.0155
3302.00,0.0154
3301.00,0.0153
3300.00,0.0152
3299.00,0.0151
3298.00,0.0150
3297.00,0.0149
3296.00,0.0148
3295.00,0.0147
3294.00,0.0146
3293.00,0.0145
3292.00,0.0144
3291.00,0.0143
3290.00,0.0143
3289.00,0.0142
3288.00,0.0142
3287.00,0.0141
3286.00,0.0141
3285.00,0.0140
3284.00,0.0140
3283.00,0.0139
3282.00,0.0138
3281.00,0.0137
3280.00,0.0136
3279.00,0.0135
3278.00,0.0135
3277.00,0.0134
3276.00,0.0134
3275.00,0.0133
3274.00,0.0133
3273.00,0.0132
3272.00,0.0132
3271.00,0.0131
3270.00,0.0131
3269.00,0.0131
3268.00,0.0131
3267.00,0.0131
3266.00,0.0131
3265.00,0.0131
3264.00,0.0131
3263.00,0.0131
3262.00,0.0130
3261.00,0.0130
3260.00,0.0130
3259.00,0.0129
3258.00,0.0129
3257.00,0.0128
3256.00,0.0128
3255.00,0.0128
3254.00,0.0128
3253.00,0.0128
3252.00,0.0127
3251.00,0.0127
3250.00,0.0126
3249.00,0.0125
3248.00,0.0125
3247.00,0.0124
3246.00,0.0125
3245.00,0.0125
3244.00,0.0125
3243.00,0.0125
3242.00,0.0125
3241.00,0.0125
3240.00,0.0124
3239.00,0.0123
3238.00,0.0123
3237.00,0.0122
3236.00,0.0121
3235.00,0.0121
3234.00,0.0120
3233.00,0.0120
3232.00,0.0120
3231.00,0.0120
3230.00,0.0120
3229.00,0.0120
3228.00,0.0120
3227.00,0.0120
3226.00,0.0120
3225.00,0.0120
3224.00,0.0119
3223.00,0.0119
3222.00,0.0119
3221.00,0.0119
3220.00,0.0119
3219.00,0.0118
3218.00,0.0118
3217.00,0.0118
3216.00,0.0118
3215.00,0.0118
3214.00,0.0118
3213.00,0.0118
3212.00,0.0117
3211.00,0.0117
3210.00,0.0117
3209.00,0.0117
3208.00,0.0117
3207.00,0.0117
3206.00,0.0117
3205.00,0.0117
3204.00,0.0117
3203.00,0.0117
3202.00,0.0117
3201.00,0.0117
3200.00,0.0117
3199.00,0.0117
3198.00,0.0116
3197.00,0.0116
3196.00,0.0116
3195.00,0.0116
3194.00,0.0115
3193.00,0.0115
3192.00,0.0115
3191.00,0.0115
3190.00,0.0114
3189.00,0.0114
3188.00,0.0114
3187.00,0.0114
3186.00,0.0114
3185.00,0.0114
3184.00,0.0114
3183.00,0.0114
3182.00,0.0115
3181.00,0.0115
3180.00,0.0115
3179.00,0.0115
3178.00,0.0115
3177.00,0.0116
3176.00,0.0116
3175.00,0.0116
3174.00,0.0117
3173.00,0.0117
3172.00,0.0117
3171.00,0.0117
3170.00,0.0117
3169.00,0.0117
3168.00,0.0117
3167.00,0.0117
3166.00,0.0117
3165.00,0.0117
3164.00,0.0117
3163.00,0.0117
3162.00,0.0117
3161.00,0.0117
3160.00,0.0117
3159.00,0.0116
3158.00,0.0116
3157.00,0.0115
3156.00,0.0115
3155.00,0.0114
3154.00,0.0113
3153.00,0.0113
3152.00,0.0113
3151.00,0.0113
3150.00,0.0114
3149.00,0.0114
3148.00,0.0113
3147.00,0.0113
3146.00,0.0113
3145.00,0.0113
3144.00,0.0113
3143.00,0.0112
3142.00,0.0112
3141.00,0.0111
3140.00,0.0111
3139.00,0.0111
3138.00,0.0111
3137.00,0.0112
3136.00,0.0112
3135.00,0.0112
3134.00,0.0111
3133.00,0.0111
3132.00,0.0112
3131.00,0.0112
3130.00,0.0112
3129.00,0.0112
3128.00,0.0112
3127.00,0.0112
3126.00,0.0112
3125.00,0.0112
3124.00,0.0111
3123.00,0.0111
3122.00,0.0111
3121.00,0.0111
3120.00,0.0111
3119.00,0.0111
3118.00,0.0111
3117.00,0.0111
3116.00,0.0111
3115.00,0.0111
3114.00,0.0111
3113.00,0.0111
3112.00,0.0111
3111.00,0.0111
3110.00,0.0111
3109.00,0.0110
3108.00,0.0111
3107.00,0.0111
3106.00,0.0111
3105.00,0.0111
3104.00,0.0111
3103.00,0.0111
3102.00,0.0111
3101.00,0.0111
3100.00,0.0112
3099.00,0.0112
3098.00,0.0113
3097.00,0.0113
3096.00,0.0113
3095.00,0.0113
3094.00,0.0114
3093.00,0.0114
3092.00,0.0114
3091.00,0.0115
3090.00,0.0115
3089.00,0.0116
3088.00,0.0117
3087.00,0.0118
3086.00,0.0120
3085.00,0.0123
3084.00,0.0126
3083.00,0.0130
3082.00,0.0136
3081.00,0.0143
3080.00,0.0153
3079.00,0.0164
3078.00,0.0177
3077.00,0.0190
3076.00,0.0200
3075.00,0.0205
3074.00,0.0205
3073.00,0.0200
3072.00,0.0191
3071.00,0.0179
3070.00,0.0168
3069.00,0.0157
3068.00,0.0149
3067.00,0.0142
3066.00,0.0137
3065.00,0.0133
3064.00,0.0130
3063.00,0.0128
3062.00,0.0126
3061.00,0.0125
3060.00,0.0124
3059.00,0.0123
3058.00,0.0122
3057.00,0.0121
3056.00,0.0120
3055.00,0.0120
3054.00,0.0120
3053.00,0.0119
3052.00,0.0119
3051.00,0.0120
3050.00,0.0120
3049.00,0.0121
3048.00,0.0122
3047.00,0.0124
3046.00,0.0125
3045.00,0.0126
3044.00,0.0127
3043.00,0.0128
3042.00,0.0129
3041.00,0.0131
3040.00,0.0132
3039.00,0.0134
3038.00,0.0135
3037.00,0.0137
3036.00,0.0139
3035.00,0.0141
3034.00,0.0143
3033.00,0.0144
3032.00,0.0144
3031.00,0.0144
3030.00,0.0143
3029.00,0.0141
3028.00,0.0139
3027.00,0.0137
3026.00,0.0135
3025.00,0.0133
3024.00,0.0132
3023.00,0.0131
3022.00,0.0130
3021.00,0.0129
3020.00,0.0129
3019.00,0.0129
3018.00,0.0129
3017.00,0.0129
3016.00,0.0129
3015.00,0.0129
3014.00,0.0130
3013.00,0.0131
3012.00,0.0132
3011.00,0.0133
3010.00,0.0134
3009.00,0.0135
3008.00,0.0136
3007.00,0.0137
3006.00,0.0138
3005.00,0.0138
3004.00,0.0139
3003.00,0.0141
3002.00,0.0142
3001.00,0.0143
3000.00,0.0145
2999.00,0.0147
2998.00,0.0148
2997.00,0.0150
2996.00,0.0152
2995.00,0.0154
2994.00,0.0157
2993.00,0.0160
2992.00,0.0164
2991.00,0.0168
2990.00,0.0172
2989.00,0.0175
2988.00,0.0178
2987.00,0.0181
2986.00,0.0183
2985.00,0.0186
2984.00,0.0189
2983.00,0.0193
2982.00,0.0198
2981.00,0.0205
2980.00,0.0215
2979.00,0.0226
2978.00,0.0239
2977.00,0.0255
2976.00,0.0272
2975.00,0.0292
2974.00,0.0315
2973.00,0.0339
2972.00,0.0364
2971.00,0.0390
2970.00,0.0416
2969.00,0.0440
2968.00,0.0461
2967.00,0.0478
2966.00,0.0489
2965.00,0.0495
2964.00,0.0496
2963.00,0.0495
2962.00,0.0492
2961.00,0.0487
2960.00,0.0481
2959.00,0.0472
2958.00,0.0461
2957.00,0.0448
2956.00,0.0435
2955.00,0.0422
2954.00,0.0410
2953.00,0.0400
2952.00,0.0392
2951.00,0.0388
2950.00,0.0388
2949.00,0.0392
2948.00,0.0402
2947.00,0.0416
2946.00,0.0435
2945.00,0.0457
2944.00,0.0480
2943.00,0.0502
2942.00,0.0523
2941.00,0.0542
2940.00,0.0560
2939.00,0.0578
2938.00,0.0598
2937.00,0.0619
2936.00,0.0642
2935.00,0.0667
2934.00,0.0693
2933.00,0.0721
2932.00,0.0749
2931.00,0.0777
2930.00,0.0805
2929.00,0.0832
2928.00,0.0857
2927.00,0.0878
2926.00,0.0893
2925.00,0.0902
2924.00,0.0904
2923.00,0.0901
2922.00,0.0894
2921.00,0.0886
2920.00,0.0878
2919.00,0.0871
2918.00,0.0865
2917.00,0.0858
2916.00,0.0850
2915.00,0.0838
2914.00,0.0823
2913.00,0.0805
2912.00,0.0783
2911.00,0.0759
2910.00,0.0733
2909.00,0.0708
2908.00,0.0682
2907.00,0.0657
2906.00,0.0635
2905.00,0.0615
2904.00,0.0597
2903.00,0.0582
2902.00,0.0569
2901.00,0.0557
2900.00,0.0544
2899.00,0.0531
2898.00,0.0517
2897.00,0.0501
2896.00,0.0485
2895.00,0.0470
2894.00,0.0456
2893.00,0.0443
2892.00,0.0432
2891.00,0.0423
2890.00,0.0416
2889.00,0.0411
2888.00,0.0407
2887.00,0.0403
2886.00,0.0401
2885.00,0.0400
2884.00,0.0399
2883.00,0.0398
2882.00,0.0398
2881.00,0.0400
2880.00,0.0402
2879.00,0.0405
2878.00,0.0410
2877.00,0.0416
2876.00,0.0423
2875.00,0.0430
2874.00,0.0437
2873.00,0.0443
2872.00,0.0447
2871.00,0.0448
2870.00,0.0446
2869.00,0.0442
2868.00,0.0437
2867.00,0.0434
2866.00,0.0434
2865.00,0.0439
2864.00,0.0451
2863.00,0.0469
2862.00,0.0494
2861.00,0.0526
2860.00,0.0563
2859.00,0.0603
2858.00,0.0640
2857.00,0.0669
2856.00,0.0685
2855.00,0.0683
2854.00,0.0666
2853.00,0.0636
2852.00,0.0598
2851.00,0.0556
2850.00,0.0515
2849.00,0.0476
2848.00,0.0440
2847.00,0.0408
2846.00,0.0380
2845.00,0.0356
2844.00,0.0335
2843.00,0.0318
2842.00,0.0304
2841.00,0.0294
2840.00,0.0286
2839.00,0.0281
2838.00,0.0280
2837.00,0.0282
2836.00,0.0289
2835.00,0.0300
2834.00,0.0317
2833.00,0.0337
2832.00,0.0359
2831.00,0.0379
2830.00,0.0392
2829.00,0.0395
2828.00,0.0386
2827.00,0.0367
2826.00,0.0342
2825.00,0.0315
2824.00,0.0290
2823.00,0.0268
2822.00,0.0250
2821.00,0.0236
2820.00,0.0224
2819.00,0.0215
2818.00,0.0208
2817.00,0.0202
2816.00,0.0197
2815.00,0.0192
2814.00,0.0189
2813.00,0.0185
2812.00,0.0182
2811.00,0.0179
2810.00,0.0177
2809.00,0.0174
2808.00,0.0173
2807.00,0.0171
2806.00,0.0169
2805.00,0.0167
2804.00,0.0166
2803.00,0.0164
2802.00,0.0162
2801.00,0.0160
2800.00,0.0158
2799.00,0.0157
2798.00,0.0156
2797.00,0.0155
2796.00,0.0154
2795.00,0.0153
2794.00,0.0152
2793.00,0.0151
2792.00,0.0149
2791.00,0.0148
2790.00,0.0148
2789.00,0.0147
2788.00,0.0146
2787.00,0.0145
2786.00,0.0145
2785.00,0.0144
2784.00,0.0143
2783.00,0.0142
2782.00,0.0141
2781.00,0.0140
2780.00,0.0139
2779.00,0.0139
2778.00,0.0138
2777.00,0.0137
2776.00,0.0137
2775.00,0.0136
2774.00,0.0136
2773.00,0.0135
2772.00,0.0135
2771.00,0.0135
2770.00,0.0134
2769.00,0.0134
2768.00,0.0133
2767.00,0.0133
2766.00,0.0132
2765.00,0.0132
2764.00,0.0131
2763.00,0.0131
2762.00,0.0131
2761.00,0.0130
2760.00,0.0130
2759.00,0.0129
2758.00,0.0129
2757.00,0.0129
