Created as New Dataset,Sample 1071 By YargerLab Date Tuesday, August 05 2025
cm-1,A
4000.00,0.0006
3999.00,0.0006
3998.00,0.0006
3997.00,0.0006
3996.00,0.0006
3995.00,0.0006
3994.00,0.0006
3993.00,0.0006
3992.00,0.0006
3991.00,0.0005
3990.00,0.0005
3989.00,0.0005
3988.00,0.0005
3987.00,0.0005
3986.00,0.0005
3985.00,0.0006
3984.00,0.0006
3983.00,0.0006
3982.00,0.0006
3981.00,0.0006
3980.00,0.0006
3979.00,0.0006
3978.00,0.0005
3977.00,0.0005
3976.00,0.0005
3975.00,0.0006
3974.00,0.0006
3973.00,0.0006
3972.00,0.0006
3971.00,0.0006
3970.00,0.0005
3969.00,0.0005
3968.00,0.0005
3967.00,0.0005
3966.00,0.0005
3965.00,0.0004
3964.00,0.0005
3963.00,0.0005
3962.00,0.0005
3961.00,0.0005
3960.00,0.0005
3959.00,0.0005
3958.00,0.0005
3957.00,0.0005
3956.00,0.0005
3955.00,0.0005
3954.00,0.0005
3953.00,0.0005
3952.00,0.0005
3951.00,0.0005
3950.00,0.0005
3949.00,0.0005
3948.00,0.0005
3947.00,0.0005
3946.00,0.0005
3945.00,0.0005
3944.00,0.0005
3943.00,0.0005
3942.00,0.0005
3941.00,0.0005
3940.00,0.0005
3939.00,0.0005
3938.00,0.0005
3937.00,0.0005
3936.00,0.0005
3935.00,0.0005
3934.00,0.0005
3933.00,0.0005
3932.00,0.0005
3931.00,0.0005
3930.00,0.0005
3929.00,0.0005
3928.00,0.0005
3927.00,0.0005
3926.00,0.0005
3925.00,0.0005
3924.00,0.0005
3923.00,0.0005
3922.00,0.0005
3921.00,0.0005
3920.00,0.0005
3919.00,0.0005
3918.00,0.0005
3917.00,0.0005
3916.00,0.0005
3915.00,0.0005
3914.00,0.0005
3913.00,0.0005
3912.00,0.0005
3911.00,0.0005
3910.00,0.0005
3909.00,0.0005
3908.00,0.0005
3907.00,0.0005
3906.00,0.0004
3905.00,0.0004
3904.00,0.0004
3903.00,0.0005
3902.00,0.0005
3901.00,0.0005
3900.00,0.0004
3899.00,0.0004
3898.00,0.0004
3897.00,0.0005
3896.00,0.0005
3895.00,0.0005
3894.00,0.0005
3893.00,0.0005
3892.00,0.0004
3891.00,0.0005
3890.00,0.0005
3889.00,0.0005
3888.00,0.0005
3887.00,0.0004
3886.00,0.0004
3885.00,0.0004
3884.00,0.0004
3883.00,0.0004
3882.00,0.0004
3881.00,0.0004
3880.00,0.0004
3879.00,0.0004
3878.00,0.0004
3877.00,0.0004
3876.00,0.0004
3875.00,0.0005
3874.00,0.0005
3873.00,0.0005
3872.00,0.0004
3871.00,0.0004
3870.00,0.0004
3869.00,0.0004
3868.00,0.0004
3867.00,0.0004
3866.00,0.0004
3865.00,0.0004
3864.00,0.0004
3863.00,0.0004
3862.00,0.0004
3861.00,0.0004
3860.00,0.0004
3859.00,0.0004
3858.00,0.0004
3857.00,0.0003
3856.00,0.0003
3855.00,0.0003
3854.00,0.0003
3853.00,0.0003
3852.00,0.0002
3851.00,0.0003
3850.00,0.0003
3849.00,0.0003
3848.00,0.0004
3847.00,0.0004
3846.00,0.0004
3845.00,0.0005
3844.00,0.0005
3843.00,0.0005
3842.00,0.0004
3841.00,0.0004
3840.00,0.0004
3839.00,0.0003
3838.00,0.0003
3837.00,0.0003
3836.00,0.0003
3835.00,0.0004
3834.00,0.0004
3833.00,0.0004
3832.00,0.0005
3831.00,0.0005
3830.00,0.0005
3829.00,0.0005
3828.00,0.0005
3827.00,0.0005
3826.00,0.0005
3825.00,0.0005
3824.00,0.0005
3823.00,0.0005
3822.00,0.0005
3821.00,0.0005
3820.00,0.0005
3819.00,0.0004
3818.00,0.0004
3817.00,0.0004
3816.00,0.0004
3815.00,0.0005
3814.00,0.0005
3813.00,0.0005
3812.00,0.0005
3811.00,0.0005
3810.00,0.0005
3809.00,0.0005
3808.00,0.0005
3807.00,0.0005
3806.00,0.0005
3805.00,0.0005
3804.00,0.0004
3803.00,0.0004
3802.00,0.0004
3801.00,0.0004
3800.00,0.0004
3799.00,0.0004
3798.00,0.0004
3797.00,0.0004
3796.00,0.0005
3795.00,0.0005
3794.00,0.0005
3793.00,0.0005
3792.00,0.0005
3791.00,0.0006
3790.00,0.0006
3789.00,0.0006
3788.00,0.0006
3787.00,0.0006
3786.00,0.0005
3785.00,0.0005
3784.00,0.0005
3783.00,0.0005
3782.00,0.0005
3781.00,0.0005
3780.00,0.0005
3779.00,0.0005
3778.00,0.0005
3777.00,0.0005
3776.00,0.0005
3775.00,0.0005
3774.00,0.0006
3773.00,0.0006
3772.00,0.0006
3771.00,0.0006
3770.00,0.0006
3769.00,0.0006
3768.00,0.0006
3767.00,0.0006
3766.00,0.0006
3765.00,0.0006
3764.00,0.0006
3763.00,0.0006
3762.00,0.0006
3761.00,0.0006
3760.00,0.0006
3759.00,0.0006
3758.00,0.0006
3757.00,0.0006
3756.00,0.0006
3755.00,0.0006
3754.00,0.0005
3753.00,0.0005
3752.00,0.0005
3751.00,0.0005
3750.00,0.0005
3749.00,0.0005
3748.00,0.0004
3747.00,0.0004
3746.00,0.0004
3745.00,0.0004
3744.00,0.0005
3743.00,0.0005
3742.00,0.0005
3741.00,0.0005
3740.00,0.0005
3739.00,0.0005
3738.00,0.0005
3737.00,0.0005
3736.00,0.0004
3735.00,0.0004
3734.00,0.0004
3733.00,0.0004
3732.00,0.0004
3731.00,0.0004
3730.00,0.0004
3729.00,0.0004
3728.00,0.0004
3727.00,0.0005
3726.00,0.0005
3725.00,0.0005
3724.00,0.0005
3723.00,0.0005
3722.00,0.0005
3721.00,0.0005
3720.00,0.0005
3719.00,0.0005
3718.00,0.0005
3717.00,0.0005
3716.00,0.0005
3715.00,0.0005
3714.00,0.0005
3713.00,0.0005
3712.00,0.0005
3711.00,0.0004
3710.00,0.0004
3709.00,0.0005
3708.00,0.0005
3707.00,0.0005
3706.00,0.0005
3705.00,0.0005
3704.00,0.0005
3703.00,0.0005
3702.00,0.0005
3701.00,0.0005
3700.00,0.0006
3699.00,0.0006
3698.00,0.0006
3697.00,0.0006
3696.00,0.0006
3695.00,0.0006
3694.00,0.0006
3693.00,0.0006
3692.00,0.0006
3691.00,0.0006
3690.00,0.0007
3689.00,0.0007
3688.00,0.0008
3687.00,0.0008
3686.00,0.0009
3685.00,0.0010
3684.00,0.0010
3683.00,0.0011
3682.00,0.0011
3681.00,0.0011
3680.00,0.0011
3679.00,0.0011
3678.00,0.0010
3677.00,0.0010
3676.00,0.0010
3675.00,0.0010
3674.00,0.0010
3673.00,0.0010
3672.00,0.0010
3671.00,0.0011
3670.00,0.0011
3669.00,0.0012
3668.00,0.0012
3667.00,0.0013
3666.00,0.0013
3665.00,0.0013
3664.00,0.0014
3663.00,0.0014
3662.00,0.0015
3661.00,0.0015
3660.00,0.0015
3659.00,0.0015
3658.00,0.0015
3657.00,0.0016
3656.00,0.0016
3655.00,0.0017
3654.00,0.0017
3653.00,0.0018
3652.00,0.0018
3651.00,0.0019
3650.00,0.0019
3649.00,0.0019
3648.00,0.0020
3647.00,0.0020
3646.00,0.0020
3645.00,0.0021
3644.00,0.0021
3643.00,0.0021
3642.00,0.0022
3641.00,0.0023
3640.00,0.0023
3639.00,0.0024
3638.00,0.0024
3637.00,0.0025
3636.00,0.0025
3635.00,0.0026
3634.00,0.0026
3633.00,0.0026
3632.00,0.0026
3631.00,0.0026
3630.00,0.0026
3629.00,0.0027
3628.00,0.0028
3627.00,0.0029
3626.00,0.0030
3625.00,0.0030
3624.00,0.0031
3623.00,0.0032
3622.00,0.0032
3621.00,0.0033
3620.00,0.0033
3619.00,0.0034
3618.00,0.0034
3617.00,0.0035
3616.00,0.0035
3615.00,0.0036
3614.00,0.0037
3613.00,0.0038
3612.00,0.0038
3611.00,0.0039
3610.00,0.0040
3609.00,0.0041
3608.00,0.0041
3607.00,0.0042
3606.00,0.0043
3605.00,0.0044
3604.00,0.0044
3603.00,0.0045
3602.00,0.0046
3601.00,0.0047
3600.00,0.0048
3599.00,0.0049
3598.00,0.0050
3597.00,0.0050
3596.00,0.0051
3595.00,0.0052
3594.00,0.0053
3593.00,0.0054
3592.00,0.0055
3591.00,0.0055
3590.00,0.0056
3589.00,0.0057
3588.00,0.0058
3587.00,0.0059
3586.00,0.0060
3585.00,0.0061
3584.00,0.0061
3583.00,0.0062
3582.00,0.0063
3581.00,0.0065
3580.00,0.0066
3579.00,0.0067
3578.00,0.0068
3577.00,0.0068
3576.00,0.0069
3575.00,0.0070
3574.00,0.0071
3573.00,0.0072
3572.00,0.0073
3571.00,0.0074
3570.00,0.0074
3569.00,0.0075
3568.00,0.0076
3567.00,0.0077
3566.00,0.0078
3565.00,0.0080
3564.00,0.0081
3563.00,0.0082
3562.00,0.0083
3561.00,0.0084
3560.00,0.0085
3559.00,0.0085
3558.00,0.0086
3557.00,0.0087
3556.00,0.0088
3555.00,0.0088
3554.00,0.0089
3553.00,0.0090
3552.00,0.0091
3551.00,0.0092
3550.00,0.0093
3549.00,0.0094
3548.00,0.0094
3547.00,0.0095
3546.00,0.0096
3545.00,0.0097
3544.00,0.0098
3543.00,0.0099
3542.00,0.0099
3541.00,0.0099
3540.00,0.0100
3539.00,0.0101
3538.00,0.0101
3537.00,0.0102
3536.00,0.0102
3535.00,0.0103
3534.00,0.0104
3533.00,0.0104
3532.00,0.0105
3531.00,0.0105
3530.00,0.0105
3529.00,0.0106
3528.00,0.0107
3527.00,0.0108
3526.00,0.0108
3525.00,0.0109
3524.00,0.0109
3523.00,0.0110
3522.00,0.0110
3521.00,0.0111
3520.00,0.0111
3519.00,0.0112
3518.00,0.0112
3517.00,0.0113
3516.00,0.0114
3515.00,0.0114
3514.00,0.0115
3513.00,0.0115
3512.00,0.0116
3511.00,0.0116
3510.00,0.0116
3509.00,0.0117
3508.00,0.0117
3507.00,0.0118
3506.00,0.0118
3505.00,0.0119
3504.00,0.0120
3503.00,0.0120
3502.00,0.0121
3501.00,0.0122
3500.00,0.0122
3499.00,0.0123
3498.00,0.0123
3497.00,0.0123
3496.00,0.0124
3495.00,0.0124
3494.00,0.0125
3493.00,0.0125
3492.00,0.0126
3491.00,0.0126
3490.00,0.0126
3489.00,0.0127
3488.00,0.0127
3487.00,0.0128
3486.00,0.0128
3485.00,0.0128
3484.00,0.0129
3483.00,0.0129
3482.00,0.0130
3481.00,0.0130
3480.00,0.0131
3479.00,0.0131
3478.00,0.0132
3477.00,0.0132
3476.00,0.0132
3475.00,0.0133
3474.00,0.0133
3473.00,0.0133
3472.00,0.0134
3471.00,0.0134
3470.00,0.0135
3469.00,0.0135
3468.00,0.0136
3467.00,0.0136
3466.00,0.0136
3465.00,0.0136
3464.00,0.0137
3463.00,0.0137
3462.00,0.0137
3461.00,0.0138
3460.00,0.0138
3459.00,0.0138
3458.00,0.0138
3457.00,0.0138
3456.00,0.0138
3455.00,0.0138
3454.00,0.0138
3453.00,0.0139
3452.00,0.0139
3451.00,0.0139
3450.00,0.0140
3449.00,0.0140
3448.00,0.0140
3447.00,0.0140
3446.00,0.0140
3445.00,0.0140
3444.00,0.0141
3443.00,0.0141
3442.00,0.0141
3441.00,0.0141
3440.00,0.0141
3439.00,0.0141
3438.00,0.0141
3437.00,0.0140
3436.00,0.0140
3435.00,0.0140
3434.00,0.0140
3433.00,0.0140
3432.00,0.0140
3431.00,0.0141
3430.00,0.0141
3429.00,0.0141
3428.00,0.0140
3427.00,0.0140
3426.00,0.0140
3425.00,0.0140
3424.00,0.0140
3423.00,0.0140
3422.00,0.0140
3421.00,0.0141
3420.00,0.0141
3419.00,0.0141
3418.00,0.0140
3417.00,0.0140
3416.00,0.0140
3415.00,0.0140
3414.00,0.0140
3413.00,0.0140
3412.00,0.0140
3411.00,0.0140
3410.00,0.0139
3409.00,0.0139
3408.00,0.0139
3407.00,0.0139
3406.00,0.0139
3405.00,0.0139
3404.00,0.0138
3403.00,0.0138
3402.00,0.0138
3401.00,0.0138
3400.00,0.0138
3399.00,0.0138
3398.00,0.0138
3397.00,0.0137
3396.00,0.0137
3395.00,0.0137
3394.00,0.0136
3393.00,0.0136
3392.00,0.0136
3391.00,0.0136
3390.00,0.0136
3389.00,0.0137
3388.00,0.0137
3387.00,0.0137
3386.00,0.0137
3385.00,0.0137
3384.00,0.0137
3383.00,0.0136
3382.00,0.0136
3381.00,0.0136
3380.00,0.0135
3379.00,0.0135
3378.00,0.0135
3377.00,0.0134
3376.00,0.0134
3375.00,0.0134
3374.00,0.0134
3373.00,0.0133
3372.00,0.0133
3371.00,0.0132
3370.00,0.0131
3369.00,0.0130
3368.00,0.0130
3367.00,0.0131
3366.00,0.0132
3365.00,0.0133
3364.00,0.0133
3363.00,0.0133
3362.00,0.0133
3361.00,0.0133
3360.00,0.0133
3359.00,0.0133
3358.00,0.0133
3357.00,0.0133
3356.00,0.0133
3355.00,0.0133
3354.00,0.0132
3353.00,0.0130
3352.00,0.0129
3351.00,0.0129
3350.00,0.0129
3349.00,0.0130
3348.00,0.0131
3347.00,0.0131
3346.00,0.0131
3345.00,0.0131
3344.00,0.0130
3343.00,0.0130
3342.00,0.0129
3341.00,0.0128
3340.00,0.0128
3339.00,0.0127
3338.00,0.0127
3337.00,0.0128
3336.00,0.0129
3335.00,0.0130
3334.00,0.0130
3333.00,0.0130
3332.00,0.0130
3331.00,0.0129
3330.00,0.0129
3329.00,0.0128
3328.00,0.0127
3327.00,0.0127
3326.00,0.0126
3325.00,0.0127
3324.00,0.0127
3323.00,0.0128
3322.00,0.0128
3321.00,0.0128
3320.00,0.0128
3319.00,0.0128
3318.00,0.0128
3317.00,0.0128
3316.00,0.0128
3315.00,0.0128
3314.00,0.0128
3313.00,0.0127
3312.00,0.0126
3311.00,0.0124
3310.00,0.0122
3309.00,0.0121
3308.00,0.0120
3307.00,0.0119
3306.00,0.0120
3305.00,0.0121
3304.00,0.0122
3303.00,0.0124
3302.00,0.0125
3301.00,0.0125
3300.00,0.0125
3299.00,0.0125
3298.00,0.0124
3297.00,0.0123
3296.00,0.0122
3295.00,0.0122
3294.00,0.0121
3293.00,0.0122
3292.00,0.0122
3291.00,0.0123
3290.00,0.0124
3289.00,0.0125
3288.00,0.0125
3287.00,0.0125
3286.00,0.0125
3285.00,0.0124
3284.00,0.0124
3283.00,0.0124
3282.00,0.0123
3281.00,0.0123
3280.00,0.0123
3279.00,0.0123
3278.00,0.0122
3277.00,0.0121
3276.00,0.0120
3275.00,0.0119
3274.00,0.0119
3273.00,0.0118
3272.00,0.0118
3271.00,0.0118
3270.00,0.0118
3269.00,0.0119
3268.00,0.0119
3267.00,0.0119
3266.00,0.0119
3265.00,0.0119
3264.00,0.0119
3263.00,0.0119
3262.00,0.0119
3261.00,0.0118
3260.00,0.0118
3259.00,0.0117
3258.00,0.0117
3257.00,0.0116
3256.00,0.0116
3255.00,0.0116
3254.00,0.0116
3253.00,0.0116
3252.00,0.0116
3251.00,0.0115
3250.00,0.0115
3249.00,0.0115
3248.00,0.0114
3247.00,0.0114
3246.00,0.0114
3245.00,0.0114
3244.00,0.0114
3243.00,0.0115
3242.00,0.0115
3241.00,0.0114
3240.00,0.0114
3239.00,0.0114
3238.00,0.0114
3237.00,0.0113
3236.00,0.0113
3235.00,0.0112
3234.00,0.0112
3233.00,0.0112
3232.00,0.0112
3231.00,0.0112
3230.00,0.0112
3229.00,0.0112
3228.00,0.0111
3227.00,0.0111
3226.00,0.0111
3225.00,0.0111
3224.00,0.0111
3223.00,0.0111
3222.00,0.0110
3221.00,0.0110
3220.00,0.0109
3219.00,0.0109
3218.00,0.0108
3217.00,0.0108
3216.00,0.0108
3215.00,0.0108
3214.00,0.0108
3213.00,0.0107
3212.00,0.0107
3211.00,0.0107
3210.00,0.0107
3209.00,0.0106
3208.00,0.0106
3207.00,0.0105
3206.00,0.0105
3205.00,0.0104
3204.00,0.0104
3203.00,0.0104
3202.00,0.0103
3201.00,0.0103
3200.00,0.0103
3199.00,0.0103
3198.00,0.0102
3197.00,0.0102
3196.00,0.0102
3195.00,0.0102
3194.00,0.0101
3193.00,0.0101
3192.00,0.0101
3191.00,0.0101
3190.00,0.0100
3189.00,0.0100
3188.00,0.0100
3187.00,0.0100
3186.00,0.0100
3185.00,0.0100
3184.00,0.0100
3183.00,0.0099
3182.00,0.0099
3181.00,0.0099
3180.00,0.0099
3179.00,0.0099
3178.00,0.0099
3177.00,0.0099
3176.00,0.0099
3175.00,0.0099
3174.00,0.0099
3173.00,0.0098
3172.00,0.0098
3171.00,0.0098
3170.00,0.0098
3169.00,0.0097
3168.00,0.0097
3167.00,0.0097
3166.00,0.0097
3165.00,0.0096
3164.00,0.0096
3163.00,0.0096
3162.00,0.0096
3161.00,0.0095
3160.00,0.0095
3159.00,0.0094
3158.00,0.0094
3157.00,0.0093
3156.00,0.0093
3155.00,0.0093
3154.00,0.0092
3153.00,0.0092
3152.00,0.0092
3151.00,0.0092
3150.00,0.0092
3149.00,0.0092
3148.00,0.0092
3147.00,0.0091
3146.00,0.0091
3145.00,0.0090
3144.00,0.0090
3143.00,0.0090
3142.00,0.0090
3141.00,0.0090
3140.00,0.0089
3139.00,0.0089
3138.00,0.0088
3137.00,0.0088
3136.00,0.0088
3135.00,0.0088
3134.00,0.0088
3133.00,0.0088
3132.00,0.0088
3131.00,0.0088
3130.00,0.0087
3129.00,0.0087
3128.00,0.0087
3127.00,0.0087
3126.00,0.0087
3125.00,0.0087
3124.00,0.0087
3123.00,0.0087
3122.00,0.0087
3121.00,0.0087
3120.00,0.0086
3119.00,0.0086
3118.00,0.0086
3117.00,0.0086
3116.00,0.0086
3115.00,0.0086
3114.00,0.0085
3113.00,0.0085
3112.00,0.0085
3111.00,0.0084
3110.00,0.0084
3109.00,0.0083
3108.00,0.0083
3107.00,0.0083
3106.00,0.0082
3105.00,0.0082
3104.00,0.0082
3103.00,0.0082
3102.00,0.0082
3101.00,0.0082
3100.00,0.0082
3099.00,0.0082
3098.00,0.0082
3097.00,0.0081
3096.00,0.0081
3095.00,0.0081
3094.00,0.0081
3093.00,0.0081
3092.00,0.0080
3091.00,0.0080
3090.00,0.0080
3089.00,0.0080
3088.00,0.0081
3087.00,0.0081
3086.00,0.0081
3085.00,0.0081
3084.00,0.0081
3083.00,0.0081
3082.00,0.0081
3081.00,0.0081
3080.00,0.0081
3079.00,0.0081
3078.00,0.0081
3077.00,0.0081
3076.00,0.0080
3075.00,0.0080
3074.00,0.0080
3073.00,0.0080
3072.00,0.0080
3071.00,0.0080
3070.00,0.0079
3069.00,0.0079
3068.00,0.0079
3067.00,0.0079
3066.00,0.0078
3065.00,0.0078
3064.00,0.0077
3063.00,0.0077
3062.00,0.0077
3061.00,0.0076
3060.00,0.0076
3059.00,0.0076
3058.00,0.0076
3057.00,0.0076
3056.00,0.0076
3055.00,0.0076
3054.00,0.0076
3053.00,0.0076
3052.00,0.0076
3051.00,0.0075
3050.00,0.0075
3049.00,0.0074
3048.00,0.0074
3047.00,0.0074
3046.00,0.0074
3045.00,0.0074
3044.00,0.0074
3043.00,0.0074
3042.00,0.0074
3041.00,0.0074
3040.00,0.0074
3039.00,0.0074
3038.00,0.0074
3037.00,0.0073
3036.00,0.0073
3035.00,0.0073
3034.00,0.0073
3033.00,0.0073
3032.00,0.0073
3031.00,0.0074
3030.00,0.0074
3029.00,0.0074
3028.00,0.0074
3027.00,0.0074
3026.00,0.0073
3025.00,0.0073
3024.00,0.0073
3023.00,0.0073
3022.00,0.0073
3021.00,0.0073
3020.00,0.0073
3019.00,0.0074
3018.00,0.0074
3017.00,0.0074
3016.00,0.0075
3015.00,0.0075
3014.00,0.0076
3013.00,0.0077
3012.00,0.0078
3011.00,0.0079
3010.00,0.0081
3009.00,0.0083
3008.00,0.0085
3007.00,0.0086
3006.00,0.0088
3005.00,0.0090
3004.00,0.0093
3003.00,0.0096
3002.00,0.0099
3001.00,0.0102
3000.00,0.0105
2999.00,0.0108
2998.00,0.0112
2997.00,0.0116
2996.00,0.0121
2995.00,0.0125
2994.00,0.0130
2993.00,0.0134
2992.00,0.0139
2991.00,0.0145
2990.00,0.0150
2989.00,0.0155
2988.00,0.0160
2987.00,0.0164
2986.00,0.0169
2985.00,0.0173
2984.00,0.0178
2983.00,0.0181
2982.00,0.0185
2981.00,0.0188
2980.00,0.0191
2979.00,0.0194
2978.00,0.0197
2977.00,0.0199
2976.00,0.0201
2975.00,0.0203
2974.00,0.0205
2973.00,0.0207
2972.00,0.0210
2971.00,0.0212
2970.00,0.0215
2969.00,0.0217
2968.00,0.0220
2967.00,0.0223
2966.00,0.0226
2965.00,0.0229
2964.00,0.0233
2963.00,0.0236
2962.00,0.0240
2961.00,0.0244
2960.00,0.0247
2959.00,0.0250
2958.00,0.0253
2957.00,0.0256
2956.00,0.0258
2955.00,0.0260
2954.00,0.0261
2953.00,0.0262
2952.00,0.0262
2951.00,0.0262
2950.00,0.0261
2949.00,0.0260
2948.00,0.0259
2947.00,0.0258
2946.00,0.0257
2945.00,0.0256
2944.00,0.0255
2943.00,0.0255
2942.00,0.0255
2941.00,0.0255
2940.00,0.0256
2939.00,0.0257
2938.00,0.0258
2937.00,0.0259
2936.00,0.0261
2935.00,0.0263
2934.00,0.0265
2933.00,0.0267
2932.00,0.0269
2931.00,0.0272
2930.00,0.0274
2929.00,0.0276
2928.00,0.0278
2927.00,0.0279
2926.00,0.0280
2925.00,0.0280
2924.00,0.0280
2923.00,0.0279
2922.00,0.0277
2921.00,0.0275
2920.00,0.0272
2919.00,0.0268
2918.00,0.0264
2917.00,0.0260
2916.00,0.0256
2915.00,0.0252
2914.00,0.0248
2913.00,0.0243
2912.00,0.0239
2911.00,0.0235
2910.00,0.0230
2909.00,0.0226
2908.00,0.0222
2907.00,0.0218
2906.00,0.0215
2905.00,0.0212
2904.00,0.0210
2903.00,0.0207
2902.00,0.0206
2901.00,0.0205
2900.00,0.0204
2899.00,0.0203
2898.00,0.0202
2897.00,0.0202
2896.00,0.0202
2895.00,0.0202
2894.00,0.0202
2893.00,0.0202
2892.00,0.0201
2891.00,0.0201
2890.00,0.0201
2889.00,0.0200
2888.00,0.0200
2887.00,0.0200
2886.00,0.0200
2885.00,0.0200
2884.00,0.0200
2883.00,0.0200
2882.00,0.0200
2881.00,0.0200
2880.00,0.0200
2879.00,0.0201
2878.00,0.0202
2877.00,0.0202
2876.00,0.0203
2875.00,0.0203
2874.00,0.0204
2873.00,0.0204
2872.00,0.0205
2871.00,0.0205
2870.00,0.0205
2869.00,0.0205
2868.00,0.0204
2867.00,0.0203
2866.00,0.0202
2865.00,0.0201
2864.00,0.0201
2863.00,0.0201
2862.00,0.0201
2861.00,0.0200
2860.00,0.0200
2859.00,0.0199
2858.00,0.0198
2857.00,0.0197
2856.00,0.0194
2855.00,0.0191
2854.00,0.0186
2853.00,0.0182
2852.00,0.0176
2851.00,0.0171
2850.00,0.0165
2849.00,0.0159
2848.00,0.0154
2847.00,0.0149
2846.00,0.0145
2845.00,0.0140
2844.00,0.0136
2843.00,0.0132
2842.00,0.0127
2841.00,0.0123
2840.00,0.0118
2839.00,0.0115
2838.00,0.0111
2837.00,0.0109
2836.00,0.0107
2835.00,0.0104
2834.00,0.0102
2833.00,0.0100
2832.00,0.0098
2831.00,0.0096
2830.00,0.0094
2829.00,0.0092
2828.00,0.0090
2827.00,0.0088
2826.00,0.0086
2825.00,0.0085
2824.00,0.0083
2823.00,0.0082
2822.00,0.0080
2821.00,0.0078
2820.00,0.0077
2819.00,0.0075
2818.00,0.0074
2817.00,0.0072
2816.00,0.0071
2815.00,0.0070
2814.00,0.0069
2813.00,0.0068
2812.00,0.0067
2811.00,0.0066
2810.00,0.0064
2809.00,0.0063
2808.00,0.0063
2807.00,0.0062
2806.00,0.0061
2805.00,0.0060
2804.00,0.0059
2803.00,0.0059
2802.00,0.0058
2801.00,0.0057
2800.00,0.0056
2799.00,0.0056
2798.00,0.0055
2797.00,0.0054
2796.00,0.0054
2795.00,0.0053
2794.00,0.0053
2793.00,0.0052
2792.00,0.0052
2791.00,0.0051
2790.00,0.0051
2789.00,0.0050
2788.00,0.0050
2787.00,0.0050
2786.00,0.0050
2785.00,0.0049
2784.00,0.0049
2783.00,0.0048
2782.00,0.0048
2781.00,0.0048
2780.00,0.0047
2779.00,0.0047
2778.00,0.0046
2777.00,0.0046
2776.00,0.0045
2775.00,0.0045
2774.00,0.0045
2773.00,0.0045
2772.00,0.0044
2771.00,0.0044
2770.00,0.0044
2769.00,0.0044
2768.00,0.0043
2767.00,0.0043
2766.00,0.0043
2765.00,0.0043
2764.00,0.0043
2763.00,0.0043
2762.00,0.0043
2761.00,0.0043
2760.00,0.0043
2759.00,0.0042
2758.00,0.0042
2757.00,0.0042
