Created as New Dataset,Sample 725 By YargerLab Date Thursday, June 26 2025
cm-1,A
4000.00,0.0003
3999.00,0.0003
3998.00,0.0003
3997.00,0.0003
3996.00,0.0003
3995.00,0.0003
3994.00,0.0003
3993.00,0.0003
3992.00,0.0003
3991.00,0.0003
3990.00,0.0003
3989.00,0.0003
3988.00,0.0003
3987.00,0.0003
3986.00,0.0003
3985.00,0.0003
3984.00,0.0003
3983.00,0.0003
3982.00,0.0003
3981.00,0.0003
3980.00,0.0003
3979.00,0.0003
3978.00,0.0003
3977.00,0.0003
3976.00,0.0003
3975.00,0.0003
3974.00,0.0003
3973.00,0.0003
3972.00,0.0003
3971.00,0.0003
3970.00,0.0003
3969.00,0.0003
3968.00,0.0003
3967.00,0.0003
3966.00,0.0003
3965.00,0.0003
3964.00,0.0003
3963.00,0.0003
3962.00,0.0003
3961.00,0.0003
3960.00,0.0003
3959.00,0.0003
3958.00,0.0003
3957.00,0.0003
3956.00,0.0003
3955.00,0.0003
3954.00,0.0003
3953.00,0.0003
3952.00,0.0002
3951.00,0.0002
3950.00,0.0002
3949.00,0.0002
3948.00,0.0002
3947.00,0.0002
3946.00,0.0002
3945.00,0.0002
3944.00,0.0002
3943.00,0.0003
3942.00,0.0003
3941.00,0.0003
3940.00,0.0003
3939.00,0.0003
3938.00,0.0002
3937.00,0.0002
3936.00,0.0002
3935.00,0.0002
3934.00,0.0002
3933.00,0.0002
3932.00,0.0002
3931.00,0.0002
3930.00,0.0003
3929.00,0.0003
3928.00,0.0003
3927.00,0.0002
3926.00,0.0002
3925.00,0.0002
3924.00,0.0002
3923.00,0.0002
3922.00,0.0002
3921.00,0.0002
3920.00,0.0002
3919.00,0.0002
3918.00,0.0002
3917.00,0.0002
3916.00,0.0002
3915.00,0.0002
3914.00,0.0002
3913.00,0.0002
3912.00,0.0003
3911.00,0.0003
3910.00,0.0003
3909.00,0.0003
3908.00,0.0003
3907.00,0.0002
3906.00,0.0002
3905.00,0.0002
3904.00,0.0002
3903.00,0.0002
3902.00,0.0002
3901.00,0.0001
3900.00,0.0001
3899.00,0.0002
3898.00,0.0002
3897.00,0.0002
3896.00,0.0002
3895.00,0.0002
3894.00,0.0002
3893.00,0.0002
3892.00,0.0002
3891.00,0.0002
3890.00,0.0002
3889.00,0.0002
3888.00,0.0002
3887.00,0.0002
3886.00,0.0002
3885.00,0.0002
3884.00,0.0001
3883.00,0.0001
3882.00,0.0001
3881.00,0.0001
3880.00,0.0001
3879.00,0.0002
3878.00,0.0002
3877.00,0.0002
3876.00,0.0002
3875.00,0.0002
3874.00,0.0002
3873.00,0.0002
3872.00,0.0002
3871.00,0.0002
3870.00,0.0002
3869.00,0.0002
3868.00,0.0002
3867.00,0.0002
3866.00,0.0002
3865.00,0.0002
3864.00,0.0002
3863.00,0.0002
3862.00,0.0002
3861.00,0.0002
3860.00,0.0002
3859.00,0.0002
3858.00,0.0003
3857.00,0.0003
3856.00,0.0002
3855.00,0.0002
3854.00,0.0002
3853.00,0.0002
3852.00,0.0002
3851.00,0.0002
3850.00,0.0002
3849.00,0.0002
3848.00,0.0002
3847.00,0.0002
3846.00,0.0002
3845.00,0.0002
3844.00,0.0002
3843.00,0.0002
3842.00,0.0002
3841.00,0.0002
3840.00,0.0002
3839.00,0.0002
3838.00,0.0002
3837.00,0.0002
3836.00,0.0002
3835.00,0.0002
3834.00,0.0002
3833.00,0.0002
3832.00,0.0002
3831.00,0.0003
3830.00,0.0003
3829.00,0.0003
3828.00,0.0003
3827.00,0.0003
3826.00,0.0003
3825.00,0.0003
3824.00,0.0003
3823.00,0.0002
3822.00,0.0002
3821.00,0.0003
3820.00,0.0003
3819.00,0.0003
3818.00,0.0002
3817.00,0.0002
3816.00,0.0002
3815.00,0.0002
3814.00,0.0002
3813.00,0.0002
3812.00,0.0002
3811.00,0.0002
3810.00,0.0002
3809.00,0.0002
3808.00,0.0002
3807.00,0.0002
3806.00,0.0003
3805.00,0.0003
3804.00,0.0003
3803.00,0.0003
3802.00,0.0003
3801.00,0.0003
3800.00,0.0002
3799.00,0.0002
3798.00,0.0002
3797.00,0.0002
3796.00,0.0002
3795.00,0.0002
3794.00,0.0002
3793.00,0.0002
3792.00,0.0003
3791.00,0.0003
3790.00,0.0003
3789.00,0.0003
3788.00,0.0003
3787.00,0.0002
3786.00,0.0002
3785.00,0.0002
3784.00,0.0003
3783.00,0.0003
3782.00,0.0003
3781.00,0.0003
3780.00,0.0003
3779.00,0.0003
3778.00,0.0003
3777.00,0.0003
3776.00,0.0003
3775.00,0.0003
3774.00,0.0003
3773.00,0.0003
3772.00,0.0003
3771.00,0.0003
3770.00,0.0003
3769.00,0.0003
3768.00,0.0003
3767.00,0.0003
3766.00,0.0003
3765.00,0.0003
3764.00,0.0003
3763.00,0.0003
3762.00,0.0003
3761.00,0.0003
3760.00,0.0003
3759.00,0.0003
3758.00,0.0003
3757.00,0.0003
3756.00,0.0003
3755.00,0.0003
3754.00,0.0003
3753.00,0.0003
3752.00,0.0003
3751.00,0.0003
3750.00,0.0003
3749.00,0.0002
3748.00,0.0002
3747.00,0.0002
3746.00,0.0002
3745.00,0.0002
3744.00,0.0002
3743.00,0.0002
3742.00,0.0002
3741.00,0.0002
3740.00,0.0002
3739.00,0.0002
3738.00,0.0002
3737.00,0.0002
3736.00,0.0001
3735.00,0.0001
3734.00,0.0001
3733.00,0.0001
3732.00,0.0001
3731.00,0.0001
3730.00,0.0001
3729.00,0.0002
3728.00,0.0002
3727.00,0.0002
3726.00,0.0002
3725.00,0.0002
3724.00,0.0002
3723.00,0.0002
3722.00,0.0001
3721.00,0.0001
3720.00,0.0001
3719.00,0.0002
3718.00,0.0002
3717.00,0.0002
3716.00,0.0002
3715.00,0.0002
3714.00,0.0002
3713.00,0.0002
3712.00,0.0002
3711.00,0.0002
3710.00,0.0002
3709.00,0.0002
3708.00,0.0002
3707.00,0.0002
3706.00,0.0002
3705.00,0.0002
3704.00,0.0002
3703.00,0.0002
3702.00,0.0002
3701.00,0.0002
3700.00,0.0002
3699.00,0.0002
3698.00,0.0002
3697.00,0.0002
3696.00,0.0002
3695.00,0.0002
3694.00,0.0002
3693.00,0.0002
3692.00,0.0002
3691.00,0.0002
3690.00,0.0002
3689.00,0.0002
3688.00,0.0002
3687.00,0.0002
3686.00,0.0002
3685.00,0.0002
3684.00,0.0002
3683.00,0.0003
3682.00,0.0003
3681.00,0.0003
3680.00,0.0003
3679.00,0.0003
3678.00,0.0003
3677.00,0.0003
3676.00,0.0003
3675.00,0.0003
3674.00,0.0002
3673.00,0.0002
3672.00,0.0002
3671.00,0.0002
3670.00,0.0002
3669.00,0.0003
3668.00,0.0003
3667.00,0.0003
3666.00,0.0003
3665.00,0.0003
3664.00,0.0003
3663.00,0.0003
3662.00,0.0003
3661.00,0.0004
3660.00,0.0004
3659.00,0.0004
3658.00,0.0004
3657.00,0.0005
3656.00,0.0005
3655.00,0.0005
3654.00,0.0005
3653.00,0.0005
3652.00,0.0005
3651.00,0.0005
3650.00,0.0005
3649.00,0.0005
3648.00,0.0005
3647.00,0.0005
3646.00,0.0005
3645.00,0.0005
3644.00,0.0006
3643.00,0.0006
3642.00,0.0007
3641.00,0.0007
3640.00,0.0008
3639.00,0.0008
3638.00,0.0008
3637.00,0.0008
3636.00,0.0009
3635.00,0.0009
3634.00,0.0009
3633.00,0.0010
3632.00,0.0010
3631.00,0.0010
3630.00,0.0010
3629.00,0.0010
3628.00,0.0010
3627.00,0.0010
3626.00,0.0010
3625.00,0.0011
3624.00,0.0011
3623.00,0.0011
3622.00,0.0012
3621.00,0.0012
3620.00,0.0012
3619.00,0.0013
3618.00,0.0013
3617.00,0.0013
3616.00,0.0014
3615.00,0.0014
3614.00,0.0015
3613.00,0.0015
3612.00,0.0015
3611.00,0.0015
3610.00,0.0015
3609.00,0.0016
3608.00,0.0016
3607.00,0.0016
3606.00,0.0016
3605.00,0.0017
3604.00,0.0017
3603.00,0.0017
3602.00,0.0018
3601.00,0.0018
3600.00,0.0018
3599.00,0.0018
3598.00,0.0018
3597.00,0.0019
3596.00,0.0019
3595.00,0.0019
3594.00,0.0020
3593.00,0.0020
3592.00,0.0021
3591.00,0.0021
3590.00,0.0021
3589.00,0.0021
3588.00,0.0021
3587.00,0.0021
3586.00,0.0021
3585.00,0.0021
3584.00,0.0022
3583.00,0.0022
3582.00,0.0023
3581.00,0.0023
3580.00,0.0023
3579.00,0.0024
3578.00,0.0024
3577.00,0.0024
3576.00,0.0025
3575.00,0.0026
3574.00,0.0026
3573.00,0.0026
3572.00,0.0027
3571.00,0.0027
3570.00,0.0027
3569.00,0.0027
3568.00,0.0026
3567.00,0.0026
3566.00,0.0026
3565.00,0.0027
3564.00,0.0027
3563.00,0.0028
3562.00,0.0029
3561.00,0.0029
3560.00,0.0029
3559.00,0.0030
3558.00,0.0031
3557.00,0.0031
3556.00,0.0032
3555.00,0.0032
3554.00,0.0032
3553.00,0.0032
3552.00,0.0032
3551.00,0.0033
3550.00,0.0033
3549.00,0.0033
3548.00,0.0033
3547.00,0.0033
3546.00,0.0033
3545.00,0.0034
3544.00,0.0034
3543.00,0.0035
3542.00,0.0036
3541.00,0.0036
3540.00,0.0037
3539.00,0.0037
3538.00,0.0037
3537.00,0.0037
3536.00,0.0037
3535.00,0.0038
3534.00,0.0038
3533.00,0.0039
3532.00,0.0039
3531.00,0.0040
3530.00,0.0040
3529.00,0.0040
3528.00,0.0040
3527.00,0.0040
3526.00,0.0040
3525.00,0.0040
3524.00,0.0040
3523.00,0.0040
3522.00,0.0041
3521.00,0.0041
3520.00,0.0041
3519.00,0.0042
3518.00,0.0042
3517.00,0.0043
3516.00,0.0043
3515.00,0.0043
3514.00,0.0044
3513.00,0.0044
3512.00,0.0044
3511.00,0.0044
3510.00,0.0044
3509.00,0.0045
3508.00,0.0045
3507.00,0.0045
3506.00,0.0046
3505.00,0.0046
3504.00,0.0047
3503.00,0.0047
3502.00,0.0047
3501.00,0.0047
3500.00,0.0047
3499.00,0.0048
3498.00,0.0048
3497.00,0.0048
3496.00,0.0049
3495.00,0.0049
3494.00,0.0050
3493.00,0.0050
3492.00,0.0050
3491.00,0.0051
3490.00,0.0051
3489.00,0.0051
3488.00,0.0051
3487.00,0.0051
3486.00,0.0052
3485.00,0.0052
3484.00,0.0052
3483.00,0.0053
3482.00,0.0053
3481.00,0.0054
3480.00,0.0054
3479.00,0.0054
3478.00,0.0055
3477.00,0.0055
3476.00,0.0055
3475.00,0.0055
3474.00,0.0056
3473.00,0.0056
3472.00,0.0056
3471.00,0.0056
3470.00,0.0057
3469.00,0.0057
3468.00,0.0057
3467.00,0.0058
3466.00,0.0058
3465.00,0.0059
3464.00,0.0059
3463.00,0.0060
3462.00,0.0060
3461.00,0.0060
3460.00,0.0060
3459.00,0.0061
3458.00,0.0061
3457.00,0.0062
3456.00,0.0062
3455.00,0.0062
3454.00,0.0063
3453.00,0.0063
3452.00,0.0063
3451.00,0.0063
3450.00,0.0064
3449.00,0.0064
3448.00,0.0064
3447.00,0.0064
3446.00,0.0065
3445.00,0.0065
3444.00,0.0065
3443.00,0.0065
3442.00,0.0066
3441.00,0.0066
3440.00,0.0067
3439.00,0.0068
3438.00,0.0068
3437.00,0.0068
3436.00,0.0069
3435.00,0.0069
3434.00,0.0069
3433.00,0.0070
3432.00,0.0071
3431.00,0.0071
3430.00,0.0072
3429.00,0.0072
3428.00,0.0072
3427.00,0.0072
3426.00,0.0072
3425.00,0.0073
3424.00,0.0073
3423.00,0.0073
3422.00,0.0073
3421.00,0.0073
3420.00,0.0074
3419.00,0.0074
3418.00,0.0074
3417.00,0.0075
3416.00,0.0075
3415.00,0.0076
3414.00,0.0076
3413.00,0.0077
3412.00,0.0077
3411.00,0.0078
3410.00,0.0078
3409.00,0.0078
3408.00,0.0079
3407.00,0.0079
3406.00,0.0079
3405.00,0.0079
3404.00,0.0080
3403.00,0.0080
3402.00,0.0081
3401.00,0.0081
3400.00,0.0082
3399.00,0.0082
3398.00,0.0082
3397.00,0.0083
3396.00,0.0083
3395.00,0.0083
3394.00,0.0084
3393.00,0.0084
3392.00,0.0084
3391.00,0.0084
3390.00,0.0085
3389.00,0.0085
3388.00,0.0085
3387.00,0.0086
3386.00,0.0086
3385.00,0.0086
3384.00,0.0087
3383.00,0.0087
3382.00,0.0088
3381.00,0.0089
3380.00,0.0089
3379.00,0.0090
3378.00,0.0090
3377.00,0.0090
3376.00,0.0090
3375.00,0.0091
3374.00,0.0091
3373.00,0.0092
3372.00,0.0092
3371.00,0.0093
3370.00,0.0094
3369.00,0.0094
3368.00,0.0095
3367.00,0.0095
3366.00,0.0095
3365.00,0.0096
3364.00,0.0096
3363.00,0.0097
3362.00,0.0097
3361.00,0.0098
3360.00,0.0099
3359.00,0.0099
3358.00,0.0099
3357.00,0.0100
3356.00,0.0100
3355.00,0.0101
3354.00,0.0102
3353.00,0.0102
3352.00,0.0103
3351.00,0.0103
3350.00,0.0104
3349.00,0.0105
3348.00,0.0105
3347.00,0.0106
3346.00,0.0107
3345.00,0.0107
3344.00,0.0108
3343.00,0.0108
3342.00,0.0109
3341.00,0.0110
3340.00,0.0110
3339.00,0.0111
3338.00,0.0112
3337.00,0.0113
3336.00,0.0114
3335.00,0.0114
3334.00,0.0115
3333.00,0.0116
3332.00,0.0116
3331.00,0.0117
3330.00,0.0118
3329.00,0.0118
3328.00,0.0119
3327.00,0.0120
3326.00,0.0121
3325.00,0.0122
3324.00,0.0123
3323.00,0.0124
3322.00,0.0125
3321.00,0.0126
3320.00,0.0127
3319.00,0.0128
3318.00,0.0129
3317.00,0.0129
3316.00,0.0130
3315.00,0.0131
3314.00,0.0133
3313.00,0.0134
3312.00,0.0135
3311.00,0.0136
3310.00,0.0137
3309.00,0.0137
3308.00,0.0138
3307.00,0.0139
3306.00,0.0140
3305.00,0.0142
3304.00,0.0143
3303.00,0.0144
3302.00,0.0145
3301.00,0.0146
3300.00,0.0147
3299.00,0.0148
3298.00,0.0150
3297.00,0.0151
3296.00,0.0152
3295.00,0.0153
3294.00,0.0154
3293.00,0.0155
3292.00,0.0156
3291.00,0.0157
3290.00,0.0158
3289.00,0.0159
3288.00,0.0160
3287.00,0.0161
3286.00,0.0162
3285.00,0.0162
3284.00,0.0163
3283.00,0.0164
3282.00,0.0165
3281.00,0.0166
3280.00,0.0167
3279.00,0.0167
3278.00,0.0168
3277.00,0.0168
3276.00,0.0168
3275.00,0.0168
3274.00,0.0168
3273.00,0.0169
3272.00,0.0169
3271.00,0.0168
3270.00,0.0168
3269.00,0.0168
3268.00,0.0167
3267.00,0.0167
3266.00,0.0167
3265.00,0.0166
3264.00,0.0166
3263.00,0.0165
3262.00,0.0164
3261.00,0.0164
3260.00,0.0163
3259.00,0.0162
3258.00,0.0161
3257.00,0.0159
3256.00,0.0158
3255.00,0.0157
3254.00,0.0156
3253.00,0.0155
3252.00,0.0154
3251.00,0.0153
3250.00,0.0152
3249.00,0.0151
3248.00,0.0150
3247.00,0.0149
3246.00,0.0148
3245.00,0.0147
3244.00,0.0146
3243.00,0.0145
3242.00,0.0144
3241.00,0.0143
3240.00,0.0142
3239.00,0.0141
3238.00,0.0141
3237.00,0.0140
3236.00,0.0139
3235.00,0.0138
3234.00,0.0136
3233.00,0.0135
3232.00,0.0135
3231.00,0.0134
3230.00,0.0134
3229.00,0.0133
3228.00,0.0132
3227.00,0.0132
3226.00,0.0131
3225.00,0.0130
3224.00,0.0129
3223.00,0.0129
3222.00,0.0128
3221.00,0.0127
3220.00,0.0126
3219.00,0.0126
3218.00,0.0125
3217.00,0.0124
3216.00,0.0123
3215.00,0.0123
3214.00,0.0122
3213.00,0.0122
3212.00,0.0122
3211.00,0.0121
3210.00,0.0121
3209.00,0.0120
3208.00,0.0119
3207.00,0.0119
3206.00,0.0118
3205.00,0.0117
3204.00,0.0116
3203.00,0.0116
3202.00,0.0115
3201.00,0.0115
3200.00,0.0114
3199.00,0.0114
3198.00,0.0113
3197.00,0.0112
3196.00,0.0112
3195.00,0.0111
3194.00,0.0110
3193.00,0.0110
3192.00,0.0109
3191.00,0.0109
3190.00,0.0108
3189.00,0.0108
3188.00,0.0107
3187.00,0.0107
3186.00,0.0106
3185.00,0.0106
3184.00,0.0105
3183.00,0.0105
3182.00,0.0104
3181.00,0.0103
3180.00,0.0103
3179.00,0.0102
3178.00,0.0102
3177.00,0.0101
3176.00,0.0101
3175.00,0.0100
3174.00,0.0100
3173.00,0.0100
3172.00,0.0099
3171.00,0.0098
3170.00,0.0098
3169.00,0.0097
3168.00,0.0096
3167.00,0.0096
3166.00,0.0095
3165.00,0.0095
3164.00,0.0095
3163.00,0.0094
3162.00,0.0094
3161.00,0.0094
3160.00,0.0093
3159.00,0.0092
3158.00,0.0092
3157.00,0.0092
3156.00,0.0091
3155.00,0.0091
3154.00,0.0090
3153.00,0.0090
3152.00,0.0089
3151.00,0.0089
3150.00,0.0088
3149.00,0.0088
3148.00,0.0088
3147.00,0.0088
3146.00,0.0088
3145.00,0.0088
3144.00,0.0087
3143.00,0.0087
3142.00,0.0087
3141.00,0.0086
3140.00,0.0085
3139.00,0.0085
3138.00,0.0085
3137.00,0.0085
3136.00,0.0085
3135.00,0.0084
3134.00,0.0084
3133.00,0.0084
3132.00,0.0083
3131.00,0.0083
3130.00,0.0083
3129.00,0.0082
3128.00,0.0082
3127.00,0.0082
3126.00,0.0082
3125.00,0.0082
3124.00,0.0082
3123.00,0.0082
3122.00,0.0081
3121.00,0.0081
3120.00,0.0081
3119.00,0.0081
3118.00,0.0081
3117.00,0.0081
3116.00,0.0081
3115.00,0.0081
3114.00,0.0081
3113.00,0.0081
3112.00,0.0081
3111.00,0.0081
3110.00,0.0082
3109.00,0.0082
3108.00,0.0082
3107.00,0.0082
3106.00,0.0082
3105.00,0.0082
3104.00,0.0083
3103.00,0.0083
3102.00,0.0083
3101.00,0.0082
3100.00,0.0083
3099.00,0.0083
3098.00,0.0083
3097.00,0.0083
3096.00,0.0083
3095.00,0.0084
3094.00,0.0084
3093.00,0.0084
3092.00,0.0085
3091.00,0.0085
3090.00,0.0085
3089.00,0.0085
3088.00,0.0085
3087.00,0.0085
3086.00,0.0086
3085.00,0.0086
3084.00,0.0086
3083.00,0.0086
3082.00,0.0086
3081.00,0.0086
3080.00,0.0086
3079.00,0.0086
3078.00,0.0086
3077.00,0.0086
3076.00,0.0086
3075.00,0.0086
3074.00,0.0086
3073.00,0.0086
3072.00,0.0086
3071.00,0.0086
3070.00,0.0086
3069.00,0.0086
3068.00,0.0086
3067.00,0.0085
3066.00,0.0085
3065.00,0.0084
3064.00,0.0084
3063.00,0.0084
3062.00,0.0084
3061.00,0.0084
3060.00,0.0083
3059.00,0.0083
3058.00,0.0082
3057.00,0.0081
3056.00,0.0081
3055.00,0.0081
3054.00,0.0080
3053.00,0.0080
3052.00,0.0080
3051.00,0.0079
3050.00,0.0079
3049.00,0.0078
3048.00,0.0078
3047.00,0.0077
3046.00,0.0077
3045.00,0.0077
3044.00,0.0076
3043.00,0.0076
3042.00,0.0075
3041.00,0.0075
3040.00,0.0074
3039.00,0.0074
3038.00,0.0074
3037.00,0.0073
3036.00,0.0073
3035.00,0.0073
3034.00,0.0072
3033.00,0.0072
3032.00,0.0072
3031.00,0.0071
3030.00,0.0071
3029.00,0.0070
3028.00,0.0070
3027.00,0.0070
3026.00,0.0069
3025.00,0.0069
3024.00,0.0069
3023.00,0.0068
3022.00,0.0068
3021.00,0.0067
3020.00,0.0067
3019.00,0.0067
3018.00,0.0066
3017.00,0.0065
3016.00,0.0065
3015.00,0.0064
3014.00,0.0064
3013.00,0.0063
3012.00,0.0063
3011.00,0.0062
3010.00,0.0062
3009.00,0.0061
3008.00,0.0061
3007.00,0.0060
3006.00,0.0059
3005.00,0.0058
3004.00,0.0058
3003.00,0.0057
3002.00,0.0056
3001.00,0.0055
3000.00,0.0055
2999.00,0.0055
2998.00,0.0054
2997.00,0.0054
2996.00,0.0054
2995.00,0.0054
2994.00,0.0054
2993.00,0.0054
2992.00,0.0054
2991.00,0.0054
2990.00,0.0055
2989.00,0.0055
2988.00,0.0055
2987.00,0.0055
2986.00,0.0055
2985.00,0.0054
2984.00,0.0053
2983.00,0.0052
2982.00,0.0051
2981.00,0.0051
2980.00,0.0053
2979.00,0.0055
2978.00,0.0057
2977.00,0.0060
2976.00,0.0062
2975.00,0.0063
2974.00,0.0065
2973.00,0.0065
2972.00,0.0066
2971.00,0.0068
2970.00,0.0070
2969.00,0.0072
2968.00,0.0074
2967.00,0.0076
2966.00,0.0078
2965.00,0.0079
2964.00,0.0080
2963.00,0.0080
2962.00,0.0081
2961.00,0.0082
2960.00,0.0082
2959.00,0.0082
2958.00,0.0082
2957.00,0.0082
2956.00,0.0082
2955.00,0.0082
2954.00,0.0081
2953.00,0.0081
2952.00,0.0081
2951.00,0.0080
2950.00,0.0080
2949.00,0.0080
2948.00,0.0080
2947.00,0.0080
2946.00,0.0080
2945.00,0.0081
2944.00,0.0082
2943.00,0.0083
2942.00,0.0084
2941.00,0.0085
2940.00,0.0086
2939.00,0.0087
2938.00,0.0088
2937.00,0.0089
2936.00,0.0090
2935.00,0.0091
2934.00,0.0091
2933.00,0.0092
2932.00,0.0092
2931.00,0.0093
2930.00,0.0093
2929.00,0.0094
2928.00,0.0095
2927.00,0.0095
2926.00,0.0096
2925.00,0.0096
2924.00,0.0096
2923.00,0.0097
2922.00,0.0097
2921.00,0.0097
2920.00,0.0097
2919.00,0.0096
2918.00,0.0095
2917.00,0.0094
2916.00,0.0092
2915.00,0.0090
2914.00,0.0088
2913.00,0.0086
2912.00,0.0084
2911.00,0.0082
2910.00,0.0080
2909.00,0.0079
2908.00,0.0078
2907.00,0.0076
2906.00,0.0075
2905.00,0.0074
2904.00,0.0073
2903.00,0.0072
2902.00,0.0072
2901.00,0.0071
2900.00,0.0070
2899.00,0.0070
2898.00,0.0069
2897.00,0.0068
2896.00,0.0068
2895.00,0.0067
2894.00,0.0066
2893.00,0.0065
2892.00,0.0065
2891.00,0.0064
2890.00,0.0064
2889.00,0.0064
2888.00,0.0064
2887.00,0.0064
2886.00,0.0064
2885.00,0.0064
2884.00,0.0064
2883.00,0.0064
2882.00,0.0064
2881.00,0.0065
2880.00,0.0066
2879.00,0.0067
2878.00,0.0067
2877.00,0.0068
2876.00,0.0069
2875.00,0.0069
2874.00,0.0069
2873.00,0.0069
2872.00,0.0069
2871.00,0.0068
2870.00,0.0068
2869.00,0.0067
2868.00,0.0066
2867.00,0.0066
2866.00,0.0065
2865.00,0.0065
2864.00,0.0064
2863.00,0.0063
2862.00,0.0063
2861.00,0.0063
2860.00,0.0063
2859.00,0.0063
2858.00,0.0064
2857.00,0.0064
2856.00,0.0064
2855.00,0.0065
2854.00,0.0065
2853.00,0.0066
2852.00,0.0067
2851.00,0.0068
2850.00,0.0068
2849.00,0.0067
2848.00,0.0066
2847.00,0.0064
2846.00,0.0061
2845.00,0.0059
2844.00,0.0057
2843.00,0.0056
2842.00,0.0054
2841.00,0.0053
2840.00,0.0052
2839.00,0.0051
2838.00,0.0051
2837.00,0.0050
2836.00,0.0050
2835.00,0.0049
2834.00,0.0049
2833.00,0.0049
2832.00,0.0049
2831.00,0.0048
2830.00,0.0048
2829.00,0.0048
2828.00,0.0047
2827.00,0.0047
2826.00,0.0047
2825.00,0.0047
2824.00,0.0047
2823.00,0.0047
2822.00,0.0047
2821.00,0.0047
2820.00,0.0047
2819.00,0.0046
2818.00,0.0046
2817.00,0.0046
2816.00,0.0046
2815.00,0.0045
2814.00,0.0045
2813.00,0.0045
2812.00,0.0045
2811.00,0.0045
2810.00,0.0045
2809.00,0.0045
2808.00,0.0044
2807.00,0.0044
2806.00,0.0044
2805.00,0.0044
2804.00,0.0044
2803.00,0.0044
2802.00,0.0044
2801.00,0.0043
2800.00,0.0043
2799.00,0.0043
2798.00,0.0043
2797.00,0.0043
2796.00,0.0043
2795.00,0.0043
2794.00,0.0043
2793.00,0.0042
2792.00,0.0042
2791.00,0.0042
2790.00,0.0042
2789.00,0.0042
2788.00,0.0042
2787.00,0.0042
2786.00,0.0041
2785.00,0.0041
2784.00,0.0041
2783.00,0.0041
2782.00,0.0041
2781.00,0.0041
2780.00,0.0041
2779.00,0.0041
2778.00,0.0040
2777.00,0.0040
2776.00,0.0040
2775.00,0.0040
2774.00,0.0040
2773.00,0.0040
2772.00,0.0040
2771.00,0.0039
2770.00,0.0039
2769.00,0.0039
2768.00,0.0039
2767.00,0.0039
2766.00,0.0039
2765.00,0.0038
2764.00,0.0038
2763.00,0.0038
2762.00,0.0038
2761.00,0.0038
2760.00,0.0037
2759.00,0.0037
2758.00,0.0037
2757.00,0.0037
