Created as New Dataset,Sample 1007 By YargerLab Date Thursday, July 31 2025
cm-1,A
4000.00,0.0058
3999.00,0.0058
3998.00,0.0058
3997.00,0.0058
3996.00,0.0058
3995.00,0.0058
3994.00,0.0058
3993.00,0.0058
3992.00,0.0058
3991.00,0.0058
3990.00,0.0058
3989.00,0.0058
3988.00,0.0058
3987.00,0.0057
3986.00,0.0057
3985.00,0.0058
3984.00,0.0058
3983.00,0.0058
3982.00,0.0058
3981.00,0.0058
3980.00,0.0058
3979.00,0.0058
3978.00,0.0058
3977.00,0.0058
3976.00,0.0058
3975.00,0.0058
3974.00,0.0058
3973.00,0.0058
3972.00,0.0058
3971.00,0.0058
3970.00,0.0058
3969.00,0.0058
3968.00,0.0058
3967.00,0.0058
3966.00,0.0058
3965.00,0.0058
3964.00,0.0058
3963.00,0.0058
3962.00,0.0058
3961.00,0.0058
3960.00,0.0058
3959.00,0.0058
3958.00,0.0058
3957.00,0.0058
3956.00,0.0058
3955.00,0.0058
3954.00,0.0058
3953.00,0.0057
3952.00,0.0057
3951.00,0.0057
3950.00,0.0058
3949.00,0.0058
3948.00,0.0058
3947.00,0.0058
3946.00,0.0058
3945.00,0.0058
3944.00,0.0058
3943.00,0.0057
3942.00,0.0057
3941.00,0.0057
3940.00,0.0057
3939.00,0.0057
3938.00,0.0057
3937.00,0.0057
3936.00,0.0058
3935.00,0.0058
3934.00,0.0058
3933.00,0.0058
3932.00,0.0058
3931.00,0.0057
3930.00,0.0057
3929.00,0.0057
3928.00,0.0057
3927.00,0.0057
3926.00,0.0057
3925.00,0.0057
3924.00,0.0058
3923.00,0.0058
3922.00,0.0058
3921.00,0.0058
3920.00,0.0058
3919.00,0.0057
3918.00,0.0057
3917.00,0.0057
3916.00,0.0057
3915.00,0.0057
3914.00,0.0057
3913.00,0.0057
3912.00,0.0057
3911.00,0.0057
3910.00,0.0058
3909.00,0.0058
3908.00,0.0058
3907.00,0.0058
3906.00,0.0057
3905.00,0.0057
3904.00,0.0058
3903.00,0.0057
3902.00,0.0057
3901.00,0.0057
3900.00,0.0057
3899.00,0.0057
3898.00,0.0057
3897.00,0.0057
3896.00,0.0057
3895.00,0.0057
3894.00,0.0057
3893.00,0.0057
3892.00,0.0057
3891.00,0.0057
3890.00,0.0057
3889.00,0.0058
3888.00,0.0058
3887.00,0.0058
3886.00,0.0058
3885.00,0.0058
3884.00,0.0057
3883.00,0.0057
3882.00,0.0057
3881.00,0.0057
3880.00,0.0057
3879.00,0.0057
3878.00,0.0057
3877.00,0.0057
3876.00,0.0057
3875.00,0.0057
3874.00,0.0057
3873.00,0.0057
3872.00,0.0057
3871.00,0.0057
3870.00,0.0057
3869.00,0.0057
3868.00,0.0057
3867.00,0.0057
3866.00,0.0057
3865.00,0.0057
3864.00,0.0057
3863.00,0.0057
3862.00,0.0057
3861.00,0.0057
3860.00,0.0057
3859.00,0.0056
3858.00,0.0056
3857.00,0.0056
3856.00,0.0056
3855.00,0.0056
3854.00,0.0056
3853.00,0.0056
3852.00,0.0056
3851.00,0.0056
3850.00,0.0056
3849.00,0.0056
3848.00,0.0056
3847.00,0.0057
3846.00,0.0057
3845.00,0.0057
3844.00,0.0057
3843.00,0.0057
3842.00,0.0057
3841.00,0.0057
3840.00,0.0057
3839.00,0.0056
3838.00,0.0056
3837.00,0.0056
3836.00,0.0056
3835.00,0.0057
3834.00,0.0057
3833.00,0.0057
3832.00,0.0057
3831.00,0.0057
3830.00,0.0057
3829.00,0.0057
3828.00,0.0057
3827.00,0.0057
3826.00,0.0057
3825.00,0.0057
3824.00,0.0057
3823.00,0.0057
3822.00,0.0056
3821.00,0.0056
3820.00,0.0056
3819.00,0.0056
3818.00,0.0056
3817.00,0.0056
3816.00,0.0056
3815.00,0.0056
3814.00,0.0056
3813.00,0.0056
3812.00,0.0056
3811.00,0.0057
3810.00,0.0057
3809.00,0.0057
3808.00,0.0057
3807.00,0.0057
3806.00,0.0057
3805.00,0.0057
3804.00,0.0056
3803.00,0.0056
3802.00,0.0056
3801.00,0.0056
3800.00,0.0056
3799.00,0.0056
3798.00,0.0056
3797.00,0.0057
3796.00,0.0057
3795.00,0.0057
3794.00,0.0057
3793.00,0.0057
3792.00,0.0057
3791.00,0.0057
3790.00,0.0058
3789.00,0.0058
3788.00,0.0058
3787.00,0.0057
3786.00,0.0057
3785.00,0.0057
3784.00,0.0057
3783.00,0.0057
3782.00,0.0057
3781.00,0.0057
3780.00,0.0057
3779.00,0.0057
3778.00,0.0057
3777.00,0.0057
3776.00,0.0057
3775.00,0.0058
3774.00,0.0058
3773.00,0.0057
3772.00,0.0057
3771.00,0.0057
3770.00,0.0057
3769.00,0.0057
3768.00,0.0057
3767.00,0.0057
3766.00,0.0057
3765.00,0.0057
3764.00,0.0057
3763.00,0.0057
3762.00,0.0057
3761.00,0.0057
3760.00,0.0057
3759.00,0.0057
3758.00,0.0058
3757.00,0.0058
3756.00,0.0058
3755.00,0.0057
3754.00,0.0057
3753.00,0.0057
3752.00,0.0057
3751.00,0.0057
3750.00,0.0057
3749.00,0.0056
3748.00,0.0056
3747.00,0.0056
3746.00,0.0056
3745.00,0.0056
3744.00,0.0056
3743.00,0.0056
3742.00,0.0056
3741.00,0.0056
3740.00,0.0056
3739.00,0.0056
3738.00,0.0056
3737.00,0.0056
3736.00,0.0056
3735.00,0.0056
3734.00,0.0056
3733.00,0.0056
3732.00,0.0056
3731.00,0.0056
3730.00,0.0056
3729.00,0.0056
3728.00,0.0056
3727.00,0.0056
3726.00,0.0056
3725.00,0.0056
3724.00,0.0056
3723.00,0.0056
3722.00,0.0056
3721.00,0.0056
3720.00,0.0056
3719.00,0.0056
3718.00,0.0056
3717.00,0.0056
3716.00,0.0056
3715.00,0.0056
3714.00,0.0056
3713.00,0.0056
3712.00,0.0056
3711.00,0.0056
3710.00,0.0056
3709.00,0.0056
3708.00,0.0056
3707.00,0.0055
3706.00,0.0055
3705.00,0.0055
3704.00,0.0055
3703.00,0.0056
3702.00,0.0056
3701.00,0.0056
3700.00,0.0057
3699.00,0.0057
3698.00,0.0057
3697.00,0.0057
3696.00,0.0057
3695.00,0.0057
3694.00,0.0057
3693.00,0.0057
3692.00,0.0056
3691.00,0.0056
3690.00,0.0057
3689.00,0.0057
3688.00,0.0057
3687.00,0.0057
3686.00,0.0057
3685.00,0.0058
3684.00,0.0058
3683.00,0.0059
3682.00,0.0059
3681.00,0.0059
3680.00,0.0059
3679.00,0.0059
3678.00,0.0059
3677.00,0.0059
3676.00,0.0059
3675.00,0.0059
3674.00,0.0059
3673.00,0.0058
3672.00,0.0058
3671.00,0.0058
3670.00,0.0059
3669.00,0.0059
3668.00,0.0060
3667.00,0.0060
3666.00,0.0060
3665.00,0.0061
3664.00,0.0061
3663.00,0.0062
3662.00,0.0062
3661.00,0.0063
3660.00,0.0063
3659.00,0.0063
3658.00,0.0063
3657.00,0.0063
3656.00,0.0063
3655.00,0.0063
3654.00,0.0063
3653.00,0.0063
3652.00,0.0064
3651.00,0.0064
3650.00,0.0064
3649.00,0.0064
3648.00,0.0064
3647.00,0.0064
3646.00,0.0065
3645.00,0.0065
3644.00,0.0066
3643.00,0.0066
3642.00,0.0066
3641.00,0.0067
3640.00,0.0067
3639.00,0.0068
3638.00,0.0068
3637.00,0.0069
3636.00,0.0069
3635.00,0.0070
3634.00,0.0070
3633.00,0.0071
3632.00,0.0071
3631.00,0.0071
3630.00,0.0071
3629.00,0.0071
3628.00,0.0072
3627.00,0.0072
3626.00,0.0073
3625.00,0.0074
3624.00,0.0074
3623.00,0.0075
3622.00,0.0075
3621.00,0.0075
3620.00,0.0075
3619.00,0.0075
3618.00,0.0076
3617.00,0.0076
3616.00,0.0077
3615.00,0.0077
3614.00,0.0078
3613.00,0.0079
3612.00,0.0080
3611.00,0.0080
3610.00,0.0080
3609.00,0.0081
3608.00,0.0081
3607.00,0.0082
3606.00,0.0083
3605.00,0.0083
3604.00,0.0084
3603.00,0.0084
3602.00,0.0085
3601.00,0.0085
3600.00,0.0086
3599.00,0.0087
3598.00,0.0088
3597.00,0.0088
3596.00,0.0089
3595.00,0.0090
3594.00,0.0091
3593.00,0.0091
3592.00,0.0092
3591.00,0.0093
3590.00,0.0093
3589.00,0.0094
3588.00,0.0094
3587.00,0.0095
3586.00,0.0096
3585.00,0.0096
3584.00,0.0097
3583.00,0.0098
3582.00,0.0098
3581.00,0.0099
3580.00,0.0100
3579.00,0.0101
3578.00,0.0102
3577.00,0.0103
3576.00,0.0104
3575.00,0.0105
3574.00,0.0106
3573.00,0.0107
3572.00,0.0108
3571.00,0.0108
3570.00,0.0109
3569.00,0.0110
3568.00,0.0110
3567.00,0.0111
3566.00,0.0112
3565.00,0.0113
3564.00,0.0113
3563.00,0.0114
3562.00,0.0115
3561.00,0.0116
3560.00,0.0117
3559.00,0.0118
3558.00,0.0119
3557.00,0.0119
3556.00,0.0120
3555.00,0.0120
3554.00,0.0121
3553.00,0.0122
3552.00,0.0123
3551.00,0.0123
3550.00,0.0124
3549.00,0.0125
3548.00,0.0126
3547.00,0.0126
3546.00,0.0127
3545.00,0.0128
3544.00,0.0128
3543.00,0.0129
3542.00,0.0130
3541.00,0.0131
3540.00,0.0131
3539.00,0.0132
3538.00,0.0133
3537.00,0.0133
3536.00,0.0134
3535.00,0.0134
3534.00,0.0135
3533.00,0.0135
3532.00,0.0135
3531.00,0.0136
3530.00,0.0136
3529.00,0.0137
3528.00,0.0137
3527.00,0.0138
3526.00,0.0138
3525.00,0.0138
3524.00,0.0139
3523.00,0.0139
3522.00,0.0140
3521.00,0.0140
3520.00,0.0141
3519.00,0.0141
3518.00,0.0141
3517.00,0.0142
3516.00,0.0143
3515.00,0.0143
3514.00,0.0144
3513.00,0.0144
3512.00,0.0145
3511.00,0.0145
3510.00,0.0145
3509.00,0.0146
3508.00,0.0146
3507.00,0.0146
3506.00,0.0146
3505.00,0.0147
3504.00,0.0147
3503.00,0.0148
3502.00,0.0148
3501.00,0.0149
3500.00,0.0149
3499.00,0.0150
3498.00,0.0150
3497.00,0.0151
3496.00,0.0151
3495.00,0.0151
3494.00,0.0152
3493.00,0.0152
3492.00,0.0152
3491.00,0.0153
3490.00,0.0153
3489.00,0.0153
3488.00,0.0154
3487.00,0.0154
3486.00,0.0155
3485.00,0.0155
3484.00,0.0155
3483.00,0.0156
3482.00,0.0156
3481.00,0.0157
3480.00,0.0157
3479.00,0.0158
3478.00,0.0158
3477.00,0.0158
3476.00,0.0159
3475.00,0.0159
3474.00,0.0159
3473.00,0.0159
3472.00,0.0160
3471.00,0.0160
3470.00,0.0160
3469.00,0.0161
3468.00,0.0161
3467.00,0.0161
3466.00,0.0161
3465.00,0.0161
3464.00,0.0161
3463.00,0.0161
3462.00,0.0161
3461.00,0.0162
3460.00,0.0162
3459.00,0.0162
3458.00,0.0163
3457.00,0.0163
3456.00,0.0163
3455.00,0.0163
3454.00,0.0163
3453.00,0.0164
3452.00,0.0164
3451.00,0.0164
3450.00,0.0164
3449.00,0.0164
3448.00,0.0164
3447.00,0.0165
3446.00,0.0165
3445.00,0.0165
3444.00,0.0165
3443.00,0.0165
3442.00,0.0165
3441.00,0.0165
3440.00,0.0165
3439.00,0.0166
3438.00,0.0166
3437.00,0.0166
3436.00,0.0166
3435.00,0.0166
3434.00,0.0166
3433.00,0.0166
3432.00,0.0166
3431.00,0.0166
3430.00,0.0166
3429.00,0.0166
3428.00,0.0166
3427.00,0.0166
3426.00,0.0166
3425.00,0.0166
3424.00,0.0166
3423.00,0.0166
3422.00,0.0166
3421.00,0.0165
3420.00,0.0165
3419.00,0.0165
3418.00,0.0165
3417.00,0.0165
3416.00,0.0165
3415.00,0.0165
3414.00,0.0165
3413.00,0.0165
3412.00,0.0165
3411.00,0.0165
3410.00,0.0164
3409.00,0.0164
3408.00,0.0164
3407.00,0.0164
3406.00,0.0164
3405.00,0.0164
3404.00,0.0164
3403.00,0.0164
3402.00,0.0164
3401.00,0.0163
3400.00,0.0163
3399.00,0.0163
3398.00,0.0163
3397.00,0.0162
3396.00,0.0162
3395.00,0.0162
3394.00,0.0162
3393.00,0.0162
3392.00,0.0162
3391.00,0.0162
3390.00,0.0162
3389.00,0.0162
3388.00,0.0162
3387.00,0.0162
3386.00,0.0161
3385.00,0.0161
3384.00,0.0161
3383.00,0.0160
3382.00,0.0160
3381.00,0.0160
3380.00,0.0160
3379.00,0.0160
3378.00,0.0160
3377.00,0.0160
3376.00,0.0160
3375.00,0.0159
3374.00,0.0159
3373.00,0.0158
3372.00,0.0158
3371.00,0.0157
3370.00,0.0157
3369.00,0.0157
3368.00,0.0157
3367.00,0.0157
3366.00,0.0157
3365.00,0.0157
3364.00,0.0157
3363.00,0.0157
3362.00,0.0157
3361.00,0.0157
3360.00,0.0157
3359.00,0.0157
3358.00,0.0157
3357.00,0.0157
3356.00,0.0156
3355.00,0.0156
3354.00,0.0156
3353.00,0.0155
3352.00,0.0155
3351.00,0.0154
3350.00,0.0154
3349.00,0.0154
3348.00,0.0154
3347.00,0.0154
3346.00,0.0154
3345.00,0.0154
3344.00,0.0154
3343.00,0.0153
3342.00,0.0153
3341.00,0.0153
3340.00,0.0152
3339.00,0.0152
3338.00,0.0153
3337.00,0.0153
3336.00,0.0153
3335.00,0.0153
3334.00,0.0153
3333.00,0.0153
3332.00,0.0153
3331.00,0.0153
3330.00,0.0153
3329.00,0.0152
3328.00,0.0152
3327.00,0.0151
3326.00,0.0150
3325.00,0.0150
3324.00,0.0150
3323.00,0.0151
3322.00,0.0151
3321.00,0.0151
3320.00,0.0151
3319.00,0.0151
3318.00,0.0151
3317.00,0.0151
3316.00,0.0151
3315.00,0.0151
3314.00,0.0151
3313.00,0.0150
3312.00,0.0150
3311.00,0.0149
3310.00,0.0148
3309.00,0.0147
3308.00,0.0147
3307.00,0.0147
3306.00,0.0147
3305.00,0.0147
3304.00,0.0148
3303.00,0.0149
3302.00,0.0150
3301.00,0.0150
3300.00,0.0150
3299.00,0.0149
3298.00,0.0149
3297.00,0.0148
3296.00,0.0147
3295.00,0.0147
3294.00,0.0147
3293.00,0.0147
3292.00,0.0147
3291.00,0.0148
3290.00,0.0148
3289.00,0.0149
3288.00,0.0149
3287.00,0.0149
3286.00,0.0149
3285.00,0.0148
3284.00,0.0148
3283.00,0.0148
3282.00,0.0148
3281.00,0.0148
3280.00,0.0148
3279.00,0.0148
3278.00,0.0147
3277.00,0.0147
3276.00,0.0147
3275.00,0.0146
3274.00,0.0146
3273.00,0.0146
3272.00,0.0145
3271.00,0.0145
3270.00,0.0145
3269.00,0.0145
3268.00,0.0145
3267.00,0.0145
3266.00,0.0145
3265.00,0.0145
3264.00,0.0146
3263.00,0.0145
3262.00,0.0145
3261.00,0.0145
3260.00,0.0144
3259.00,0.0144
3258.00,0.0144
3257.00,0.0143
3256.00,0.0143
3255.00,0.0143
3254.00,0.0143
3253.00,0.0143
3252.00,0.0143
3251.00,0.0143
3250.00,0.0142
3249.00,0.0142
3248.00,0.0142
3247.00,0.0142
3246.00,0.0142
3245.00,0.0142
3244.00,0.0142
3243.00,0.0142
3242.00,0.0142
3241.00,0.0141
3240.00,0.0141
3239.00,0.0141
3238.00,0.0141
3237.00,0.0140
3236.00,0.0139
3235.00,0.0139
3234.00,0.0138
3233.00,0.0138
3232.00,0.0139
3231.00,0.0139
3230.00,0.0139
3229.00,0.0139
3228.00,0.0139
3227.00,0.0139
3226.00,0.0139
3225.00,0.0139
3224.00,0.0139
3223.00,0.0139
3222.00,0.0139
3221.00,0.0138
3220.00,0.0138
3219.00,0.0137
3218.00,0.0137
3217.00,0.0136
3216.00,0.0136
3215.00,0.0136
3214.00,0.0136
3213.00,0.0136
3212.00,0.0135
3211.00,0.0135
3210.00,0.0135
3209.00,0.0134
3208.00,0.0134
3207.00,0.0134
3206.00,0.0134
3205.00,0.0134
3204.00,0.0133
3203.00,0.0133
3202.00,0.0133
3201.00,0.0133
3200.00,0.0133
3199.00,0.0133
3198.00,0.0132
3197.00,0.0132
3196.00,0.0132
3195.00,0.0132
3194.00,0.0132
3193.00,0.0132
3192.00,0.0131
3191.00,0.0131
3190.00,0.0130
3189.00,0.0130
3188.00,0.0130
3187.00,0.0130
3186.00,0.0130
3185.00,0.0130
3184.00,0.0130
3183.00,0.0129
3182.00,0.0129
3181.00,0.0129
3180.00,0.0129
3179.00,0.0129
3178.00,0.0129
3177.00,0.0129
3176.00,0.0129
3175.00,0.0128
3174.00,0.0128
3173.00,0.0128
3172.00,0.0128
3171.00,0.0128
3170.00,0.0128
3169.00,0.0128
3168.00,0.0128
3167.00,0.0127
3166.00,0.0127
3165.00,0.0127
3164.00,0.0127
3163.00,0.0127
3162.00,0.0126
3161.00,0.0126
3160.00,0.0126
3159.00,0.0126
3158.00,0.0126
3157.00,0.0126
3156.00,0.0126
3155.00,0.0125
3154.00,0.0125
3153.00,0.0125
3152.00,0.0125
3151.00,0.0124
3150.00,0.0124
3149.00,0.0124
3148.00,0.0124
3147.00,0.0124
3146.00,0.0123
3145.00,0.0123
3144.00,0.0123
3143.00,0.0123
3142.00,0.0123
3141.00,0.0123
3140.00,0.0123
3139.00,0.0123
3138.00,0.0123
3137.00,0.0122
3136.00,0.0122
3135.00,0.0122
3134.00,0.0121
3133.00,0.0121
3132.00,0.0121
3131.00,0.0121
3130.00,0.0121
3129.00,0.0120
3128.00,0.0120
3127.00,0.0120
3126.00,0.0120
3125.00,0.0120
3124.00,0.0120
3123.00,0.0120
3122.00,0.0120
3121.00,0.0120
3120.00,0.0120
3119.00,0.0120
3118.00,0.0120
3117.00,0.0120
3116.00,0.0120
3115.00,0.0120
3114.00,0.0119
3113.00,0.0119
3112.00,0.0119
3111.00,0.0119
3110.00,0.0118
3109.00,0.0118
3108.00,0.0118
3107.00,0.0118
3106.00,0.0118
3105.00,0.0118
3104.00,0.0117
3103.00,0.0117
3102.00,0.0117
3101.00,0.0117
3100.00,0.0116
3099.00,0.0116
3098.00,0.0116
3097.00,0.0116
3096.00,0.0116
3095.00,0.0116
3094.00,0.0116
3093.00,0.0116
3092.00,0.0116
3091.00,0.0116
3090.00,0.0115
3089.00,0.0115
3088.00,0.0116
3087.00,0.0116
3086.00,0.0116
3085.00,0.0116
3084.00,0.0116
3083.00,0.0116
3082.00,0.0116
3081.00,0.0116
3080.00,0.0116
3079.00,0.0116
3078.00,0.0116
3077.00,0.0116
3076.00,0.0116
3075.00,0.0116
3074.00,0.0116
3073.00,0.0115
3072.00,0.0115
3071.00,0.0115
3070.00,0.0114
3069.00,0.0114
3068.00,0.0114
3067.00,0.0114
3066.00,0.0114
3065.00,0.0113
3064.00,0.0113
3063.00,0.0113
3062.00,0.0113
3061.00,0.0112
3060.00,0.0112
3059.00,0.0112
3058.00,0.0112
3057.00,0.0112
3056.00,0.0112
3055.00,0.0112
3054.00,0.0112
3053.00,0.0112
3052.00,0.0112
3051.00,0.0111
3050.00,0.0111
3049.00,0.0111
3048.00,0.0111
3047.00,0.0111
3046.00,0.0110
3045.00,0.0110
3044.00,0.0110
3043.00,0.0110
3042.00,0.0110
3041.00,0.0110
3040.00,0.0109
3039.00,0.0109
3038.00,0.0109
3037.00,0.0109
3036.00,0.0109
3035.00,0.0109
3034.00,0.0109
3033.00,0.0109
3032.00,0.0109
3031.00,0.0109
3030.00,0.0109
3029.00,0.0109
3028.00,0.0109
3027.00,0.0109
3026.00,0.0108
3025.00,0.0108
3024.00,0.0108
3023.00,0.0108
3022.00,0.0108
3021.00,0.0108
3020.00,0.0108
3019.00,0.0108
3018.00,0.0108
3017.00,0.0108
3016.00,0.0108
3015.00,0.0109
3014.00,0.0109
3013.00,0.0109
3012.00,0.0110
3011.00,0.0111
3010.00,0.0111
3009.00,0.0112
3008.00,0.0114
3007.00,0.0115
3006.00,0.0116
3005.00,0.0117
3004.00,0.0119
3003.00,0.0121
3002.00,0.0123
3001.00,0.0125
3000.00,0.0127
2999.00,0.0130
2998.00,0.0132
2997.00,0.0135
2996.00,0.0138
2995.00,0.0141
2994.00,0.0145
2993.00,0.0149
2992.00,0.0152
2991.00,0.0156
2990.00,0.0159
2989.00,0.0163
2988.00,0.0166
2987.00,0.0170
2986.00,0.0173
2985.00,0.0177
2984.00,0.0180
2983.00,0.0183
2982.00,0.0186
2981.00,0.0189
2980.00,0.0192
2979.00,0.0195
2978.00,0.0197
2977.00,0.0200
2976.00,0.0202
2975.00,0.0204
2974.00,0.0206
2973.00,0.0208
2972.00,0.0209
2971.00,0.0212
2970.00,0.0214
2969.00,0.0216
2968.00,0.0219
2967.00,0.0221
2966.00,0.0223
2965.00,0.0226
2964.00,0.0228
2963.00,0.0230
2962.00,0.0233
2961.00,0.0235
2960.00,0.0237
2959.00,0.0239
2958.00,0.0241
2957.00,0.0243
2956.00,0.0245
2955.00,0.0246
2954.00,0.0247
2953.00,0.0247
2952.00,0.0248
2951.00,0.0248
2950.00,0.0247
2949.00,0.0247
2948.00,0.0246
2947.00,0.0245
2946.00,0.0245
2945.00,0.0244
2944.00,0.0244
2943.00,0.0244
2942.00,0.0244
2941.00,0.0244
2940.00,0.0244
2939.00,0.0245
2938.00,0.0246
2937.00,0.0247
2936.00,0.0249
2935.00,0.0251
2934.00,0.0253
2933.00,0.0254
2932.00,0.0256
2931.00,0.0258
2930.00,0.0259
2929.00,0.0260
2928.00,0.0261
2927.00,0.0262
2926.00,0.0262
2925.00,0.0262
2924.00,0.0262
2923.00,0.0261
2922.00,0.0260
2921.00,0.0259
2920.00,0.0257
2919.00,0.0254
2918.00,0.0252
2917.00,0.0249
2916.00,0.0246
2915.00,0.0244
2914.00,0.0241
2913.00,0.0238
2912.00,0.0235
2911.00,0.0232
2910.00,0.0229
2909.00,0.0226
2908.00,0.0223
2907.00,0.0220
2906.00,0.0218
2905.00,0.0216
2904.00,0.0214
2903.00,0.0213
2902.00,0.0211
2901.00,0.0210
2900.00,0.0209
2899.00,0.0209
2898.00,0.0208
2897.00,0.0208
2896.00,0.0208
2895.00,0.0208
2894.00,0.0208
2893.00,0.0208
2892.00,0.0208
2891.00,0.0208
2890.00,0.0207
2889.00,0.0207
2888.00,0.0207
2887.00,0.0207
2886.00,0.0207
2885.00,0.0207
2884.00,0.0207
2883.00,0.0207
2882.00,0.0207
2881.00,0.0208
2880.00,0.0208
2879.00,0.0209
2878.00,0.0209
2877.00,0.0209
2876.00,0.0210
2875.00,0.0211
2874.00,0.0211
2873.00,0.0212
2872.00,0.0212
2871.00,0.0213
2870.00,0.0212
2869.00,0.0212
2868.00,0.0212
2867.00,0.0211
2866.00,0.0210
2865.00,0.0210
2864.00,0.0210
2863.00,0.0210
2862.00,0.0210
2861.00,0.0210
2860.00,0.0210
2859.00,0.0209
2858.00,0.0209
2857.00,0.0208
2856.00,0.0206
2855.00,0.0203
2854.00,0.0200
2853.00,0.0197
2852.00,0.0193
2851.00,0.0189
2850.00,0.0185
2849.00,0.0181
2848.00,0.0177
2847.00,0.0174
2846.00,0.0170
2845.00,0.0167
2844.00,0.0164
2843.00,0.0162
2842.00,0.0158
2841.00,0.0155
2840.00,0.0152
2839.00,0.0150
2838.00,0.0147
2837.00,0.0145
2836.00,0.0143
2835.00,0.0142
2834.00,0.0140
2833.00,0.0138
2832.00,0.0136
2831.00,0.0134
2830.00,0.0132
2829.00,0.0130
2828.00,0.0129
2827.00,0.0127
2826.00,0.0125
2825.00,0.0124
2824.00,0.0123
2823.00,0.0121
2822.00,0.0120
2821.00,0.0119
2820.00,0.0118
2819.00,0.0117
2818.00,0.0115
2817.00,0.0114
2816.00,0.0113
2815.00,0.0113
2814.00,0.0112
2813.00,0.0111
2812.00,0.0111
2811.00,0.0110
2810.00,0.0110
2809.00,0.0109
2808.00,0.0109
2807.00,0.0108
2806.00,0.0108
2805.00,0.0107
2804.00,0.0106
2803.00,0.0106
2802.00,0.0106
2801.00,0.0105
2800.00,0.0105
2799.00,0.0104
2798.00,0.0104
2797.00,0.0104
2796.00,0.0103
2795.00,0.0103
2794.00,0.0103
2793.00,0.0103
2792.00,0.0103
2791.00,0.0102
2790.00,0.0102
2789.00,0.0102
2788.00,0.0101
2787.00,0.0101
2786.00,0.0101
2785.00,0.0101
2784.00,0.0101
2783.00,0.0100
2782.00,0.0100
2781.00,0.0100
2780.00,0.0099
2779.00,0.0099
2778.00,0.0099
2777.00,0.0098
2776.00,0.0098
2775.00,0.0098
2774.00,0.0098
2773.00,0.0098
2772.00,0.0098
2771.00,0.0098
2770.00,0.0097
2769.00,0.0097
2768.00,0.0097
2767.00,0.0097
2766.00,0.0097
2765.00,0.0097
2764.00,0.0096
2763.00,0.0096
2762.00,0.0096
2761.00,0.0096
2760.00,0.0096
2759.00,0.0096
2758.00,0.0096
2757.00,0.0096
