Created as New Dataset,Sample 1070 By YargerLab Date Tuesday, August 05 2025
cm-1,A
4000.00,0.0007
3999.00,0.0007
3998.00,0.0007
3997.00,0.0007
3996.00,0.0007
3995.00,0.0007
3994.00,0.0007
3993.00,0.0007
3992.00,0.0007
3991.00,0.0007
3990.00,0.0007
3989.00,0.0006
3988.00,0.0006
3987.00,0.0006
3986.00,0.0007
3985.00,0.0007
3984.00,0.0007
3983.00,0.0007
3982.00,0.0007
3981.00,0.0007
3980.00,0.0007
3979.00,0.0007
3978.00,0.0007
3977.00,0.0007
3976.00,0.0007
3975.00,0.0007
3974.00,0.0007
3973.00,0.0006
3972.00,0.0007
3971.00,0.0007
3970.00,0.0007
3969.00,0.0007
3968.00,0.0007
3967.00,0.0007
3966.00,0.0006
3965.00,0.0006
3964.00,0.0006
3963.00,0.0007
3962.00,0.0007
3961.00,0.0007
3960.00,0.0007
3959.00,0.0007
3958.00,0.0007
3957.00,0.0006
3956.00,0.0006
3955.00,0.0007
3954.00,0.0007
3953.00,0.0007
3952.00,0.0006
3951.00,0.0006
3950.00,0.0006
3949.00,0.0006
3948.00,0.0006
3947.00,0.0006
3946.00,0.0006
3945.00,0.0006
3944.00,0.0006
3943.00,0.0006
3942.00,0.0006
3941.00,0.0006
3940.00,0.0006
3939.00,0.0006
3938.00,0.0006
3937.00,0.0006
3936.00,0.0007
3935.00,0.0007
3934.00,0.0007
3933.00,0.0007
3932.00,0.0006
3931.00,0.0006
3930.00,0.0006
3929.00,0.0006
3928.00,0.0006
3927.00,0.0006
3926.00,0.0006
3925.00,0.0006
3924.00,0.0006
3923.00,0.0006
3922.00,0.0006
3921.00,0.0006
3920.00,0.0006
3919.00,0.0006
3918.00,0.0006
3917.00,0.0006
3916.00,0.0006
3915.00,0.0006
3914.00,0.0006
3913.00,0.0006
3912.00,0.0006
3911.00,0.0006
3910.00,0.0006
3909.00,0.0006
3908.00,0.0006
3907.00,0.0006
3906.00,0.0005
3905.00,0.0005
3904.00,0.0004
3903.00,0.0004
3902.00,0.0004
3901.00,0.0004
3900.00,0.0004
3899.00,0.0004
3898.00,0.0005
3897.00,0.0005
3896.00,0.0005
3895.00,0.0005
3894.00,0.0005
3893.00,0.0005
3892.00,0.0005
3891.00,0.0005
3890.00,0.0005
3889.00,0.0005
3888.00,0.0005
3887.00,0.0005
3886.00,0.0005
3885.00,0.0005
3884.00,0.0005
3883.00,0.0005
3882.00,0.0005
3881.00,0.0005
3880.00,0.0005
3879.00,0.0005
3878.00,0.0005
3877.00,0.0005
3876.00,0.0005
3875.00,0.0005
3874.00,0.0005
3873.00,0.0005
3872.00,0.0005
3871.00,0.0005
3870.00,0.0005
3869.00,0.0005
3868.00,0.0005
3867.00,0.0005
3866.00,0.0005
3865.00,0.0005
3864.00,0.0005
3863.00,0.0005
3862.00,0.0004
3861.00,0.0005
3860.00,0.0005
3859.00,0.0005
3858.00,0.0004
3857.00,0.0004
3856.00,0.0003
3855.00,0.0003
3854.00,0.0003
3853.00,0.0003
3852.00,0.0003
3851.00,0.0003
3850.00,0.0003
3849.00,0.0004
3848.00,0.0004
3847.00,0.0005
3846.00,0.0005
3845.00,0.0005
3844.00,0.0005
3843.00,0.0005
3842.00,0.0005
3841.00,0.0005
3840.00,0.0005
3839.00,0.0004
3838.00,0.0004
3837.00,0.0004
3836.00,0.0004
3835.00,0.0004
3834.00,0.0004
3833.00,0.0005
3832.00,0.0005
3831.00,0.0005
3830.00,0.0006
3829.00,0.0006
3828.00,0.0006
3827.00,0.0006
3826.00,0.0006
3825.00,0.0006
3824.00,0.0006
3823.00,0.0006
3822.00,0.0005
3821.00,0.0005
3820.00,0.0004
3819.00,0.0004
3818.00,0.0004
3817.00,0.0004
3816.00,0.0005
3815.00,0.0005
3814.00,0.0005
3813.00,0.0005
3812.00,0.0005
3811.00,0.0005
3810.00,0.0006
3809.00,0.0006
3808.00,0.0006
3807.00,0.0006
3806.00,0.0006
3805.00,0.0005
3804.00,0.0005
3803.00,0.0005
3802.00,0.0005
3801.00,0.0005
3800.00,0.0005
3799.00,0.0005
3798.00,0.0005
3797.00,0.0005
3796.00,0.0005
3795.00,0.0006
3794.00,0.0006
3793.00,0.0006
3792.00,0.0006
3791.00,0.0007
3790.00,0.0007
3789.00,0.0007
3788.00,0.0007
3787.00,0.0007
3786.00,0.0007
3785.00,0.0006
3784.00,0.0006
3783.00,0.0006
3782.00,0.0006
3781.00,0.0006
3780.00,0.0006
3779.00,0.0006
3778.00,0.0006
3777.00,0.0006
3776.00,0.0006
3775.00,0.0006
3774.00,0.0006
3773.00,0.0006
3772.00,0.0006
3771.00,0.0006
3770.00,0.0006
3769.00,0.0006
3768.00,0.0006
3767.00,0.0006
3766.00,0.0006
3765.00,0.0006
3764.00,0.0006
3763.00,0.0006
3762.00,0.0006
3761.00,0.0006
3760.00,0.0006
3759.00,0.0006
3758.00,0.0006
3757.00,0.0006
3756.00,0.0006
3755.00,0.0005
3754.00,0.0005
3753.00,0.0005
3752.00,0.0004
3751.00,0.0004
3750.00,0.0004
3749.00,0.0004
3748.00,0.0004
3747.00,0.0004
3746.00,0.0004
3745.00,0.0004
3744.00,0.0004
3743.00,0.0004
3742.00,0.0004
3741.00,0.0004
3740.00,0.0004
3739.00,0.0004
3738.00,0.0004
3737.00,0.0004
3736.00,0.0004
3735.00,0.0004
3734.00,0.0004
3733.00,0.0004
3732.00,0.0004
3731.00,0.0004
3730.00,0.0004
3729.00,0.0004
3728.00,0.0005
3727.00,0.0005
3726.00,0.0005
3725.00,0.0005
3724.00,0.0005
3723.00,0.0005
3722.00,0.0005
3721.00,0.0005
3720.00,0.0005
3719.00,0.0005
3718.00,0.0005
3717.00,0.0005
3716.00,0.0005
3715.00,0.0005
3714.00,0.0005
3713.00,0.0005
3712.00,0.0005
3711.00,0.0004
3710.00,0.0004
3709.00,0.0004
3708.00,0.0005
3707.00,0.0005
3706.00,0.0005
3705.00,0.0005
3704.00,0.0005
3703.00,0.0005
3702.00,0.0006
3701.00,0.0006
3700.00,0.0006
3699.00,0.0006
3698.00,0.0006
3697.00,0.0006
3696.00,0.0006
3695.00,0.0006
3694.00,0.0006
3693.00,0.0006
3692.00,0.0006
3691.00,0.0006
3690.00,0.0006
3689.00,0.0007
3688.00,0.0007
3687.00,0.0008
3686.00,0.0008
3685.00,0.0009
3684.00,0.0010
3683.00,0.0010
3682.00,0.0011
3681.00,0.0011
3680.00,0.0011
3679.00,0.0010
3678.00,0.0010
3677.00,0.0010
3676.00,0.0010
3675.00,0.0010
3674.00,0.0010
3673.00,0.0010
3672.00,0.0010
3671.00,0.0011
3670.00,0.0011
3669.00,0.0011
3668.00,0.0012
3667.00,0.0012
3666.00,0.0012
3665.00,0.0013
3664.00,0.0013
3663.00,0.0014
3662.00,0.0014
3661.00,0.0014
3660.00,0.0014
3659.00,0.0014
3658.00,0.0014
3657.00,0.0014
3656.00,0.0015
3655.00,0.0015
3654.00,0.0016
3653.00,0.0016
3652.00,0.0015
3651.00,0.0016
3650.00,0.0016
3649.00,0.0017
3648.00,0.0017
3647.00,0.0018
3646.00,0.0018
3645.00,0.0019
3644.00,0.0019
3643.00,0.0020
3642.00,0.0021
3641.00,0.0021
3640.00,0.0022
3639.00,0.0022
3638.00,0.0022
3637.00,0.0022
3636.00,0.0022
3635.00,0.0023
3634.00,0.0023
3633.00,0.0023
3632.00,0.0023
3631.00,0.0022
3630.00,0.0023
3629.00,0.0024
3628.00,0.0025
3627.00,0.0026
3626.00,0.0027
3625.00,0.0027
3624.00,0.0028
3623.00,0.0028
3622.00,0.0028
3621.00,0.0029
3620.00,0.0030
3619.00,0.0031
3618.00,0.0032
3617.00,0.0032
3616.00,0.0032
3615.00,0.0032
3614.00,0.0033
3613.00,0.0033
3612.00,0.0034
3611.00,0.0034
3610.00,0.0035
3609.00,0.0036
3608.00,0.0037
3607.00,0.0038
3606.00,0.0039
3605.00,0.0039
3604.00,0.0040
3603.00,0.0040
3602.00,0.0041
3601.00,0.0042
3600.00,0.0043
3599.00,0.0044
3598.00,0.0044
3597.00,0.0045
3596.00,0.0046
3595.00,0.0047
3594.00,0.0048
3593.00,0.0048
3592.00,0.0048
3591.00,0.0048
3590.00,0.0049
3589.00,0.0050
3588.00,0.0051
3587.00,0.0053
3586.00,0.0054
3585.00,0.0055
3584.00,0.0056
3583.00,0.0056
3582.00,0.0056
3581.00,0.0057
3580.00,0.0058
3579.00,0.0059
3578.00,0.0060
3577.00,0.0061
3576.00,0.0062
3575.00,0.0063
3574.00,0.0064
3573.00,0.0064
3572.00,0.0064
3571.00,0.0064
3570.00,0.0064
3569.00,0.0065
3568.00,0.0067
3567.00,0.0069
3566.00,0.0070
3565.00,0.0072
3564.00,0.0073
3563.00,0.0073
3562.00,0.0074
3561.00,0.0074
3560.00,0.0075
3559.00,0.0076
3558.00,0.0077
3557.00,0.0077
3556.00,0.0078
3555.00,0.0078
3554.00,0.0079
3553.00,0.0080
3552.00,0.0081
3551.00,0.0082
3550.00,0.0083
3549.00,0.0083
3548.00,0.0083
3547.00,0.0084
3546.00,0.0085
3545.00,0.0086
3544.00,0.0087
3543.00,0.0088
3542.00,0.0088
3541.00,0.0088
3540.00,0.0089
3539.00,0.0089
3538.00,0.0090
3537.00,0.0091
3536.00,0.0091
3535.00,0.0092
3534.00,0.0092
3533.00,0.0092
3532.00,0.0092
3531.00,0.0092
3530.00,0.0093
3529.00,0.0094
3528.00,0.0094
3527.00,0.0095
3526.00,0.0096
3525.00,0.0096
3524.00,0.0097
3523.00,0.0097
3522.00,0.0098
3521.00,0.0098
3520.00,0.0098
3519.00,0.0099
3518.00,0.0100
3517.00,0.0100
3516.00,0.0100
3515.00,0.0101
3514.00,0.0101
3513.00,0.0101
3512.00,0.0102
3511.00,0.0102
3510.00,0.0103
3509.00,0.0103
3508.00,0.0104
3507.00,0.0104
3506.00,0.0104
3505.00,0.0104
3504.00,0.0105
3503.00,0.0106
3502.00,0.0107
3501.00,0.0107
3500.00,0.0108
3499.00,0.0108
3498.00,0.0108
3497.00,0.0108
3496.00,0.0109
3495.00,0.0110
3494.00,0.0110
3493.00,0.0111
3492.00,0.0111
3491.00,0.0111
3490.00,0.0112
3489.00,0.0112
3488.00,0.0113
3487.00,0.0113
3486.00,0.0113
3485.00,0.0114
3484.00,0.0114
3483.00,0.0114
3482.00,0.0115
3481.00,0.0116
3480.00,0.0116
3479.00,0.0116
3478.00,0.0116
3477.00,0.0117
3476.00,0.0117
3475.00,0.0117
3474.00,0.0118
3473.00,0.0118
3472.00,0.0118
3471.00,0.0119
3470.00,0.0119
3469.00,0.0119
3468.00,0.0120
3467.00,0.0120
3466.00,0.0120
3465.00,0.0120
3464.00,0.0120
3463.00,0.0121
3462.00,0.0121
3461.00,0.0121
3460.00,0.0121
3459.00,0.0121
3458.00,0.0121
3457.00,0.0121
3456.00,0.0121
3455.00,0.0121
3454.00,0.0122
3453.00,0.0122
3452.00,0.0122
3451.00,0.0123
3450.00,0.0123
3449.00,0.0123
3448.00,0.0123
3447.00,0.0123
3446.00,0.0124
3445.00,0.0124
3444.00,0.0124
3443.00,0.0124
3442.00,0.0124
3441.00,0.0124
3440.00,0.0124
3439.00,0.0124
3438.00,0.0124
3437.00,0.0124
3436.00,0.0123
3435.00,0.0123
3434.00,0.0123
3433.00,0.0124
3432.00,0.0124
3431.00,0.0124
3430.00,0.0124
3429.00,0.0124
3428.00,0.0123
3427.00,0.0123
3426.00,0.0123
3425.00,0.0123
3424.00,0.0123
3423.00,0.0123
3422.00,0.0123
3421.00,0.0123
3420.00,0.0123
3419.00,0.0123
3418.00,0.0123
3417.00,0.0123
3416.00,0.0123
3415.00,0.0123
3414.00,0.0123
3413.00,0.0123
3412.00,0.0123
3411.00,0.0123
3410.00,0.0123
3409.00,0.0123
3408.00,0.0123
3407.00,0.0123
3406.00,0.0122
3405.00,0.0122
3404.00,0.0122
3403.00,0.0121
3402.00,0.0121
3401.00,0.0121
3400.00,0.0121
3399.00,0.0121
3398.00,0.0121
3397.00,0.0121
3396.00,0.0121
3395.00,0.0121
3394.00,0.0120
3393.00,0.0120
3392.00,0.0120
3391.00,0.0121
3390.00,0.0121
3389.00,0.0121
3388.00,0.0121
3387.00,0.0121
3386.00,0.0121
3385.00,0.0121
3384.00,0.0121
3383.00,0.0121
3382.00,0.0121
3381.00,0.0120
3380.00,0.0120
3379.00,0.0120
3378.00,0.0120
3377.00,0.0120
3376.00,0.0120
3375.00,0.0120
3374.00,0.0119
3373.00,0.0118
3372.00,0.0117
3371.00,0.0116
3370.00,0.0115
3369.00,0.0114
3368.00,0.0115
3367.00,0.0116
3366.00,0.0117
3365.00,0.0118
3364.00,0.0119
3363.00,0.0118
3362.00,0.0118
3361.00,0.0118
3360.00,0.0118
3359.00,0.0118
3358.00,0.0118
3357.00,0.0118
3356.00,0.0118
3355.00,0.0118
3354.00,0.0117
3353.00,0.0116
3352.00,0.0115
3351.00,0.0114
3350.00,0.0115
3349.00,0.0116
3348.00,0.0117
3347.00,0.0117
3346.00,0.0116
3345.00,0.0116
3344.00,0.0116
3343.00,0.0115
3342.00,0.0115
3341.00,0.0114
3340.00,0.0113
3339.00,0.0113
3338.00,0.0113
3337.00,0.0114
3336.00,0.0115
3335.00,0.0116
3334.00,0.0116
3333.00,0.0116
3332.00,0.0116
3331.00,0.0116
3330.00,0.0116
3329.00,0.0115
3328.00,0.0114
3327.00,0.0113
3326.00,0.0113
3325.00,0.0113
3324.00,0.0113
3323.00,0.0114
3322.00,0.0114
3321.00,0.0115
3320.00,0.0115
3319.00,0.0115
3318.00,0.0115
3317.00,0.0115
3316.00,0.0115
3315.00,0.0114
3314.00,0.0114
3313.00,0.0113
3312.00,0.0112
3311.00,0.0110
3310.00,0.0108
3309.00,0.0107
3308.00,0.0106
3307.00,0.0105
3306.00,0.0106
3305.00,0.0107
3304.00,0.0109
3303.00,0.0110
3302.00,0.0112
3301.00,0.0112
3300.00,0.0112
3299.00,0.0111
3298.00,0.0110
3297.00,0.0109
3296.00,0.0108
3295.00,0.0108
3294.00,0.0108
3293.00,0.0108
3292.00,0.0108
3291.00,0.0109
3290.00,0.0110
3289.00,0.0111
3288.00,0.0111
3287.00,0.0111
3286.00,0.0111
3285.00,0.0111
3284.00,0.0110
3283.00,0.0110
3282.00,0.0110
3281.00,0.0110
3280.00,0.0110
3279.00,0.0109
3278.00,0.0108
3277.00,0.0107
3276.00,0.0107
3275.00,0.0106
3274.00,0.0106
3273.00,0.0105
3272.00,0.0104
3271.00,0.0104
3270.00,0.0104
3269.00,0.0105
3268.00,0.0105
3267.00,0.0106
3266.00,0.0106
3265.00,0.0106
3264.00,0.0105
3263.00,0.0105
3262.00,0.0105
3261.00,0.0104
3260.00,0.0104
3259.00,0.0104
3258.00,0.0103
3257.00,0.0103
3256.00,0.0103
3255.00,0.0103
3254.00,0.0103
3253.00,0.0103
3252.00,0.0103
3251.00,0.0102
3250.00,0.0102
3249.00,0.0101
3248.00,0.0101
3247.00,0.0101
3246.00,0.0101
3245.00,0.0101
3244.00,0.0102
3243.00,0.0102
3242.00,0.0102
3241.00,0.0101
3240.00,0.0101
3239.00,0.0101
3238.00,0.0100
3237.00,0.0100
3236.00,0.0100
3235.00,0.0099
3234.00,0.0099
3233.00,0.0099
3232.00,0.0099
3231.00,0.0099
3230.00,0.0099
3229.00,0.0099
3228.00,0.0099
3227.00,0.0099
3226.00,0.0098
3225.00,0.0098
3224.00,0.0098
3223.00,0.0098
3222.00,0.0098
3221.00,0.0097
3220.00,0.0097
3219.00,0.0097
3218.00,0.0096
3217.00,0.0096
3216.00,0.0096
3215.00,0.0096
3214.00,0.0096
3213.00,0.0096
3212.00,0.0095
3211.00,0.0095
3210.00,0.0095
3209.00,0.0094
3208.00,0.0094
3207.00,0.0093
3206.00,0.0093
3205.00,0.0093
3204.00,0.0092
3203.00,0.0092
3202.00,0.0092
3201.00,0.0092
3200.00,0.0091
3199.00,0.0091
3198.00,0.0091
3197.00,0.0091
3196.00,0.0090
3195.00,0.0090
3194.00,0.0090
3193.00,0.0090
3192.00,0.0089
3191.00,0.0089
3190.00,0.0089
3189.00,0.0089
3188.00,0.0089
3187.00,0.0088
3186.00,0.0088
3185.00,0.0088
3184.00,0.0088
3183.00,0.0088
3182.00,0.0088
3181.00,0.0087
3180.00,0.0087
3179.00,0.0087
3178.00,0.0088
3177.00,0.0088
3176.00,0.0088
3175.00,0.0088
3174.00,0.0087
3173.00,0.0087
3172.00,0.0087
3171.00,0.0087
3170.00,0.0086
3169.00,0.0086
3168.00,0.0086
3167.00,0.0086
3166.00,0.0086
3165.00,0.0085
3164.00,0.0085
3163.00,0.0085
3162.00,0.0085
3161.00,0.0084
3160.00,0.0084
3159.00,0.0084
3158.00,0.0083
3157.00,0.0083
3156.00,0.0082
3155.00,0.0082
3154.00,0.0081
3153.00,0.0081
3152.00,0.0081
3151.00,0.0081
3150.00,0.0081
3149.00,0.0081
3148.00,0.0081
3147.00,0.0081
3146.00,0.0081
3145.00,0.0081
3144.00,0.0080
3143.00,0.0080
3142.00,0.0080
3141.00,0.0079
3140.00,0.0079
3139.00,0.0079
3138.00,0.0078
3137.00,0.0078
3136.00,0.0078
3135.00,0.0078
3134.00,0.0078
3133.00,0.0078
3132.00,0.0078
3131.00,0.0078
3130.00,0.0078
3129.00,0.0078
3128.00,0.0078
3127.00,0.0078
3126.00,0.0078
3125.00,0.0077
3124.00,0.0077
3123.00,0.0077
3122.00,0.0077
3121.00,0.0077
3120.00,0.0076
3119.00,0.0076
3118.00,0.0076
3117.00,0.0076
3116.00,0.0076
3115.00,0.0076
3114.00,0.0076
3113.00,0.0076
3112.00,0.0075
3111.00,0.0075
3110.00,0.0075
3109.00,0.0074
3108.00,0.0074
3107.00,0.0073
3106.00,0.0073
3105.00,0.0073
3104.00,0.0073
3103.00,0.0073
3102.00,0.0073
3101.00,0.0073
3100.00,0.0073
3099.00,0.0073
3098.00,0.0073
3097.00,0.0073
3096.00,0.0072
3095.00,0.0072
3094.00,0.0072
3093.00,0.0072
3092.00,0.0071
3091.00,0.0071
3090.00,0.0072
3089.00,0.0072
3088.00,0.0072
3087.00,0.0072
3086.00,0.0072
3085.00,0.0072
3084.00,0.0072
3083.00,0.0072
3082.00,0.0072
3081.00,0.0072
3080.00,0.0072
3079.00,0.0072
3078.00,0.0072
3077.00,0.0071
3076.00,0.0071
3075.00,0.0071
3074.00,0.0071
3073.00,0.0071
3072.00,0.0071
3071.00,0.0071
3070.00,0.0071
3069.00,0.0070
3068.00,0.0070
3067.00,0.0070
3066.00,0.0070
3065.00,0.0070
3064.00,0.0069
3063.00,0.0069
3062.00,0.0069
3061.00,0.0069
3060.00,0.0068
3059.00,0.0068
3058.00,0.0068
3057.00,0.0068
3056.00,0.0068
3055.00,0.0068
3054.00,0.0068
3053.00,0.0068
3052.00,0.0067
3051.00,0.0067
3050.00,0.0067
3049.00,0.0066
3048.00,0.0066
3047.00,0.0066
3046.00,0.0067
3045.00,0.0066
3044.00,0.0066
3043.00,0.0066
3042.00,0.0066
3041.00,0.0066
3040.00,0.0066
3039.00,0.0066
3038.00,0.0066
3037.00,0.0066
3036.00,0.0066
3035.00,0.0066
3034.00,0.0066
3033.00,0.0066
3032.00,0.0066
3031.00,0.0066
3030.00,0.0066
3029.00,0.0066
3028.00,0.0066
3027.00,0.0066
3026.00,0.0066
3025.00,0.0066
3024.00,0.0066
3023.00,0.0066
3022.00,0.0066
3021.00,0.0066
3020.00,0.0066
3019.00,0.0066
3018.00,0.0066
3017.00,0.0067
3016.00,0.0067
3015.00,0.0068
3014.00,0.0068
3013.00,0.0069
3012.00,0.0070
3011.00,0.0072
3010.00,0.0073
3009.00,0.0075
3008.00,0.0077
3007.00,0.0078
3006.00,0.0080
3005.00,0.0082
3004.00,0.0084
3003.00,0.0087
3002.00,0.0089
3001.00,0.0092
3000.00,0.0095
2999.00,0.0098
2998.00,0.0102
2997.00,0.0105
2996.00,0.0109
2995.00,0.0113
2994.00,0.0117
2993.00,0.0122
2992.00,0.0126
2991.00,0.0131
2990.00,0.0136
2989.00,0.0141
2988.00,0.0145
2987.00,0.0149
2986.00,0.0154
2985.00,0.0158
2984.00,0.0161
2983.00,0.0165
2982.00,0.0168
2981.00,0.0171
2980.00,0.0174
2979.00,0.0176
2978.00,0.0179
2977.00,0.0181
2976.00,0.0183
2975.00,0.0185
2974.00,0.0187
2973.00,0.0188
2972.00,0.0190
2971.00,0.0192
2970.00,0.0194
2969.00,0.0197
2968.00,0.0200
2967.00,0.0203
2966.00,0.0206
2965.00,0.0209
2964.00,0.0212
2963.00,0.0215
2962.00,0.0219
2961.00,0.0222
2960.00,0.0225
2959.00,0.0228
2958.00,0.0231
2957.00,0.0233
2956.00,0.0235
2955.00,0.0237
2954.00,0.0238
2953.00,0.0239
2952.00,0.0239
2951.00,0.0238
2950.00,0.0237
2949.00,0.0236
2948.00,0.0235
2947.00,0.0234
2946.00,0.0233
2945.00,0.0233
2944.00,0.0232
2943.00,0.0231
2942.00,0.0231
2941.00,0.0232
2940.00,0.0232
2939.00,0.0233
2938.00,0.0235
2937.00,0.0237
2936.00,0.0239
2935.00,0.0241
2934.00,0.0243
2933.00,0.0245
2932.00,0.0247
2931.00,0.0248
2930.00,0.0250
2929.00,0.0252
2928.00,0.0254
2927.00,0.0255
2926.00,0.0256
2925.00,0.0256
2924.00,0.0256
2923.00,0.0255
2922.00,0.0253
2921.00,0.0251
2920.00,0.0248
2919.00,0.0245
2918.00,0.0241
2917.00,0.0237
2916.00,0.0233
2915.00,0.0228
2914.00,0.0224
2913.00,0.0220
2912.00,0.0216
2911.00,0.0212
2910.00,0.0208
2909.00,0.0205
2908.00,0.0201
2907.00,0.0197
2906.00,0.0194
2905.00,0.0192
2904.00,0.0189
2903.00,0.0188
2902.00,0.0186
2901.00,0.0185
2900.00,0.0184
2899.00,0.0184
2898.00,0.0183
2897.00,0.0183
2896.00,0.0183
2895.00,0.0183
2894.00,0.0183
2893.00,0.0183
2892.00,0.0183
2891.00,0.0182
2890.00,0.0182
2889.00,0.0182
2888.00,0.0182
2887.00,0.0181
2886.00,0.0181
2885.00,0.0181
2884.00,0.0182
2883.00,0.0182
2882.00,0.0182
2881.00,0.0182
2880.00,0.0182
2879.00,0.0183
2878.00,0.0183
2877.00,0.0184
2876.00,0.0184
2875.00,0.0184
2874.00,0.0185
2873.00,0.0186
2872.00,0.0186
2871.00,0.0187
2870.00,0.0187
2869.00,0.0186
2868.00,0.0185
2867.00,0.0184
2866.00,0.0184
2865.00,0.0183
2864.00,0.0183
2863.00,0.0183
2862.00,0.0182
2861.00,0.0182
2860.00,0.0182
2859.00,0.0182
2858.00,0.0181
2857.00,0.0179
2856.00,0.0177
2855.00,0.0174
2854.00,0.0170
2853.00,0.0165
2852.00,0.0160
2851.00,0.0155
2850.00,0.0149
2849.00,0.0144
2848.00,0.0139
2847.00,0.0134
2846.00,0.0131
2845.00,0.0127
2844.00,0.0123
2843.00,0.0119
2842.00,0.0115
2841.00,0.0111
2840.00,0.0107
2839.00,0.0103
2838.00,0.0101
2837.00,0.0099
2836.00,0.0097
2835.00,0.0095
2834.00,0.0093
2833.00,0.0091
2832.00,0.0090
2831.00,0.0088
2830.00,0.0086
2829.00,0.0084
2828.00,0.0083
2827.00,0.0081
2826.00,0.0079
2825.00,0.0078
2824.00,0.0076
2823.00,0.0075
2822.00,0.0073
2821.00,0.0072
2820.00,0.0071
2819.00,0.0069
2818.00,0.0068
2817.00,0.0067
2816.00,0.0066
2815.00,0.0064
2814.00,0.0063
2813.00,0.0062
2812.00,0.0061
2811.00,0.0060
2810.00,0.0059
2809.00,0.0059
2808.00,0.0058
2807.00,0.0057
2806.00,0.0056
2805.00,0.0055
2804.00,0.0055
2803.00,0.0054
2802.00,0.0053
2801.00,0.0053
2800.00,0.0052
2799.00,0.0051
2798.00,0.0051
2797.00,0.0050
2796.00,0.0050
2795.00,0.0049
2794.00,0.0049
2793.00,0.0048
2792.00,0.0048
2791.00,0.0047
2790.00,0.0046
2789.00,0.0046
2788.00,0.0046
2787.00,0.0046
2786.00,0.0045
2785.00,0.0045
2784.00,0.0045
2783.00,0.0045
2782.00,0.0044
2781.00,0.0044
2780.00,0.0044
2779.00,0.0043
2778.00,0.0043
2777.00,0.0042
2776.00,0.0042
2775.00,0.0042
2774.00,0.0041
2773.00,0.0041
2772.00,0.0041
2771.00,0.0040
2770.00,0.0040
2769.00,0.0040
2768.00,0.0040
2767.00,0.0040
2766.00,0.0040
2765.00,0.0040
2764.00,0.0040
2763.00,0.0039
2762.00,0.0039
2761.00,0.0039
2760.00,0.0039
2759.00,0.0039
2758.00,0.0039
2757.00,0.0039
