Created as New Dataset,Sample 634 By YargerLab Date Friday, June 06 2025
cm-1,A
4000.00,0.0035
3999.00,0.0035
3998.00,0.0035
3997.00,0.0035
3996.00,0.0035
3995.00,0.0035
3994.00,0.0035
3993.00,0.0035
3992.00,0.0035
3991.00,0.0035
3990.00,0.0035
3989.00,0.0035
3988.00,0.0035
3987.00,0.0035
3986.00,0.0035
3985.00,0.0035
3984.00,0.0035
3983.00,0.0035
3982.00,0.0035
3981.00,0.0035
3980.00,0.0035
3979.00,0.0035
3978.00,0.0035
3977.00,0.0035
3976.00,0.0035
3975.00,0.0035
3974.00,0.0035
3973.00,0.0035
3972.00,0.0035
3971.00,0.0035
3970.00,0.0035
3969.00,0.0034
3968.00,0.0034
3967.00,0.0034
3966.00,0.0035
3965.00,0.0035
3964.00,0.0035
3963.00,0.0035
3962.00,0.0034
3961.00,0.0035
3960.00,0.0035
3959.00,0.0035
3958.00,0.0035
3957.00,0.0035
3956.00,0.0035
3955.00,0.0035
3954.00,0.0035
3953.00,0.0035
3952.00,0.0035
3951.00,0.0035
3950.00,0.0035
3949.00,0.0035
3948.00,0.0035
3947.00,0.0035
3946.00,0.0035
3945.00,0.0035
3944.00,0.0035
3943.00,0.0035
3942.00,0.0035
3941.00,0.0035
3940.00,0.0035
3939.00,0.0035
3938.00,0.0035
3937.00,0.0035
3936.00,0.0035
3935.00,0.0035
3934.00,0.0034
3933.00,0.0034
3932.00,0.0034
3931.00,0.0034
3930.00,0.0034
3929.00,0.0035
3928.00,0.0035
3927.00,0.0035
3926.00,0.0035
3925.00,0.0035
3924.00,0.0035
3923.00,0.0036
3922.00,0.0036
3921.00,0.0036
3920.00,0.0036
3919.00,0.0036
3918.00,0.0036
3917.00,0.0036
3916.00,0.0035
3915.00,0.0035
3914.00,0.0035
3913.00,0.0035
3912.00,0.0035
3911.00,0.0035
3910.00,0.0035
3909.00,0.0035
3908.00,0.0035
3907.00,0.0035
3906.00,0.0035
3905.00,0.0035
3904.00,0.0035
3903.00,0.0035
3902.00,0.0035
3901.00,0.0035
3900.00,0.0034
3899.00,0.0034
3898.00,0.0034
3897.00,0.0034
3896.00,0.0034
3895.00,0.0034
3894.00,0.0035
3893.00,0.0035
3892.00,0.0035
3891.00,0.0035
3890.00,0.0035
3889.00,0.0035
3888.00,0.0035
3887.00,0.0035
3886.00,0.0035
3885.00,0.0035
3884.00,0.0035
3883.00,0.0034
3882.00,0.0034
3881.00,0.0034
3880.00,0.0034
3879.00,0.0035
3878.00,0.0035
3877.00,0.0035
3876.00,0.0034
3875.00,0.0035
3874.00,0.0035
3873.00,0.0035
3872.00,0.0034
3871.00,0.0034
3870.00,0.0034
3869.00,0.0034
3868.00,0.0034
3867.00,0.0034
3866.00,0.0034
3865.00,0.0034
3864.00,0.0034
3863.00,0.0034
3862.00,0.0035
3861.00,0.0035
3860.00,0.0035
3859.00,0.0035
3858.00,0.0035
3857.00,0.0035
3856.00,0.0034
3855.00,0.0034
3854.00,0.0034
3853.00,0.0034
3852.00,0.0034
3851.00,0.0034
3850.00,0.0034
3849.00,0.0034
3848.00,0.0034
3847.00,0.0034
3846.00,0.0034
3845.00,0.0034
3844.00,0.0034
3843.00,0.0034
3842.00,0.0034
3841.00,0.0034
3840.00,0.0034
3839.00,0.0034
3838.00,0.0034
3837.00,0.0034
3836.00,0.0034
3835.00,0.0034
3834.00,0.0034
3833.00,0.0034
3832.00,0.0034
3831.00,0.0035
3830.00,0.0035
3829.00,0.0035
3828.00,0.0035
3827.00,0.0034
3826.00,0.0035
3825.00,0.0035
3824.00,0.0034
3823.00,0.0034
3822.00,0.0034
3821.00,0.0034
3820.00,0.0034
3819.00,0.0034
3818.00,0.0034
3817.00,0.0034
3816.00,0.0034
3815.00,0.0035
3814.00,0.0035
3813.00,0.0035
3812.00,0.0035
3811.00,0.0035
3810.00,0.0035
3809.00,0.0035
3808.00,0.0035
3807.00,0.0035
3806.00,0.0035
3805.00,0.0035
3804.00,0.0034
3803.00,0.0034
3802.00,0.0034
3801.00,0.0034
3800.00,0.0034
3799.00,0.0035
3798.00,0.0035
3797.00,0.0035
3796.00,0.0035
3795.00,0.0035
3794.00,0.0035
3793.00,0.0035
3792.00,0.0035
3791.00,0.0035
3790.00,0.0035
3789.00,0.0035
3788.00,0.0035
3787.00,0.0035
3786.00,0.0035
3785.00,0.0035
3784.00,0.0035
3783.00,0.0035
3782.00,0.0035
3781.00,0.0035
3780.00,0.0035
3779.00,0.0035
3778.00,0.0035
3777.00,0.0035
3776.00,0.0035
3775.00,0.0035
3774.00,0.0035
3773.00,0.0035
3772.00,0.0035
3771.00,0.0035
3770.00,0.0035
3769.00,0.0035
3768.00,0.0035
3767.00,0.0035
3766.00,0.0035
3765.00,0.0035
3764.00,0.0035
3763.00,0.0035
3762.00,0.0035
3761.00,0.0035
3760.00,0.0035
3759.00,0.0035
3758.00,0.0035
3757.00,0.0035
3756.00,0.0035
3755.00,0.0035
3754.00,0.0035
3753.00,0.0035
3752.00,0.0035
3751.00,0.0035
3750.00,0.0035
3749.00,0.0035
3748.00,0.0035
3747.00,0.0034
3746.00,0.0034
3745.00,0.0034
3744.00,0.0035
3743.00,0.0035
3742.00,0.0035
3741.00,0.0034
3740.00,0.0034
3739.00,0.0034
3738.00,0.0034
3737.00,0.0034
3736.00,0.0034
3735.00,0.0034
3734.00,0.0034
3733.00,0.0034
3732.00,0.0034
3731.00,0.0034
3730.00,0.0035
3729.00,0.0035
3728.00,0.0035
3727.00,0.0035
3726.00,0.0035
3725.00,0.0034
3724.00,0.0034
3723.00,0.0034
3722.00,0.0034
3721.00,0.0034
3720.00,0.0034
3719.00,0.0034
3718.00,0.0034
3717.00,0.0034
3716.00,0.0034
3715.00,0.0035
3714.00,0.0035
3713.00,0.0034
3712.00,0.0034
3711.00,0.0034
3710.00,0.0034
3709.00,0.0034
3708.00,0.0034
3707.00,0.0033
3706.00,0.0033
3705.00,0.0033
3704.00,0.0033
3703.00,0.0033
3702.00,0.0033
3701.00,0.0033
3700.00,0.0033
3699.00,0.0033
3698.00,0.0033
3697.00,0.0033
3696.00,0.0033
3695.00,0.0033
3694.00,0.0033
3693.00,0.0033
3692.00,0.0033
3691.00,0.0033
3690.00,0.0033
3689.00,0.0033
3688.00,0.0033
3687.00,0.0033
3686.00,0.0033
3685.00,0.0033
3684.00,0.0033
3683.00,0.0033
3682.00,0.0034
3681.00,0.0033
3680.00,0.0033
3679.00,0.0033
3678.00,0.0033
3677.00,0.0033
3676.00,0.0033
3675.00,0.0033
3674.00,0.0033
3673.00,0.0033
3672.00,0.0032
3671.00,0.0032
3670.00,0.0032
3669.00,0.0032
3668.00,0.0032
3667.00,0.0032
3666.00,0.0032
3665.00,0.0032
3664.00,0.0032
3663.00,0.0033
3662.00,0.0033
3661.00,0.0033
3660.00,0.0033
3659.00,0.0033
3658.00,0.0033
3657.00,0.0033
3656.00,0.0033
3655.00,0.0034
3654.00,0.0034
3653.00,0.0033
3652.00,0.0033
3651.00,0.0033
3650.00,0.0033
3649.00,0.0033
3648.00,0.0033
3647.00,0.0033
3646.00,0.0033
3645.00,0.0033
3644.00,0.0033
3643.00,0.0033
3642.00,0.0033
3641.00,0.0033
3640.00,0.0033
3639.00,0.0033
3638.00,0.0033
3637.00,0.0033
3636.00,0.0033
3635.00,0.0033
3634.00,0.0033
3633.00,0.0034
3632.00,0.0034
3631.00,0.0033
3630.00,0.0033
3629.00,0.0033
3628.00,0.0033
3627.00,0.0033
3626.00,0.0033
3625.00,0.0033
3624.00,0.0034
3623.00,0.0034
3622.00,0.0034
3621.00,0.0033
3620.00,0.0033
3619.00,0.0032
3618.00,0.0032
3617.00,0.0032
3616.00,0.0032
3615.00,0.0032
3614.00,0.0032
3613.00,0.0033
3612.00,0.0033
3611.00,0.0033
3610.00,0.0033
3609.00,0.0033
3608.00,0.0033
3607.00,0.0033
3606.00,0.0034
3605.00,0.0034
3604.00,0.0034
3603.00,0.0034
3602.00,0.0034
3601.00,0.0034
3600.00,0.0034
3599.00,0.0034
3598.00,0.0034
3597.00,0.0034
3596.00,0.0034
3595.00,0.0034
3594.00,0.0034
3593.00,0.0034
3592.00,0.0034
3591.00,0.0034
3590.00,0.0035
3589.00,0.0035
3588.00,0.0035
3587.00,0.0035
3586.00,0.0035
3585.00,0.0034
3584.00,0.0034
3583.00,0.0034
3582.00,0.0034
3581.00,0.0034
3580.00,0.0034
3579.00,0.0035
3578.00,0.0035
3577.00,0.0035
3576.00,0.0035
3575.00,0.0035
3574.00,0.0035
3573.00,0.0035
3572.00,0.0035
3571.00,0.0035
3570.00,0.0035
3569.00,0.0035
3568.00,0.0035
3567.00,0.0035
3566.00,0.0035
3565.00,0.0034
3564.00,0.0034
3563.00,0.0035
3562.00,0.0035
3561.00,0.0035
3560.00,0.0035
3559.00,0.0036
3558.00,0.0036
3557.00,0.0036
3556.00,0.0036
3555.00,0.0036
3554.00,0.0036
3553.00,0.0037
3552.00,0.0037
3551.00,0.0037
3550.00,0.0037
3549.00,0.0036
3548.00,0.0036
3547.00,0.0036
3546.00,0.0036
3545.00,0.0037
3544.00,0.0037
3543.00,0.0037
3542.00,0.0037
3541.00,0.0037
3540.00,0.0037
3539.00,0.0037
3538.00,0.0037
3537.00,0.0037
3536.00,0.0037
3535.00,0.0037
3534.00,0.0037
3533.00,0.0037
3532.00,0.0037
3531.00,0.0037
3530.00,0.0037
3529.00,0.0037
3528.00,0.0037
3527.00,0.0037
3526.00,0.0037
3525.00,0.0037
3524.00,0.0037
3523.00,0.0037
3522.00,0.0037
3521.00,0.0037
3520.00,0.0037
3519.00,0.0037
3518.00,0.0037
3517.00,0.0037
3516.00,0.0037
3515.00,0.0037
3514.00,0.0037
3513.00,0.0036
3512.00,0.0036
3511.00,0.0036
3510.00,0.0036
3509.00,0.0036
3508.00,0.0037
3507.00,0.0037
3506.00,0.0037
3505.00,0.0037
3504.00,0.0037
3503.00,0.0036
3502.00,0.0037
3501.00,0.0037
3500.00,0.0037
3499.00,0.0037
3498.00,0.0037
3497.00,0.0037
3496.00,0.0037
3495.00,0.0037
3494.00,0.0037
3493.00,0.0037
3492.00,0.0037
3491.00,0.0037
3490.00,0.0037
3489.00,0.0037
3488.00,0.0037
3487.00,0.0037
3486.00,0.0037
3485.00,0.0037
3484.00,0.0037
3483.00,0.0037
3482.00,0.0037
3481.00,0.0037
3480.00,0.0037
3479.00,0.0037
3478.00,0.0037
3477.00,0.0037
3476.00,0.0036
3475.00,0.0036
3474.00,0.0036
3473.00,0.0036
3472.00,0.0036
3471.00,0.0037
3470.00,0.0037
3469.00,0.0037
3468.00,0.0037
3467.00,0.0036
3466.00,0.0036
3465.00,0.0036
3464.00,0.0036
3463.00,0.0036
3462.00,0.0036
3461.00,0.0036
3460.00,0.0036
3459.00,0.0036
3458.00,0.0037
3457.00,0.0037
3456.00,0.0037
3455.00,0.0037
3454.00,0.0037
3453.00,0.0037
3452.00,0.0037
3451.00,0.0037
3450.00,0.0037
3449.00,0.0037
3448.00,0.0037
3447.00,0.0037
3446.00,0.0038
3445.00,0.0038
3444.00,0.0038
3443.00,0.0039
3442.00,0.0039
3441.00,0.0039
3440.00,0.0039
3439.00,0.0040
3438.00,0.0040
3437.00,0.0040
3436.00,0.0041
3435.00,0.0041
3434.00,0.0041
3433.00,0.0042
3432.00,0.0042
3431.00,0.0043
3430.00,0.0043
3429.00,0.0044
3428.00,0.0044
3427.00,0.0044
3426.00,0.0044
3425.00,0.0045
3424.00,0.0045
3423.00,0.0046
3422.00,0.0046
3421.00,0.0047
3420.00,0.0047
3419.00,0.0047
3418.00,0.0047
3417.00,0.0047
3416.00,0.0047
3415.00,0.0047
3414.00,0.0047
3413.00,0.0047
3412.00,0.0048
3411.00,0.0048
3410.00,0.0048
3409.00,0.0048
3408.00,0.0049
3407.00,0.0049
3406.00,0.0049
3405.00,0.0049
3404.00,0.0050
3403.00,0.0050
3402.00,0.0050
3401.00,0.0050
3400.00,0.0050
3399.00,0.0050
3398.00,0.0050
3397.00,0.0051
3396.00,0.0051
3395.00,0.0052
3394.00,0.0053
3393.00,0.0053
3392.00,0.0054
3391.00,0.0054
3390.00,0.0055
3389.00,0.0056
3388.00,0.0057
3387.00,0.0058
3386.00,0.0059
3385.00,0.0060
3384.00,0.0061
3383.00,0.0062
3382.00,0.0063
3381.00,0.0065
3380.00,0.0066
3379.00,0.0068
3378.00,0.0069
3377.00,0.0071
3376.00,0.0072
3375.00,0.0074
3374.00,0.0076
3373.00,0.0078
3372.00,0.0079
3371.00,0.0081
3370.00,0.0082
3369.00,0.0084
3368.00,0.0085
3367.00,0.0087
3366.00,0.0088
3365.00,0.0090
3364.00,0.0092
3363.00,0.0094
3362.00,0.0095
3361.00,0.0097
3360.00,0.0098
3359.00,0.0100
3358.00,0.0101
3357.00,0.0103
3356.00,0.0104
3355.00,0.0106
3354.00,0.0107
3353.00,0.0109
3352.00,0.0111
3351.00,0.0112
3350.00,0.0114
3349.00,0.0116
3348.00,0.0117
3347.00,0.0118
3346.00,0.0119
3345.00,0.0120
3344.00,0.0121
3343.00,0.0122
3342.00,0.0123
3341.00,0.0124
3340.00,0.0124
3339.00,0.0125
3338.00,0.0126
3337.00,0.0126
3336.00,0.0126
3335.00,0.0126
3334.00,0.0125
3333.00,0.0125
3332.00,0.0125
3331.00,0.0125
3330.00,0.0125
3329.00,0.0125
3328.00,0.0124
3327.00,0.0124
3326.00,0.0123
3325.00,0.0122
3324.00,0.0122
3323.00,0.0121
3322.00,0.0120
3321.00,0.0119
3320.00,0.0119
3319.00,0.0118
3318.00,0.0117
3317.00,0.0116
3316.00,0.0115
3315.00,0.0114
3314.00,0.0112
3313.00,0.0111
3312.00,0.0110
3311.00,0.0109
3310.00,0.0108
3309.00,0.0106
3308.00,0.0105
3307.00,0.0103
3306.00,0.0102
3305.00,0.0101
3304.00,0.0099
3303.00,0.0098
3302.00,0.0097
3301.00,0.0095
3300.00,0.0094
3299.00,0.0093
3298.00,0.0092
3297.00,0.0090
3296.00,0.0089
3295.00,0.0088
3294.00,0.0086
3293.00,0.0085
3292.00,0.0084
3291.00,0.0083
3290.00,0.0082
3289.00,0.0081
3288.00,0.0080
3287.00,0.0079
3286.00,0.0078
3285.00,0.0077
3284.00,0.0076
3283.00,0.0075
3282.00,0.0074
3281.00,0.0073
3280.00,0.0072
3279.00,0.0071
3278.00,0.0071
3277.00,0.0070
3276.00,0.0069
3275.00,0.0069
3274.00,0.0068
3273.00,0.0067
3272.00,0.0067
3271.00,0.0066
3270.00,0.0066
3269.00,0.0066
3268.00,0.0065
3267.00,0.0065
3266.00,0.0065
3265.00,0.0064
3264.00,0.0064
3263.00,0.0064
3262.00,0.0063
3261.00,0.0063
3260.00,0.0063
3259.00,0.0063
3258.00,0.0062
3257.00,0.0062
3256.00,0.0063
3255.00,0.0063
3254.00,0.0063
3253.00,0.0063
3252.00,0.0063
3251.00,0.0063
3250.00,0.0063
3249.00,0.0063
3248.00,0.0063
3247.00,0.0062
3246.00,0.0062
3245.00,0.0062
3244.00,0.0062
3243.00,0.0062
3242.00,0.0061
3241.00,0.0061
3240.00,0.0061
3239.00,0.0061
3238.00,0.0061
3237.00,0.0060
3236.00,0.0060
3235.00,0.0060
3234.00,0.0059
3233.00,0.0059
3232.00,0.0059
3231.00,0.0059
3230.00,0.0059
3229.00,0.0058
3228.00,0.0058
3227.00,0.0058
3226.00,0.0057
3225.00,0.0057
3224.00,0.0056
3223.00,0.0056
3222.00,0.0055
3221.00,0.0055
3220.00,0.0054
3219.00,0.0054
3218.00,0.0053
3217.00,0.0052
3216.00,0.0052
3215.00,0.0051
3214.00,0.0051
3213.00,0.0051
3212.00,0.0050
3211.00,0.0050
3210.00,0.0050
3209.00,0.0049
3208.00,0.0049
3207.00,0.0049
3206.00,0.0048
3205.00,0.0048
3204.00,0.0047
3203.00,0.0047
3202.00,0.0047
3201.00,0.0047
3200.00,0.0047
3199.00,0.0047
3198.00,0.0047
3197.00,0.0046
3196.00,0.0046
3195.00,0.0046
3194.00,0.0046
3193.00,0.0045
3192.00,0.0045
3191.00,0.0045
3190.00,0.0044
3189.00,0.0044
3188.00,0.0044
3187.00,0.0044
3186.00,0.0044
3185.00,0.0044
3184.00,0.0044
3183.00,0.0044
3182.00,0.0044
3181.00,0.0044
3180.00,0.0044
3179.00,0.0043
3178.00,0.0043
3177.00,0.0043
3176.00,0.0043
3175.00,0.0043
3174.00,0.0043
3173.00,0.0043
3172.00,0.0043
3171.00,0.0043
3170.00,0.0043
3169.00,0.0042
3168.00,0.0042
3167.00,0.0043
3166.00,0.0043
3165.00,0.0042
3164.00,0.0042
3163.00,0.0042
3162.00,0.0042
3161.00,0.0041
3160.00,0.0041
3159.00,0.0042
3158.00,0.0042
3157.00,0.0042
3156.00,0.0042
3155.00,0.0042
3154.00,0.0042
3153.00,0.0042
3152.00,0.0042
3151.00,0.0042
3150.00,0.0042
3149.00,0.0042
3148.00,0.0042
3147.00,0.0042
3146.00,0.0042
3145.00,0.0042
3144.00,0.0042
3143.00,0.0042
3142.00,0.0042
3141.00,0.0042
3140.00,0.0042
3139.00,0.0043
3138.00,0.0043
3137.00,0.0043
3136.00,0.0043
3135.00,0.0043
3134.00,0.0043
3133.00,0.0043
3132.00,0.0043
3131.00,0.0044
3130.00,0.0044
3129.00,0.0044
3128.00,0.0044
3127.00,0.0045
3126.00,0.0045
3125.00,0.0046
3124.00,0.0046
3123.00,0.0046
3122.00,0.0047
3121.00,0.0047
3120.00,0.0047
3119.00,0.0047
3118.00,0.0047
3117.00,0.0048
3116.00,0.0048
3115.00,0.0049
3114.00,0.0049
3113.00,0.0050
3112.00,0.0050
3111.00,0.0051
3110.00,0.0051
3109.00,0.0052
3108.00,0.0052
3107.00,0.0052
3106.00,0.0052
3105.00,0.0052
3104.00,0.0052
3103.00,0.0052
3102.00,0.0053
3101.00,0.0053
3100.00,0.0053
3099.00,0.0053
3098.00,0.0052
3097.00,0.0052
3096.00,0.0052
3095.00,0.0051
3094.00,0.0051
3093.00,0.0051
3092.00,0.0051
3091.00,0.0051
3090.00,0.0051
3089.00,0.0050
3088.00,0.0050
3087.00,0.0050
3086.00,0.0049
3085.00,0.0049
3084.00,0.0049
3083.00,0.0048
3082.00,0.0048
3081.00,0.0048
3080.00,0.0048
3079.00,0.0048
3078.00,0.0047
3077.00,0.0047
3076.00,0.0047
3075.00,0.0047
3074.00,0.0046
3073.00,0.0046
3072.00,0.0046
3071.00,0.0047
3070.00,0.0047
3069.00,0.0047
3068.00,0.0047
3067.00,0.0046
3066.00,0.0046
3065.00,0.0046
3064.00,0.0046
3063.00,0.0046
3062.00,0.0046
3061.00,0.0046
3060.00,0.0046
3059.00,0.0045
3058.00,0.0045
3057.00,0.0045
3056.00,0.0045
3055.00,0.0045
3054.00,0.0044
3053.00,0.0044
3052.00,0.0044
3051.00,0.0043
3050.00,0.0043
3049.00,0.0043
3048.00,0.0042
3047.00,0.0042
3046.00,0.0042
3045.00,0.0042
3044.00,0.0042
3043.00,0.0042
3042.00,0.0042
3041.00,0.0042
3040.00,0.0042
3039.00,0.0042
3038.00,0.0042
3037.00,0.0042
3036.00,0.0042
3035.00,0.0042
3034.00,0.0042
3033.00,0.0043
3032.00,0.0043
3031.00,0.0043
3030.00,0.0044
3029.00,0.0044
3028.00,0.0044
3027.00,0.0044
3026.00,0.0044
3025.00,0.0045
3024.00,0.0045
3023.00,0.0045
3022.00,0.0046
3021.00,0.0046
3020.00,0.0046
3019.00,0.0047
3018.00,0.0047
3017.00,0.0047
3016.00,0.0048
3015.00,0.0048
3014.00,0.0048
3013.00,0.0049
3012.00,0.0049
3011.00,0.0049
3010.00,0.0050
3009.00,0.0050
3008.00,0.0051
3007.00,0.0051
3006.00,0.0052
3005.00,0.0053
3004.00,0.0054
3003.00,0.0055
3002.00,0.0056
3001.00,0.0057
3000.00,0.0058
2999.00,0.0059
2998.00,0.0060
2997.00,0.0061
2996.00,0.0063
2995.00,0.0064
2994.00,0.0065
2993.00,0.0067
2992.00,0.0068
2991.00,0.0069
2990.00,0.0070
2989.00,0.0071
2988.00,0.0071
2987.00,0.0072
2986.00,0.0072
2985.00,0.0072
2984.00,0.0072
2983.00,0.0071
2982.00,0.0071
2981.00,0.0071
2980.00,0.0071
2979.00,0.0071
2978.00,0.0071
2977.00,0.0071
2976.00,0.0070
2975.00,0.0069
2974.00,0.0068
2973.00,0.0066
2972.00,0.0064
2971.00,0.0063
2970.00,0.0062
2969.00,0.0061
2968.00,0.0060
2967.00,0.0060
2966.00,0.0060
2965.00,0.0059
2964.00,0.0060
2963.00,0.0060
2962.00,0.0060
2961.00,0.0061
2960.00,0.0061
2959.00,0.0062
2958.00,0.0063
2957.00,0.0065
2956.00,0.0066
2955.00,0.0067
2954.00,0.0069
2953.00,0.0070
2952.00,0.0072
2951.00,0.0073
2950.00,0.0074
2949.00,0.0075
2948.00,0.0076
2947.00,0.0076
2946.00,0.0076
2945.00,0.0075
2944.00,0.0074
2943.00,0.0073
2942.00,0.0072
2941.00,0.0071
2940.00,0.0070
2939.00,0.0068
2938.00,0.0067
2937.00,0.0066
2936.00,0.0065
2935.00,0.0065
2934.00,0.0064
2933.00,0.0064
2932.00,0.0063
2931.00,0.0062
2930.00,0.0062
2929.00,0.0061
2928.00,0.0061
2927.00,0.0060
2926.00,0.0059
2925.00,0.0058
2924.00,0.0057
2923.00,0.0056
2922.00,0.0055
2921.00,0.0055
2920.00,0.0054
2919.00,0.0053
2918.00,0.0053
2917.00,0.0053
2916.00,0.0053
2915.00,0.0053
2914.00,0.0052
2913.00,0.0052
2912.00,0.0052
2911.00,0.0052
2910.00,0.0053
2909.00,0.0053
2908.00,0.0053
2907.00,0.0053
2906.00,0.0054
2905.00,0.0054
2904.00,0.0054
2903.00,0.0054
2902.00,0.0054
2901.00,0.0054
2900.00,0.0054
2899.00,0.0054
2898.00,0.0053
2897.00,0.0053
2896.00,0.0052
2895.00,0.0051
2894.00,0.0050
2893.00,0.0049
2892.00,0.0049
2891.00,0.0048
2890.00,0.0048
2889.00,0.0047
2888.00,0.0047
2887.00,0.0046
2886.00,0.0046
2885.00,0.0046
2884.00,0.0045
2883.00,0.0045
2882.00,0.0045
2881.00,0.0045
2880.00,0.0045
2879.00,0.0045
2878.00,0.0045
2877.00,0.0045
2876.00,0.0045
2875.00,0.0045
2874.00,0.0045
2873.00,0.0045
2872.00,0.0045
2871.00,0.0045
2870.00,0.0045
2869.00,0.0044
2868.00,0.0044
2867.00,0.0044
2866.00,0.0044
2865.00,0.0044
2864.00,0.0044
2863.00,0.0044
2862.00,0.0044
2861.00,0.0043
2860.00,0.0043
2859.00,0.0042
2858.00,0.0042
2857.00,0.0042
2856.00,0.0042
2855.00,0.0043
2854.00,0.0043
2853.00,0.0043
2852.00,0.0043
2851.00,0.0043
2850.00,0.0044
2849.00,0.0044
2848.00,0.0044
2847.00,0.0044
2846.00,0.0045
2845.00,0.0045
2844.00,0.0045
2843.00,0.0045
2842.00,0.0046
2841.00,0.0046
2840.00,0.0046
2839.00,0.0046
2838.00,0.0046
2837.00,0.0045
2836.00,0.0045
2835.00,0.0045
2834.00,0.0044
2833.00,0.0044
2832.00,0.0043
2831.00,0.0043
2830.00,0.0043
2829.00,0.0043
2828.00,0.0043
2827.00,0.0043
2826.00,0.0043
2825.00,0.0042
2824.00,0.0042
2823.00,0.0042
2822.00,0.0042
2821.00,0.0042
2820.00,0.0042
2819.00,0.0042
2818.00,0.0042
2817.00,0.0042
2816.00,0.0042
2815.00,0.0042
2814.00,0.0042
2813.00,0.0042
2812.00,0.0043
2811.00,0.0043
2810.00,0.0042
2809.00,0.0042
2808.00,0.0042
2807.00,0.0042
2806.00,0.0042
2805.00,0.0042
2804.00,0.0042
2803.00,0.0042
2802.00,0.0042
2801.00,0.0042
2800.00,0.0042
2799.00,0.0042
2798.00,0.0042
2797.00,0.0041
2796.00,0.0041
2795.00,0.0041
2794.00,0.0041
2793.00,0.0040
2792.00,0.0040
2791.00,0.0040
2790.00,0.0040
2789.00,0.0040
2788.00,0.0040
2787.00,0.0040
2786.00,0.0040
2785.00,0.0040
2784.00,0.0039
2783.00,0.0039
2782.00,0.0039
2781.00,0.0039
2780.00,0.0039
2779.00,0.0038
2778.00,0.0038
2777.00,0.0039
2776.00,0.0039
2775.00,0.0039
2774.00,0.0038
2773.00,0.0038
2772.00,0.0038
2771.00,0.0038
2770.00,0.0038
2769.00,0.0038
2768.00,0.0038
2767.00,0.0038
2766.00,0.0038
2765.00,0.0038
2764.00,0.0038
2763.00,0.0038
2762.00,0.0038
2761.00,0.0038
2760.00,0.0038
2759.00,0.0038
2758.00,0.0038
2757.00,0.0037
