Created as New Dataset,Sample 945 By YargerLab Date Monday, July 28 2025
cm-1,A
4000.00,0.0046
3999.00,0.0046
3998.00,0.0047
3997.00,0.0047
3996.00,0.0047
3995.00,0.0047
3994.00,0.0047
3993.00,0.0047
3992.00,0.0047
3991.00,0.0047
3990.00,0.0047
3989.00,0.0047
3988.00,0.0047
3987.00,0.0047
3986.00,0.0047
3985.00,0.0047
3984.00,0.0047
3983.00,0.0047
3982.00,0.0047
3981.00,0.0047
3980.00,0.0047
3979.00,0.0047
3978.00,0.0047
3977.00,0.0047
3976.00,0.0047
3975.00,0.0047
3974.00,0.0047
3973.00,0.0047
3972.00,0.0047
3971.00,0.0047
3970.00,0.0047
3969.00,0.0047
3968.00,0.0047
3967.00,0.0047
3966.00,0.0047
3965.00,0.0047
3964.00,0.0047
3963.00,0.0047
3962.00,0.0047
3961.00,0.0047
3960.00,0.0047
3959.00,0.0047
3958.00,0.0046
3957.00,0.0046
3956.00,0.0047
3955.00,0.0047
3954.00,0.0047
3953.00,0.0047
3952.00,0.0047
3951.00,0.0047
3950.00,0.0046
3949.00,0.0047
3948.00,0.0047
3947.00,0.0047
3946.00,0.0047
3945.00,0.0047
3944.00,0.0047
3943.00,0.0047
3942.00,0.0047
3941.00,0.0047
3940.00,0.0047
3939.00,0.0047
3938.00,0.0047
3937.00,0.0046
3936.00,0.0046
3935.00,0.0046
3934.00,0.0046
3933.00,0.0046
3932.00,0.0046
3931.00,0.0046
3930.00,0.0046
3929.00,0.0046
3928.00,0.0046
3927.00,0.0046
3926.00,0.0046
3925.00,0.0045
3924.00,0.0045
3923.00,0.0045
3922.00,0.0046
3921.00,0.0046
3920.00,0.0046
3919.00,0.0047
3918.00,0.0047
3917.00,0.0047
3916.00,0.0047
3915.00,0.0047
3914.00,0.0047
3913.00,0.0047
3912.00,0.0047
3911.00,0.0047
3910.00,0.0047
3909.00,0.0046
3908.00,0.0046
3907.00,0.0046
3906.00,0.0046
3905.00,0.0046
3904.00,0.0046
3903.00,0.0046
3902.00,0.0046
3901.00,0.0045
3900.00,0.0045
3899.00,0.0045
3898.00,0.0046
3897.00,0.0046
3896.00,0.0046
3895.00,0.0046
3894.00,0.0046
3893.00,0.0046
3892.00,0.0046
3891.00,0.0046
3890.00,0.0046
3889.00,0.0046
3888.00,0.0046
3887.00,0.0046
3886.00,0.0045
3885.00,0.0045
3884.00,0.0045
3883.00,0.0045
3882.00,0.0045
3881.00,0.0046
3880.00,0.0046
3879.00,0.0046
3878.00,0.0046
3877.00,0.0046
3876.00,0.0046
3875.00,0.0046
3874.00,0.0046
3873.00,0.0046
3872.00,0.0046
3871.00,0.0046
3870.00,0.0046
3869.00,0.0046
3868.00,0.0045
3867.00,0.0045
3866.00,0.0045
3865.00,0.0045
3864.00,0.0045
3863.00,0.0046
3862.00,0.0046
3861.00,0.0046
3860.00,0.0046
3859.00,0.0046
3858.00,0.0046
3857.00,0.0046
3856.00,0.0046
3855.00,0.0045
3854.00,0.0045
3853.00,0.0045
3852.00,0.0045
3851.00,0.0045
3850.00,0.0045
3849.00,0.0045
3848.00,0.0045
3847.00,0.0045
3846.00,0.0045
3845.00,0.0045
3844.00,0.0045
3843.00,0.0045
3842.00,0.0046
3841.00,0.0046
3840.00,0.0046
3839.00,0.0046
3838.00,0.0046
3837.00,0.0046
3836.00,0.0045
3835.00,0.0045
3834.00,0.0045
3833.00,0.0045
3832.00,0.0045
3831.00,0.0046
3830.00,0.0046
3829.00,0.0046
3828.00,0.0046
3827.00,0.0046
3826.00,0.0046
3825.00,0.0046
3824.00,0.0046
3823.00,0.0045
3822.00,0.0045
3821.00,0.0045
3820.00,0.0045
3819.00,0.0045
3818.00,0.0045
3817.00,0.0045
3816.00,0.0045
3815.00,0.0045
3814.00,0.0045
3813.00,0.0046
3812.00,0.0046
3811.00,0.0046
3810.00,0.0046
3809.00,0.0046
3808.00,0.0046
3807.00,0.0046
3806.00,0.0046
3805.00,0.0045
3804.00,0.0045
3803.00,0.0045
3802.00,0.0045
3801.00,0.0045
3800.00,0.0045
3799.00,0.0045
3798.00,0.0045
3797.00,0.0045
3796.00,0.0046
3795.00,0.0046
3794.00,0.0046
3793.00,0.0047
3792.00,0.0047
3791.00,0.0047
3790.00,0.0047
3789.00,0.0047
3788.00,0.0046
3787.00,0.0046
3786.00,0.0046
3785.00,0.0046
3784.00,0.0046
3783.00,0.0046
3782.00,0.0046
3781.00,0.0047
3780.00,0.0047
3779.00,0.0046
3778.00,0.0046
3777.00,0.0046
3776.00,0.0046
3775.00,0.0046
3774.00,0.0046
3773.00,0.0046
3772.00,0.0047
3771.00,0.0047
3770.00,0.0047
3769.00,0.0047
3768.00,0.0047
3767.00,0.0047
3766.00,0.0047
3765.00,0.0047
3764.00,0.0047
3763.00,0.0047
3762.00,0.0047
3761.00,0.0047
3760.00,0.0047
3759.00,0.0047
3758.00,0.0047
3757.00,0.0047
3756.00,0.0047
3755.00,0.0047
3754.00,0.0047
3753.00,0.0047
3752.00,0.0047
3751.00,0.0047
3750.00,0.0047
3749.00,0.0046
3748.00,0.0046
3747.00,0.0046
3746.00,0.0045
3745.00,0.0045
3744.00,0.0045
3743.00,0.0045
3742.00,0.0045
3741.00,0.0045
3740.00,0.0045
3739.00,0.0046
3738.00,0.0046
3737.00,0.0046
3736.00,0.0046
3735.00,0.0045
3734.00,0.0045
3733.00,0.0045
3732.00,0.0045
3731.00,0.0044
3730.00,0.0044
3729.00,0.0044
3728.00,0.0044
3727.00,0.0045
3726.00,0.0045
3725.00,0.0045
3724.00,0.0045
3723.00,0.0045
3722.00,0.0045
3721.00,0.0045
3720.00,0.0045
3719.00,0.0045
3718.00,0.0045
3717.00,0.0045
3716.00,0.0045
3715.00,0.0045
3714.00,0.0045
3713.00,0.0045
3712.00,0.0045
3711.00,0.0045
3710.00,0.0045
3709.00,0.0045
3708.00,0.0044
3707.00,0.0044
3706.00,0.0044
3705.00,0.0044
3704.00,0.0044
3703.00,0.0044
3702.00,0.0044
3701.00,0.0044
3700.00,0.0044
3699.00,0.0044
3698.00,0.0044
3697.00,0.0045
3696.00,0.0045
3695.00,0.0044
3694.00,0.0044
3693.00,0.0044
3692.00,0.0044
3691.00,0.0044
3690.00,0.0045
3689.00,0.0045
3688.00,0.0045
3687.00,0.0045
3686.00,0.0045
3685.00,0.0046
3684.00,0.0046
3683.00,0.0047
3682.00,0.0047
3681.00,0.0047
3680.00,0.0047
3679.00,0.0047
3678.00,0.0047
3677.00,0.0047
3676.00,0.0047
3675.00,0.0047
3674.00,0.0047
3673.00,0.0047
3672.00,0.0047
3671.00,0.0047
3670.00,0.0047
3669.00,0.0047
3668.00,0.0047
3667.00,0.0048
3666.00,0.0048
3665.00,0.0048
3664.00,0.0049
3663.00,0.0049
3662.00,0.0049
3661.00,0.0049
3660.00,0.0049
3659.00,0.0048
3658.00,0.0048
3657.00,0.0048
3656.00,0.0048
3655.00,0.0048
3654.00,0.0048
3653.00,0.0048
3652.00,0.0049
3651.00,0.0049
3650.00,0.0049
3649.00,0.0050
3648.00,0.0050
3647.00,0.0050
3646.00,0.0050
3645.00,0.0051
3644.00,0.0051
3643.00,0.0051
3642.00,0.0052
3641.00,0.0052
3640.00,0.0053
3639.00,0.0053
3638.00,0.0053
3637.00,0.0053
3636.00,0.0054
3635.00,0.0054
3634.00,0.0054
3633.00,0.0055
3632.00,0.0055
3631.00,0.0055
3630.00,0.0055
3629.00,0.0055
3628.00,0.0055
3627.00,0.0055
3626.00,0.0055
3625.00,0.0056
3624.00,0.0057
3623.00,0.0058
3622.00,0.0058
3621.00,0.0059
3620.00,0.0059
3619.00,0.0059
3618.00,0.0060
3617.00,0.0060
3616.00,0.0060
3615.00,0.0060
3614.00,0.0061
3613.00,0.0062
3612.00,0.0062
3611.00,0.0063
3610.00,0.0064
3609.00,0.0064
3608.00,0.0065
3607.00,0.0065
3606.00,0.0066
3605.00,0.0066
3604.00,0.0067
3603.00,0.0067
3602.00,0.0068
3601.00,0.0068
3600.00,0.0069
3599.00,0.0069
3598.00,0.0070
3597.00,0.0070
3596.00,0.0071
3595.00,0.0072
3594.00,0.0072
3593.00,0.0073
3592.00,0.0074
3591.00,0.0074
3590.00,0.0075
3589.00,0.0075
3588.00,0.0076
3587.00,0.0077
3586.00,0.0077
3585.00,0.0078
3584.00,0.0079
3583.00,0.0079
3582.00,0.0080
3581.00,0.0080
3580.00,0.0081
3579.00,0.0082
3578.00,0.0083
3577.00,0.0084
3576.00,0.0085
3575.00,0.0086
3574.00,0.0086
3573.00,0.0087
3572.00,0.0088
3571.00,0.0088
3570.00,0.0089
3569.00,0.0089
3568.00,0.0090
3567.00,0.0091
3566.00,0.0092
3565.00,0.0093
3564.00,0.0093
3563.00,0.0094
3562.00,0.0095
3561.00,0.0096
3560.00,0.0097
3559.00,0.0098
3558.00,0.0099
3557.00,0.0099
3556.00,0.0100
3555.00,0.0101
3554.00,0.0101
3553.00,0.0102
3552.00,0.0103
3551.00,0.0104
3550.00,0.0105
3549.00,0.0106
3548.00,0.0107
3547.00,0.0107
3546.00,0.0108
3545.00,0.0109
3544.00,0.0110
3543.00,0.0111
3542.00,0.0112
3541.00,0.0112
3540.00,0.0113
3539.00,0.0113
3538.00,0.0113
3537.00,0.0114
3536.00,0.0115
3535.00,0.0116
3534.00,0.0116
3533.00,0.0116
3532.00,0.0117
3531.00,0.0117
3530.00,0.0118
3529.00,0.0119
3528.00,0.0120
3527.00,0.0121
3526.00,0.0121
3525.00,0.0122
3524.00,0.0123
3523.00,0.0123
3522.00,0.0124
3521.00,0.0124
3520.00,0.0125
3519.00,0.0125
3518.00,0.0125
3517.00,0.0126
3516.00,0.0126
3515.00,0.0127
3514.00,0.0127
3513.00,0.0128
3512.00,0.0128
3511.00,0.0128
3510.00,0.0129
3509.00,0.0129
3508.00,0.0130
3507.00,0.0131
3506.00,0.0131
3505.00,0.0132
3504.00,0.0133
3503.00,0.0133
3502.00,0.0134
3501.00,0.0134
3500.00,0.0135
3499.00,0.0135
3498.00,0.0135
3497.00,0.0136
3496.00,0.0137
3495.00,0.0137
3494.00,0.0138
3493.00,0.0138
3492.00,0.0139
3491.00,0.0139
3490.00,0.0140
3489.00,0.0141
3488.00,0.0141
3487.00,0.0142
3486.00,0.0143
3485.00,0.0143
3484.00,0.0144
3483.00,0.0145
3482.00,0.0146
3481.00,0.0147
3480.00,0.0147
3479.00,0.0148
3478.00,0.0148
3477.00,0.0149
3476.00,0.0150
3475.00,0.0151
3474.00,0.0152
3473.00,0.0153
3472.00,0.0154
3471.00,0.0155
3470.00,0.0156
3469.00,0.0157
3468.00,0.0158
3467.00,0.0159
3466.00,0.0160
3465.00,0.0161
3464.00,0.0162
3463.00,0.0163
3462.00,0.0164
3461.00,0.0165
3460.00,0.0166
3459.00,0.0167
3458.00,0.0167
3457.00,0.0168
3456.00,0.0169
3455.00,0.0170
3454.00,0.0172
3453.00,0.0173
3452.00,0.0174
3451.00,0.0175
3450.00,0.0176
3449.00,0.0177
3448.00,0.0178
3447.00,0.0179
3446.00,0.0181
3445.00,0.0182
3444.00,0.0183
3443.00,0.0184
3442.00,0.0185
3441.00,0.0186
3440.00,0.0187
3439.00,0.0188
3438.00,0.0190
3437.00,0.0191
3436.00,0.0192
3435.00,0.0193
3434.00,0.0194
3433.00,0.0196
3432.00,0.0197
3431.00,0.0199
3430.00,0.0200
3429.00,0.0201
3428.00,0.0203
3427.00,0.0204
3426.00,0.0206
3425.00,0.0207
3424.00,0.0209
3423.00,0.0211
3422.00,0.0212
3421.00,0.0214
3420.00,0.0216
3419.00,0.0217
3418.00,0.0219
3417.00,0.0221
3416.00,0.0222
3415.00,0.0223
3414.00,0.0225
3413.00,0.0226
3412.00,0.0227
3411.00,0.0228
3410.00,0.0229
3409.00,0.0231
3408.00,0.0232
3407.00,0.0232
3406.00,0.0233
3405.00,0.0233
3404.00,0.0234
3403.00,0.0234
3402.00,0.0234
3401.00,0.0235
3400.00,0.0235
3399.00,0.0235
3398.00,0.0235
3397.00,0.0235
3396.00,0.0235
3395.00,0.0234
3394.00,0.0234
3393.00,0.0233
3392.00,0.0232
3391.00,0.0232
3390.00,0.0231
3389.00,0.0230
3388.00,0.0229
3387.00,0.0228
3386.00,0.0227
3385.00,0.0226
3384.00,0.0225
3383.00,0.0224
3382.00,0.0222
3381.00,0.0221
3380.00,0.0220
3379.00,0.0219
3378.00,0.0217
3377.00,0.0216
3376.00,0.0215
3375.00,0.0214
3374.00,0.0213
3373.00,0.0211
3372.00,0.0210
3371.00,0.0208
3370.00,0.0206
3369.00,0.0205
3368.00,0.0204
3367.00,0.0203
3366.00,0.0202
3365.00,0.0201
3364.00,0.0201
3363.00,0.0200
3362.00,0.0199
3361.00,0.0198
3360.00,0.0197
3359.00,0.0196
3358.00,0.0196
3357.00,0.0195
3356.00,0.0194
3355.00,0.0193
3354.00,0.0192
3353.00,0.0191
3352.00,0.0190
3351.00,0.0189
3350.00,0.0188
3349.00,0.0188
3348.00,0.0188
3347.00,0.0188
3346.00,0.0187
3345.00,0.0186
3344.00,0.0185
3343.00,0.0184
3342.00,0.0184
3341.00,0.0183
3340.00,0.0183
3339.00,0.0182
3338.00,0.0182
3337.00,0.0182
3336.00,0.0182
3335.00,0.0183
3334.00,0.0183
3333.00,0.0183
3332.00,0.0182
3331.00,0.0182
3330.00,0.0181
3329.00,0.0181
3328.00,0.0180
3327.00,0.0179
3326.00,0.0179
3325.00,0.0179
3324.00,0.0180
3323.00,0.0180
3322.00,0.0181
3321.00,0.0181
3320.00,0.0181
3319.00,0.0181
3318.00,0.0181
3317.00,0.0181
3316.00,0.0181
3315.00,0.0182
3314.00,0.0182
3313.00,0.0182
3312.00,0.0182
3311.00,0.0181
3310.00,0.0180
3309.00,0.0179
3308.00,0.0178
3307.00,0.0178
3306.00,0.0178
3305.00,0.0180
3304.00,0.0181
3303.00,0.0183
3302.00,0.0184
3301.00,0.0185
3300.00,0.0185
3299.00,0.0185
3298.00,0.0185
3297.00,0.0184
3296.00,0.0184
3295.00,0.0184
3294.00,0.0184
3293.00,0.0185
3292.00,0.0185
3291.00,0.0187
3290.00,0.0188
3289.00,0.0189
3288.00,0.0189
3287.00,0.0190
3286.00,0.0190
3285.00,0.0190
3284.00,0.0191
3283.00,0.0191
3282.00,0.0192
3281.00,0.0192
3280.00,0.0192
3279.00,0.0192
3278.00,0.0192
3277.00,0.0192
3276.00,0.0193
3275.00,0.0193
3274.00,0.0193
3273.00,0.0193
3272.00,0.0193
3271.00,0.0194
3270.00,0.0194
3269.00,0.0195
3268.00,0.0196
3267.00,0.0197
3266.00,0.0197
3265.00,0.0198
3264.00,0.0198
3263.00,0.0198
3262.00,0.0198
3261.00,0.0199
3260.00,0.0199
3259.00,0.0199
3258.00,0.0200
3257.00,0.0200
3256.00,0.0200
3255.00,0.0201
3254.00,0.0201
3253.00,0.0202
3252.00,0.0203
3251.00,0.0203
3250.00,0.0203
3249.00,0.0203
3248.00,0.0203
3247.00,0.0203
3246.00,0.0203
3245.00,0.0204
3244.00,0.0205
3243.00,0.0205
3242.00,0.0205
3241.00,0.0206
3240.00,0.0205
3239.00,0.0205
3238.00,0.0205
3237.00,0.0204
3236.00,0.0204
3235.00,0.0203
3234.00,0.0203
3233.00,0.0202
3232.00,0.0202
3231.00,0.0203
3230.00,0.0203
3229.00,0.0203
3228.00,0.0203
3227.00,0.0203
3226.00,0.0202
3225.00,0.0202
3224.00,0.0202
3223.00,0.0201
3222.00,0.0201
3221.00,0.0201
3220.00,0.0200
3219.00,0.0199
3218.00,0.0199
3217.00,0.0198
3216.00,0.0197
3215.00,0.0197
3214.00,0.0196
3213.00,0.0195
3212.00,0.0195
3211.00,0.0194
3210.00,0.0193
3209.00,0.0192
3208.00,0.0191
3207.00,0.0190
3206.00,0.0188
3205.00,0.0187
3204.00,0.0186
3203.00,0.0185
3202.00,0.0184
3201.00,0.0183
3200.00,0.0182
3199.00,0.0181
3198.00,0.0180
3197.00,0.0179
3196.00,0.0178
3195.00,0.0177
3194.00,0.0176
3193.00,0.0175
3192.00,0.0174
3191.00,0.0173
3190.00,0.0172
3189.00,0.0171
3188.00,0.0169
3187.00,0.0168
3186.00,0.0167
3185.00,0.0166
3184.00,0.0165
3183.00,0.0164
3182.00,0.0164
3181.00,0.0162
3180.00,0.0161
3179.00,0.0160
3178.00,0.0159
3177.00,0.0158
3176.00,0.0157
3175.00,0.0156
3174.00,0.0154
3173.00,0.0153
3172.00,0.0152
3171.00,0.0151
3170.00,0.0150
3169.00,0.0149
3168.00,0.0148
3167.00,0.0147
3166.00,0.0146
3165.00,0.0144
3164.00,0.0143
3163.00,0.0142
3162.00,0.0141
3161.00,0.0140
3160.00,0.0139
3159.00,0.0137
3158.00,0.0136
3157.00,0.0135
3156.00,0.0134
3155.00,0.0132
3154.00,0.0131
3153.00,0.0130
3152.00,0.0129
3151.00,0.0128
3150.00,0.0127
3149.00,0.0126
3148.00,0.0125
3147.00,0.0124
3146.00,0.0123
3145.00,0.0122
3144.00,0.0121
3143.00,0.0120
3142.00,0.0119
3141.00,0.0118
3140.00,0.0117
3139.00,0.0116
3138.00,0.0116
3137.00,0.0115
3136.00,0.0114
3135.00,0.0114
3134.00,0.0113
3133.00,0.0112
3132.00,0.0111
3131.00,0.0111
3130.00,0.0110
3129.00,0.0109
3128.00,0.0108
3127.00,0.0108
3126.00,0.0107
3125.00,0.0107
3124.00,0.0106
3123.00,0.0106
3122.00,0.0106
3121.00,0.0105
3120.00,0.0105
3119.00,0.0104
3118.00,0.0103
3117.00,0.0102
3116.00,0.0102
3115.00,0.0101
3114.00,0.0100
3113.00,0.0100
3112.00,0.0100
3111.00,0.0099
3110.00,0.0098
3109.00,0.0098
3108.00,0.0097
3107.00,0.0096
3106.00,0.0095
3105.00,0.0095
3104.00,0.0094
3103.00,0.0094
3102.00,0.0093
3101.00,0.0093
3100.00,0.0093
3099.00,0.0092
3098.00,0.0092
3097.00,0.0092
3096.00,0.0091
3095.00,0.0091
3094.00,0.0091
3093.00,0.0091
3092.00,0.0092
3091.00,0.0092
3090.00,0.0092
3089.00,0.0092
3088.00,0.0092
3087.00,0.0092
3086.00,0.0092
3085.00,0.0092
3084.00,0.0092
3083.00,0.0092
3082.00,0.0092
3081.00,0.0092
3080.00,0.0091
3079.00,0.0091
3078.00,0.0091
3077.00,0.0091
3076.00,0.0091
3075.00,0.0090
3074.00,0.0090
3073.00,0.0090
3072.00,0.0089
3071.00,0.0089
3070.00,0.0089
3069.00,0.0088
3068.00,0.0088
3067.00,0.0088
3066.00,0.0088
3065.00,0.0088
3064.00,0.0088
3063.00,0.0088
3062.00,0.0088
3061.00,0.0088
3060.00,0.0089
3059.00,0.0089
3058.00,0.0089
3057.00,0.0089
3056.00,0.0090
3055.00,0.0090
3054.00,0.0090
3053.00,0.0090
3052.00,0.0090
3051.00,0.0090
3050.00,0.0089
3049.00,0.0089
3048.00,0.0089
3047.00,0.0088
3046.00,0.0088
3045.00,0.0088
3044.00,0.0088
3043.00,0.0088
3042.00,0.0088
3041.00,0.0089
3040.00,0.0089
3039.00,0.0090
3038.00,0.0091
3037.00,0.0092
3036.00,0.0093
3035.00,0.0094
3034.00,0.0094
3033.00,0.0094
3032.00,0.0094
3031.00,0.0094
3030.00,0.0094
3029.00,0.0093
3028.00,0.0092
3027.00,0.0091
3026.00,0.0091
3025.00,0.0090
3024.00,0.0090
3023.00,0.0090
3022.00,0.0089
3021.00,0.0089
3020.00,0.0089
3019.00,0.0089
3018.00,0.0088
3017.00,0.0088
3016.00,0.0088
3015.00,0.0089
3014.00,0.0089
3013.00,0.0090
3012.00,0.0091
3011.00,0.0092
3010.00,0.0094
3009.00,0.0096
3008.00,0.0098
3007.00,0.0100
3006.00,0.0102
3005.00,0.0105
3004.00,0.0108
3003.00,0.0111
3002.00,0.0114
3001.00,0.0118
3000.00,0.0122
2999.00,0.0126
2998.00,0.0131
2997.00,0.0136
2996.00,0.0141
2995.00,0.0145
2994.00,0.0150
2993.00,0.0154
2992.00,0.0158
2991.00,0.0162
2990.00,0.0166
2989.00,0.0170
2988.00,0.0174
2987.00,0.0179
2986.00,0.0184
2985.00,0.0190
2984.00,0.0197
2983.00,0.0204
2982.00,0.0212
2981.00,0.0220
2980.00,0.0227
2979.00,0.0232
2978.00,0.0235
2977.00,0.0238
2976.00,0.0241
2975.00,0.0246
2974.00,0.0253
2973.00,0.0262
2972.00,0.0271
2971.00,0.0279
2970.00,0.0286
2969.00,0.0291
2968.00,0.0295
2967.00,0.0299
2966.00,0.0303
2965.00,0.0307
2964.00,0.0313
2963.00,0.0318
2962.00,0.0322
2961.00,0.0325
2960.00,0.0326
2959.00,0.0325
2958.00,0.0321
2957.00,0.0316
2956.00,0.0310
2955.00,0.0304
2954.00,0.0297
2953.00,0.0291
2952.00,0.0286
2951.00,0.0282
2950.00,0.0278
2949.00,0.0276
2948.00,0.0276
2947.00,0.0276
2946.00,0.0278
2945.00,0.0281
2944.00,0.0285
2943.00,0.0290
2942.00,0.0296
2941.00,0.0302
2940.00,0.0309
2939.00,0.0318
2938.00,0.0328
2937.00,0.0340
2936.00,0.0354
2935.00,0.0368
2934.00,0.0384
2933.00,0.0399
2932.00,0.0414
2931.00,0.0428
2930.00,0.0440
2929.00,0.0449
2928.00,0.0455
2927.00,0.0458
2926.00,0.0457
2925.00,0.0453
2924.00,0.0447
2923.00,0.0438
2922.00,0.0428
2921.00,0.0417
2920.00,0.0405
2919.00,0.0393
2918.00,0.0381
2917.00,0.0369
2916.00,0.0358
2915.00,0.0348
2914.00,0.0339
2913.00,0.0330
2912.00,0.0322
2911.00,0.0314
2910.00,0.0307
2909.00,0.0300
2908.00,0.0294
2907.00,0.0288
2906.00,0.0282
2905.00,0.0276
2904.00,0.0271
2903.00,0.0266
2902.00,0.0262
2901.00,0.0258
2900.00,0.0254
2899.00,0.0250
2898.00,0.0247
2897.00,0.0244
2896.00,0.0241
2895.00,0.0239
2894.00,0.0236
2893.00,0.0234
2892.00,0.0232
2891.00,0.0230
2890.00,0.0228
2889.00,0.0226
2888.00,0.0225
2887.00,0.0223
2886.00,0.0221
2885.00,0.0220
2884.00,0.0220
2883.00,0.0220
2882.00,0.0221
2881.00,0.0222
2880.00,0.0225
2879.00,0.0228
2878.00,0.0233
2877.00,0.0238
2876.00,0.0242
2875.00,0.0247
2874.00,0.0250
2873.00,0.0253
2872.00,0.0254
2871.00,0.0254
2870.00,0.0252
2869.00,0.0251
2868.00,0.0249
2867.00,0.0249
2866.00,0.0251
2865.00,0.0254
2864.00,0.0260
2863.00,0.0268
2862.00,0.0278
2861.00,0.0289
2860.00,0.0300
2859.00,0.0310
2858.00,0.0317
2857.00,0.0321
2856.00,0.0323
2855.00,0.0321
2854.00,0.0318
2853.00,0.0313
2852.00,0.0305
2851.00,0.0296
2850.00,0.0284
2849.00,0.0270
2848.00,0.0256
2847.00,0.0242
2846.00,0.0229
2845.00,0.0217
2844.00,0.0206
2843.00,0.0196
2842.00,0.0187
2841.00,0.0178
2840.00,0.0171
2839.00,0.0165
2838.00,0.0160
2837.00,0.0155
2836.00,0.0151
2835.00,0.0147
2834.00,0.0144
2833.00,0.0140
2832.00,0.0137
2831.00,0.0134
2830.00,0.0131
2829.00,0.0128
2828.00,0.0125
2827.00,0.0123
2826.00,0.0120
2825.00,0.0118
2824.00,0.0116
2823.00,0.0114
2822.00,0.0112
2821.00,0.0110
2820.00,0.0108
2819.00,0.0107
2818.00,0.0106
2817.00,0.0104
2816.00,0.0103
2815.00,0.0102
2814.00,0.0101
2813.00,0.0100
2812.00,0.0099
2811.00,0.0098
2810.00,0.0097
2809.00,0.0097
2808.00,0.0096
2807.00,0.0095
2806.00,0.0095
2805.00,0.0094
2804.00,0.0093
2803.00,0.0092
2802.00,0.0092
2801.00,0.0091
2800.00,0.0091
2799.00,0.0090
2798.00,0.0090
2797.00,0.0089
2796.00,0.0089
2795.00,0.0088
2794.00,0.0087
2793.00,0.0087
2792.00,0.0086
2791.00,0.0086
2790.00,0.0085
2789.00,0.0085
2788.00,0.0084
2787.00,0.0084
2786.00,0.0084
2785.00,0.0083
2784.00,0.0083
2783.00,0.0082
2782.00,0.0082
2781.00,0.0081
2780.00,0.0081
2779.00,0.0081
2778.00,0.0080
2777.00,0.0080
2776.00,0.0079
2775.00,0.0079
2774.00,0.0079
2773.00,0.0079
2772.00,0.0079
2771.00,0.0079
2770.00,0.0078
2769.00,0.0078
2768.00,0.0078
2767.00,0.0078
2766.00,0.0077
2765.00,0.0077
2764.00,0.0077
2763.00,0.0077
2762.00,0.0077
2761.00,0.0077
2760.00,0.0077
2759.00,0.0077
2758.00,0.0077
2757.00,0.0077
