Created as New Dataset,Sample 1047 By YargerLab Date Monday, August 04 2025
cm-1,A
4000.00,0.0043
3999.00,0.0044
3998.00,0.0044
3997.00,0.0044
3996.00,0.0044
3995.00,0.0044
3994.00,0.0044
3993.00,0.0044
3992.00,0.0044
3991.00,0.0044
3990.00,0.0044
3989.00,0.0044
3988.00,0.0043
3987.00,0.0043
3986.00,0.0043
3985.00,0.0043
3984.00,0.0043
3983.00,0.0044
3982.00,0.0044
3981.00,0.0044
3980.00,0.0044
3979.00,0.0044
3978.00,0.0044
3977.00,0.0043
3976.00,0.0043
3975.00,0.0043
3974.00,0.0043
3973.00,0.0043
3972.00,0.0043
3971.00,0.0043
3970.00,0.0043
3969.00,0.0043
3968.00,0.0043
3967.00,0.0043
3966.00,0.0043
3965.00,0.0043
3964.00,0.0043
3963.00,0.0043
3962.00,0.0043
3961.00,0.0043
3960.00,0.0043
3959.00,0.0043
3958.00,0.0043
3957.00,0.0043
3956.00,0.0043
3955.00,0.0043
3954.00,0.0043
3953.00,0.0043
3952.00,0.0043
3951.00,0.0043
3950.00,0.0043
3949.00,0.0043
3948.00,0.0043
3947.00,0.0044
3946.00,0.0044
3945.00,0.0044
3944.00,0.0044
3943.00,0.0044
3942.00,0.0044
3941.00,0.0044
3940.00,0.0044
3939.00,0.0043
3938.00,0.0043
3937.00,0.0044
3936.00,0.0044
3935.00,0.0044
3934.00,0.0043
3933.00,0.0043
3932.00,0.0043
3931.00,0.0043
3930.00,0.0043
3929.00,0.0043
3928.00,0.0043
3927.00,0.0043
3926.00,0.0043
3925.00,0.0043
3924.00,0.0043
3923.00,0.0043
3922.00,0.0043
3921.00,0.0043
3920.00,0.0043
3919.00,0.0043
3918.00,0.0043
3917.00,0.0043
3916.00,0.0043
3915.00,0.0043
3914.00,0.0043
3913.00,0.0043
3912.00,0.0043
3911.00,0.0043
3910.00,0.0044
3909.00,0.0044
3908.00,0.0044
3907.00,0.0045
3906.00,0.0045
3905.00,0.0045
3904.00,0.0045
3903.00,0.0045
3902.00,0.0044
3901.00,0.0044
3900.00,0.0044
3899.00,0.0044
3898.00,0.0044
3897.00,0.0044
3896.00,0.0044
3895.00,0.0044
3894.00,0.0044
3893.00,0.0044
3892.00,0.0044
3891.00,0.0044
3890.00,0.0044
3889.00,0.0044
3888.00,0.0044
3887.00,0.0044
3886.00,0.0044
3885.00,0.0044
3884.00,0.0044
3883.00,0.0044
3882.00,0.0045
3881.00,0.0044
3880.00,0.0044
3879.00,0.0044
3878.00,0.0044
3877.00,0.0044
3876.00,0.0044
3875.00,0.0044
3874.00,0.0044
3873.00,0.0044
3872.00,0.0044
3871.00,0.0045
3870.00,0.0044
3869.00,0.0044
3868.00,0.0044
3867.00,0.0044
3866.00,0.0044
3865.00,0.0044
3864.00,0.0044
3863.00,0.0044
3862.00,0.0044
3861.00,0.0043
3860.00,0.0043
3859.00,0.0043
3858.00,0.0044
3857.00,0.0044
3856.00,0.0045
3855.00,0.0046
3854.00,0.0046
3853.00,0.0046
3852.00,0.0046
3851.00,0.0047
3850.00,0.0046
3849.00,0.0046
3848.00,0.0045
3847.00,0.0044
3846.00,0.0044
3845.00,0.0044
3844.00,0.0044
3843.00,0.0044
3842.00,0.0045
3841.00,0.0045
3840.00,0.0045
3839.00,0.0046
3838.00,0.0045
3837.00,0.0045
3836.00,0.0045
3835.00,0.0045
3834.00,0.0045
3833.00,0.0045
3832.00,0.0045
3831.00,0.0044
3830.00,0.0044
3829.00,0.0044
3828.00,0.0044
3827.00,0.0044
3826.00,0.0045
3825.00,0.0045
3824.00,0.0045
3823.00,0.0046
3822.00,0.0046
3821.00,0.0045
3820.00,0.0045
3819.00,0.0046
3818.00,0.0046
3817.00,0.0046
3816.00,0.0045
3815.00,0.0044
3814.00,0.0044
3813.00,0.0044
3812.00,0.0044
3811.00,0.0044
3810.00,0.0045
3809.00,0.0045
3808.00,0.0045
3807.00,0.0045
3806.00,0.0045
3805.00,0.0045
3804.00,0.0046
3803.00,0.0046
3802.00,0.0046
3801.00,0.0046
3800.00,0.0046
3799.00,0.0046
3798.00,0.0045
3797.00,0.0045
3796.00,0.0044
3795.00,0.0044
3794.00,0.0044
3793.00,0.0044
3792.00,0.0044
3791.00,0.0044
3790.00,0.0043
3789.00,0.0043
3788.00,0.0043
3787.00,0.0043
3786.00,0.0043
3785.00,0.0043
3784.00,0.0043
3783.00,0.0044
3782.00,0.0044
3781.00,0.0044
3780.00,0.0044
3779.00,0.0044
3778.00,0.0044
3777.00,0.0044
3776.00,0.0044
3775.00,0.0044
3774.00,0.0044
3773.00,0.0044
3772.00,0.0044
3771.00,0.0044
3770.00,0.0044
3769.00,0.0044
3768.00,0.0044
3767.00,0.0045
3766.00,0.0044
3765.00,0.0044
3764.00,0.0044
3763.00,0.0045
3762.00,0.0045
3761.00,0.0045
3760.00,0.0045
3759.00,0.0045
3758.00,0.0045
3757.00,0.0046
3756.00,0.0046
3755.00,0.0046
3754.00,0.0046
3753.00,0.0047
3752.00,0.0047
3751.00,0.0047
3750.00,0.0047
3749.00,0.0047
3748.00,0.0047
3747.00,0.0047
3746.00,0.0046
3745.00,0.0046
3744.00,0.0045
3743.00,0.0045
3742.00,0.0045
3741.00,0.0045
3740.00,0.0044
3739.00,0.0044
3738.00,0.0044
3737.00,0.0045
3736.00,0.0045
3735.00,0.0045
3734.00,0.0045
3733.00,0.0045
3732.00,0.0045
3731.00,0.0045
3730.00,0.0045
3729.00,0.0045
3728.00,0.0044
3727.00,0.0044
3726.00,0.0043
3725.00,0.0043
3724.00,0.0043
3723.00,0.0043
3722.00,0.0043
3721.00,0.0043
3720.00,0.0043
3719.00,0.0043
3718.00,0.0043
3717.00,0.0044
3716.00,0.0044
3715.00,0.0044
3714.00,0.0045
3713.00,0.0045
3712.00,0.0045
3711.00,0.0045
3710.00,0.0045
3709.00,0.0045
3708.00,0.0045
3707.00,0.0044
3706.00,0.0044
3705.00,0.0044
3704.00,0.0043
3703.00,0.0043
3702.00,0.0043
3701.00,0.0043
3700.00,0.0043
3699.00,0.0043
3698.00,0.0043
3697.00,0.0043
3696.00,0.0043
3695.00,0.0044
3694.00,0.0044
3693.00,0.0045
3692.00,0.0045
3691.00,0.0046
3690.00,0.0046
3689.00,0.0046
3688.00,0.0047
3687.00,0.0047
3686.00,0.0048
3685.00,0.0047
3684.00,0.0047
3683.00,0.0047
3682.00,0.0047
3681.00,0.0047
3680.00,0.0048
3679.00,0.0049
3678.00,0.0050
3677.00,0.0051
3676.00,0.0051
3675.00,0.0051
3674.00,0.0051
3673.00,0.0052
3672.00,0.0052
3671.00,0.0052
3670.00,0.0051
3669.00,0.0051
3668.00,0.0051
3667.00,0.0051
3666.00,0.0051
3665.00,0.0051
3664.00,0.0051
3663.00,0.0051
3662.00,0.0051
3661.00,0.0052
3660.00,0.0052
3659.00,0.0053
3658.00,0.0053
3657.00,0.0054
3656.00,0.0054
3655.00,0.0055
3654.00,0.0056
3653.00,0.0056
3652.00,0.0057
3651.00,0.0058
3650.00,0.0059
3649.00,0.0060
3648.00,0.0060
3647.00,0.0061
3646.00,0.0061
3645.00,0.0060
3644.00,0.0060
3643.00,0.0060
3642.00,0.0060
3641.00,0.0060
3640.00,0.0060
3639.00,0.0061
3638.00,0.0061
3637.00,0.0062
3636.00,0.0062
3635.00,0.0063
3634.00,0.0064
3633.00,0.0065
3632.00,0.0066
3631.00,0.0066
3630.00,0.0067
3629.00,0.0067
3628.00,0.0068
3627.00,0.0069
3626.00,0.0069
3625.00,0.0070
3624.00,0.0070
3623.00,0.0070
3622.00,0.0070
3621.00,0.0071
3620.00,0.0071
3619.00,0.0072
3618.00,0.0073
3617.00,0.0074
3616.00,0.0075
3615.00,0.0076
3614.00,0.0076
3613.00,0.0077
3612.00,0.0077
3611.00,0.0079
3610.00,0.0079
3609.00,0.0080
3608.00,0.0081
3607.00,0.0081
3606.00,0.0082
3605.00,0.0083
3604.00,0.0083
3603.00,0.0084
3602.00,0.0085
3601.00,0.0085
3600.00,0.0086
3599.00,0.0087
3598.00,0.0088
3597.00,0.0088
3596.00,0.0089
3595.00,0.0090
3594.00,0.0091
3593.00,0.0092
3592.00,0.0093
3591.00,0.0094
3590.00,0.0095
3589.00,0.0096
3588.00,0.0097
3587.00,0.0098
3586.00,0.0099
3585.00,0.0100
3584.00,0.0101
3583.00,0.0102
3582.00,0.0103
3581.00,0.0104
3580.00,0.0105
3579.00,0.0105
3578.00,0.0106
3577.00,0.0108
3576.00,0.0109
3575.00,0.0110
3574.00,0.0111
3573.00,0.0113
3572.00,0.0114
3571.00,0.0115
3570.00,0.0116
3569.00,0.0117
3568.00,0.0119
3567.00,0.0120
3566.00,0.0120
3565.00,0.0121
3564.00,0.0122
3563.00,0.0123
3562.00,0.0124
3561.00,0.0125
3560.00,0.0126
3559.00,0.0127
3558.00,0.0128
3557.00,0.0129
3556.00,0.0131
3555.00,0.0132
3554.00,0.0133
3553.00,0.0134
3552.00,0.0135
3551.00,0.0136
3550.00,0.0137
3549.00,0.0137
3548.00,0.0138
3547.00,0.0139
3546.00,0.0140
3545.00,0.0141
3544.00,0.0142
3543.00,0.0142
3542.00,0.0143
3541.00,0.0144
3540.00,0.0145
3539.00,0.0146
3538.00,0.0147
3537.00,0.0147
3536.00,0.0148
3535.00,0.0149
3534.00,0.0149
3533.00,0.0150
3532.00,0.0151
3531.00,0.0152
3530.00,0.0152
3529.00,0.0153
3528.00,0.0153
3527.00,0.0154
3526.00,0.0155
3525.00,0.0156
3524.00,0.0157
3523.00,0.0157
3522.00,0.0158
3521.00,0.0158
3520.00,0.0159
3519.00,0.0160
3518.00,0.0160
3517.00,0.0161
3516.00,0.0162
3515.00,0.0163
3514.00,0.0163
3513.00,0.0163
3512.00,0.0164
3511.00,0.0164
3510.00,0.0165
3509.00,0.0165
3508.00,0.0166
3507.00,0.0166
3506.00,0.0167
3505.00,0.0168
3504.00,0.0168
3503.00,0.0169
3502.00,0.0170
3501.00,0.0170
3500.00,0.0171
3499.00,0.0171
3498.00,0.0172
3497.00,0.0172
3496.00,0.0173
3495.00,0.0173
3494.00,0.0173
3493.00,0.0174
3492.00,0.0174
3491.00,0.0175
3490.00,0.0175
3489.00,0.0176
3488.00,0.0176
3487.00,0.0176
3486.00,0.0177
3485.00,0.0177
3484.00,0.0178
3483.00,0.0178
3482.00,0.0179
3481.00,0.0179
3480.00,0.0180
3479.00,0.0180
3478.00,0.0181
3477.00,0.0181
3476.00,0.0182
3475.00,0.0183
3474.00,0.0183
3473.00,0.0184
3472.00,0.0184
3471.00,0.0184
3470.00,0.0185
3469.00,0.0185
3468.00,0.0185
3467.00,0.0185
3466.00,0.0186
3465.00,0.0186
3464.00,0.0186
3463.00,0.0187
3462.00,0.0187
3461.00,0.0188
3460.00,0.0188
3459.00,0.0188
3458.00,0.0188
3457.00,0.0189
3456.00,0.0189
3455.00,0.0189
3454.00,0.0190
3453.00,0.0190
3452.00,0.0190
3451.00,0.0190
3450.00,0.0190
3449.00,0.0190
3448.00,0.0190
3447.00,0.0191
3446.00,0.0191
3445.00,0.0191
3444.00,0.0191
3443.00,0.0191
3442.00,0.0191
3441.00,0.0191
3440.00,0.0191
3439.00,0.0191
3438.00,0.0191
3437.00,0.0191
3436.00,0.0192
3435.00,0.0192
3434.00,0.0192
3433.00,0.0192
3432.00,0.0192
3431.00,0.0192
3430.00,0.0192
3429.00,0.0192
3428.00,0.0192
3427.00,0.0192
3426.00,0.0192
3425.00,0.0192
3424.00,0.0192
3423.00,0.0192
3422.00,0.0191
3421.00,0.0191
3420.00,0.0191
3419.00,0.0191
3418.00,0.0191
3417.00,0.0191
3416.00,0.0191
3415.00,0.0191
3414.00,0.0191
3413.00,0.0191
3412.00,0.0190
3411.00,0.0190
3410.00,0.0190
3409.00,0.0189
3408.00,0.0189
3407.00,0.0189
3406.00,0.0189
3405.00,0.0189
3404.00,0.0189
3403.00,0.0189
3402.00,0.0189
3401.00,0.0189
3400.00,0.0188
3399.00,0.0188
3398.00,0.0188
3397.00,0.0187
3396.00,0.0187
3395.00,0.0187
3394.00,0.0187
3393.00,0.0187
3392.00,0.0187
3391.00,0.0187
3390.00,0.0186
3389.00,0.0186
3388.00,0.0186
3387.00,0.0186
3386.00,0.0186
3385.00,0.0185
3384.00,0.0185
3383.00,0.0184
3382.00,0.0184
3381.00,0.0183
3380.00,0.0183
3379.00,0.0183
3378.00,0.0183
3377.00,0.0183
3376.00,0.0183
3375.00,0.0182
3374.00,0.0182
3373.00,0.0182
3372.00,0.0181
3371.00,0.0180
3370.00,0.0179
3369.00,0.0179
3368.00,0.0179
3367.00,0.0179
3366.00,0.0179
3365.00,0.0179
3364.00,0.0179
3363.00,0.0179
3362.00,0.0179
3361.00,0.0178
3360.00,0.0178
3359.00,0.0178
3358.00,0.0178
3357.00,0.0178
3356.00,0.0178
3355.00,0.0178
3354.00,0.0177
3353.00,0.0176
3352.00,0.0176
3351.00,0.0175
3350.00,0.0175
3349.00,0.0176
3348.00,0.0176
3347.00,0.0176
3346.00,0.0176
3345.00,0.0176
3344.00,0.0175
3343.00,0.0175
3342.00,0.0174
3341.00,0.0173
3340.00,0.0172
3339.00,0.0172
3338.00,0.0172
3337.00,0.0172
3336.00,0.0172
3335.00,0.0173
3334.00,0.0173
3333.00,0.0173
3332.00,0.0173
3331.00,0.0173
3330.00,0.0172
3329.00,0.0172
3328.00,0.0171
3327.00,0.0170
3326.00,0.0170
3325.00,0.0170
3324.00,0.0170
3323.00,0.0170
3322.00,0.0171
3321.00,0.0171
3320.00,0.0171
3319.00,0.0171
3318.00,0.0170
3317.00,0.0170
3316.00,0.0170
3315.00,0.0170
3314.00,0.0170
3313.00,0.0169
3312.00,0.0169
3311.00,0.0168
3310.00,0.0166
3309.00,0.0165
3308.00,0.0164
3307.00,0.0164
3306.00,0.0164
3305.00,0.0164
3304.00,0.0166
3303.00,0.0167
3302.00,0.0168
3301.00,0.0168
3300.00,0.0168
3299.00,0.0167
3298.00,0.0166
3297.00,0.0166
3296.00,0.0165
3295.00,0.0165
3294.00,0.0165
3293.00,0.0165
3292.00,0.0165
3291.00,0.0165
3290.00,0.0166
3289.00,0.0166
3288.00,0.0167
3287.00,0.0167
3286.00,0.0166
3285.00,0.0166
3284.00,0.0166
3283.00,0.0165
3282.00,0.0165
3281.00,0.0165
3280.00,0.0165
3279.00,0.0165
3278.00,0.0164
3277.00,0.0164
3276.00,0.0163
3275.00,0.0162
3274.00,0.0162
3273.00,0.0161
3272.00,0.0160
3271.00,0.0160
3270.00,0.0160
3269.00,0.0160
3268.00,0.0161
3267.00,0.0161
3266.00,0.0161
3265.00,0.0161
3264.00,0.0160
3263.00,0.0160
3262.00,0.0160
3261.00,0.0160
3260.00,0.0159
3259.00,0.0159
3258.00,0.0159
3257.00,0.0158
3256.00,0.0158
3255.00,0.0158
3254.00,0.0158
3253.00,0.0157
3252.00,0.0157
3251.00,0.0156
3250.00,0.0156
3249.00,0.0155
3248.00,0.0155
3247.00,0.0155
3246.00,0.0155
3245.00,0.0155
3244.00,0.0155
3243.00,0.0155
3242.00,0.0154
3241.00,0.0154
3240.00,0.0154
3239.00,0.0154
3238.00,0.0153
3237.00,0.0153
3236.00,0.0152
3235.00,0.0151
3234.00,0.0151
3233.00,0.0151
3232.00,0.0151
3231.00,0.0151
3230.00,0.0151
3229.00,0.0151
3228.00,0.0151
3227.00,0.0150
3226.00,0.0150
3225.00,0.0150
3224.00,0.0149
3223.00,0.0149
3222.00,0.0149
3221.00,0.0148
3220.00,0.0148
3219.00,0.0148
3218.00,0.0147
3217.00,0.0147
3216.00,0.0147
3215.00,0.0146
3214.00,0.0146
3213.00,0.0146
3212.00,0.0145
3211.00,0.0145
3210.00,0.0145
3209.00,0.0144
3208.00,0.0144
3207.00,0.0144
3206.00,0.0144
3205.00,0.0143
3204.00,0.0143
3203.00,0.0142
3202.00,0.0142
3201.00,0.0142
3200.00,0.0141
3199.00,0.0141
3198.00,0.0141
3197.00,0.0140
3196.00,0.0140
3195.00,0.0140
3194.00,0.0139
3193.00,0.0139
3192.00,0.0139
3191.00,0.0139
3190.00,0.0138
3189.00,0.0138
3188.00,0.0138
3187.00,0.0137
3186.00,0.0137
3185.00,0.0137
3184.00,0.0137
3183.00,0.0137
3182.00,0.0137
3181.00,0.0137
3180.00,0.0137
3179.00,0.0136
3178.00,0.0136
3177.00,0.0136
3176.00,0.0136
3175.00,0.0136
3174.00,0.0135
3173.00,0.0135
3172.00,0.0135
3171.00,0.0134
3170.00,0.0134
3169.00,0.0134
3168.00,0.0134
3167.00,0.0134
3166.00,0.0134
3165.00,0.0133
3164.00,0.0133
3163.00,0.0132
3162.00,0.0132
3161.00,0.0132
3160.00,0.0131
3159.00,0.0131
3158.00,0.0131
3157.00,0.0130
3156.00,0.0130
3155.00,0.0130
3154.00,0.0130
3153.00,0.0129
3152.00,0.0129
3151.00,0.0129
3150.00,0.0129
3149.00,0.0128
3148.00,0.0128
3147.00,0.0128
3146.00,0.0128
3145.00,0.0127
3144.00,0.0127
3143.00,0.0127
3142.00,0.0126
3141.00,0.0126
3140.00,0.0125
3139.00,0.0125
3138.00,0.0125
3137.00,0.0125
3136.00,0.0125
3135.00,0.0125
3134.00,0.0125
3133.00,0.0125
3132.00,0.0124
3131.00,0.0124
3130.00,0.0124
3129.00,0.0124
3128.00,0.0124
3127.00,0.0123
3126.00,0.0123
3125.00,0.0123
3124.00,0.0123
3123.00,0.0122
3122.00,0.0122
3121.00,0.0122
3120.00,0.0122
3119.00,0.0122
3118.00,0.0122
3117.00,0.0122
3116.00,0.0122
3115.00,0.0121
3114.00,0.0121
3113.00,0.0120
3112.00,0.0120
3111.00,0.0120
3110.00,0.0120
3109.00,0.0120
3108.00,0.0119
3107.00,0.0119
3106.00,0.0119
3105.00,0.0119
3104.00,0.0119
3103.00,0.0119
3102.00,0.0118
3101.00,0.0118
3100.00,0.0118
3099.00,0.0117
3098.00,0.0117
3097.00,0.0117
3096.00,0.0117
3095.00,0.0117
3094.00,0.0117
3093.00,0.0117
3092.00,0.0117
3091.00,0.0117
3090.00,0.0117
3089.00,0.0117
3088.00,0.0117
3087.00,0.0117
3086.00,0.0117
3085.00,0.0117
3084.00,0.0117
3083.00,0.0117
3082.00,0.0117
3081.00,0.0117
3080.00,0.0117
3079.00,0.0117
3078.00,0.0117
3077.00,0.0117
3076.00,0.0117
3075.00,0.0117
3074.00,0.0116
3073.00,0.0116
3072.00,0.0116
3071.00,0.0115
3070.00,0.0115
3069.00,0.0114
3068.00,0.0114
3067.00,0.0113
3066.00,0.0113
3065.00,0.0113
3064.00,0.0113
3063.00,0.0112
3062.00,0.0112
3061.00,0.0112
3060.00,0.0112
3059.00,0.0112
3058.00,0.0112
3057.00,0.0111
3056.00,0.0111
3055.00,0.0111
3054.00,0.0111
3053.00,0.0111
3052.00,0.0111
3051.00,0.0111
3050.00,0.0110
3049.00,0.0110
3048.00,0.0110
3047.00,0.0110
3046.00,0.0109
3045.00,0.0109
3044.00,0.0109
3043.00,0.0109
3042.00,0.0109
3041.00,0.0109
3040.00,0.0109
3039.00,0.0109
3038.00,0.0108
3037.00,0.0108
3036.00,0.0108
3035.00,0.0108
3034.00,0.0108
3033.00,0.0108
3032.00,0.0108
3031.00,0.0108
3030.00,0.0108
3029.00,0.0108
3028.00,0.0108
3027.00,0.0107
3026.00,0.0107
3025.00,0.0107
3024.00,0.0107
3023.00,0.0107
3022.00,0.0107
3021.00,0.0107
3020.00,0.0107
3019.00,0.0107
3018.00,0.0108
3017.00,0.0108
3016.00,0.0109
3015.00,0.0109
3014.00,0.0110
3013.00,0.0111
3012.00,0.0112
3011.00,0.0113
3010.00,0.0114
3009.00,0.0115
3008.00,0.0117
3007.00,0.0118
3006.00,0.0120
3005.00,0.0122
3004.00,0.0124
3003.00,0.0127
3002.00,0.0129
3001.00,0.0132
3000.00,0.0135
2999.00,0.0138
2998.00,0.0142
2997.00,0.0146
2996.00,0.0150
2995.00,0.0154
2994.00,0.0158
2993.00,0.0163
2992.00,0.0167
2991.00,0.0172
2990.00,0.0177
2989.00,0.0181
2988.00,0.0186
2987.00,0.0191
2986.00,0.0195
2985.00,0.0199
2984.00,0.0203
2983.00,0.0206
2982.00,0.0209
2981.00,0.0212
2980.00,0.0216
2979.00,0.0219
2978.00,0.0223
2977.00,0.0226
2976.00,0.0230
2975.00,0.0232
2974.00,0.0235
2973.00,0.0237
2972.00,0.0239
2971.00,0.0242
2970.00,0.0245
2969.00,0.0247
2968.00,0.0250
2967.00,0.0253
2966.00,0.0256
2965.00,0.0259
2964.00,0.0262
2963.00,0.0265
2962.00,0.0267
2961.00,0.0270
2960.00,0.0272
2959.00,0.0274
2958.00,0.0276
2957.00,0.0278
2956.00,0.0280
2955.00,0.0281
2954.00,0.0282
2953.00,0.0283
2952.00,0.0283
2951.00,0.0283
2950.00,0.0283
2949.00,0.0282
2948.00,0.0282
2947.00,0.0281
2946.00,0.0280
2945.00,0.0279
2944.00,0.0279
2943.00,0.0279
2942.00,0.0279
2941.00,0.0279
2940.00,0.0280
2939.00,0.0281
2938.00,0.0282
2937.00,0.0283
2936.00,0.0285
2935.00,0.0286
2934.00,0.0288
2933.00,0.0289
2932.00,0.0291
2931.00,0.0292
2930.00,0.0294
2929.00,0.0295
2928.00,0.0296
2927.00,0.0296
2926.00,0.0296
2925.00,0.0296
2924.00,0.0295
2923.00,0.0293
2922.00,0.0291
2921.00,0.0288
2920.00,0.0285
2919.00,0.0281
2918.00,0.0277
2917.00,0.0272
2916.00,0.0268
2915.00,0.0265
2914.00,0.0262
2913.00,0.0259
2912.00,0.0257
2911.00,0.0255
2910.00,0.0252
2909.00,0.0249
2908.00,0.0246
2907.00,0.0243
2906.00,0.0240
2905.00,0.0237
2904.00,0.0235
2903.00,0.0233
2902.00,0.0232
2901.00,0.0231
2900.00,0.0231
2899.00,0.0230
2898.00,0.0230
2897.00,0.0229
2896.00,0.0229
2895.00,0.0229
2894.00,0.0229
2893.00,0.0229
2892.00,0.0229
2891.00,0.0229
2890.00,0.0229
2889.00,0.0229
2888.00,0.0228
2887.00,0.0228
2886.00,0.0228
2885.00,0.0228
2884.00,0.0228
2883.00,0.0228
2882.00,0.0229
2881.00,0.0229
2880.00,0.0230
2879.00,0.0230
2878.00,0.0231
2877.00,0.0232
2876.00,0.0233
2875.00,0.0233
2874.00,0.0234
2873.00,0.0235
2872.00,0.0235
2871.00,0.0236
2870.00,0.0236
2869.00,0.0235
2868.00,0.0235
2867.00,0.0234
2866.00,0.0233
2865.00,0.0232
2864.00,0.0232
2863.00,0.0231
2862.00,0.0230
2861.00,0.0229
2860.00,0.0228
2859.00,0.0227
2858.00,0.0226
2857.00,0.0224
2856.00,0.0221
2855.00,0.0218
2854.00,0.0213
2853.00,0.0208
2852.00,0.0202
2851.00,0.0196
2850.00,0.0190
2849.00,0.0185
2848.00,0.0180
2847.00,0.0176
2846.00,0.0173
2845.00,0.0170
2844.00,0.0167
2843.00,0.0164
2842.00,0.0160
2841.00,0.0156
2840.00,0.0153
2839.00,0.0149
2838.00,0.0147
2837.00,0.0144
2836.00,0.0142
2835.00,0.0140
2834.00,0.0137
2833.00,0.0135
2832.00,0.0133
2831.00,0.0131
2830.00,0.0129
2829.00,0.0127
2828.00,0.0125
2827.00,0.0123
2826.00,0.0121
2825.00,0.0119
2824.00,0.0117
2823.00,0.0115
2822.00,0.0113
2821.00,0.0112
2820.00,0.0110
2819.00,0.0109
2818.00,0.0108
2817.00,0.0106
2816.00,0.0105
2815.00,0.0104
2814.00,0.0104
2813.00,0.0103
2812.00,0.0102
2811.00,0.0101
2810.00,0.0100
2809.00,0.0100
2808.00,0.0099
2807.00,0.0098
2806.00,0.0098
2805.00,0.0097
2804.00,0.0097
2803.00,0.0097
2802.00,0.0096
2801.00,0.0096
2800.00,0.0095
2799.00,0.0094
2798.00,0.0094
2797.00,0.0094
2796.00,0.0093
2795.00,0.0093
2794.00,0.0093
2793.00,0.0092
2792.00,0.0092
2791.00,0.0091
2790.00,0.0091
2789.00,0.0090
2788.00,0.0090
2787.00,0.0090
2786.00,0.0089
2785.00,0.0089
2784.00,0.0089
2783.00,0.0088
2782.00,0.0088
2781.00,0.0088
2780.00,0.0088
2779.00,0.0088
2778.00,0.0088
2777.00,0.0087
2776.00,0.0087
2775.00,0.0087
2774.00,0.0086
2773.00,0.0086
2772.00,0.0085
2771.00,0.0085
2770.00,0.0085
2769.00,0.0085
2768.00,0.0085
2767.00,0.0085
2766.00,0.0085
2765.00,0.0085
2764.00,0.0085
2763.00,0.0085
2762.00,0.0085
2761.00,0.0084
2760.00,0.0084
2759.00,0.0084
2758.00,0.0084
2757.00,0.0084
