Created as New Dataset,Sample 734 By YargerLab Date Thursday, June 26 2025
cm-1,A
4000.00,0.0006
3999.00,0.0006
3998.00,0.0006
3997.00,0.0006
3996.00,0.0006
3995.00,0.0006
3994.00,0.0006
3993.00,0.0006
3992.00,0.0006
3991.00,0.0006
3990.00,0.0006
3989.00,0.0006
3988.00,0.0006
3987.00,0.0006
3986.00,0.0006
3985.00,0.0006
3984.00,0.0005
3983.00,0.0005
3982.00,0.0005
3981.00,0.0006
3980.00,0.0006
3979.00,0.0006
3978.00,0.0006
3977.00,0.0006
3976.00,0.0006
3975.00,0.0006
3974.00,0.0006
3973.00,0.0006
3972.00,0.0006
3971.00,0.0006
3970.00,0.0006
3969.00,0.0006
3968.00,0.0006
3967.00,0.0006
3966.00,0.0006
3965.00,0.0006
3964.00,0.0006
3963.00,0.0006
3962.00,0.0005
3961.00,0.0005
3960.00,0.0005
3959.00,0.0005
3958.00,0.0005
3957.00,0.0005
3956.00,0.0005
3955.00,0.0005
3954.00,0.0005
3953.00,0.0005
3952.00,0.0006
3951.00,0.0006
3950.00,0.0006
3949.00,0.0006
3948.00,0.0006
3947.00,0.0006
3946.00,0.0005
3945.00,0.0005
3944.00,0.0005
3943.00,0.0005
3942.00,0.0005
3941.00,0.0006
3940.00,0.0006
3939.00,0.0005
3938.00,0.0005
3937.00,0.0005
3936.00,0.0005
3935.00,0.0005
3934.00,0.0005
3933.00,0.0005
3932.00,0.0005
3931.00,0.0005
3930.00,0.0005
3929.00,0.0005
3928.00,0.0005
3927.00,0.0005
3926.00,0.0005
3925.00,0.0006
3924.00,0.0006
3923.00,0.0006
3922.00,0.0006
3921.00,0.0005
3920.00,0.0005
3919.00,0.0005
3918.00,0.0005
3917.00,0.0005
3916.00,0.0005
3915.00,0.0005
3914.00,0.0005
3913.00,0.0005
3912.00,0.0005
3911.00,0.0005
3910.00,0.0005
3909.00,0.0005
3908.00,0.0005
3907.00,0.0004
3906.00,0.0004
3905.00,0.0004
3904.00,0.0004
3903.00,0.0004
3902.00,0.0004
3901.00,0.0004
3900.00,0.0004
3899.00,0.0004
3898.00,0.0004
3897.00,0.0005
3896.00,0.0005
3895.00,0.0005
3894.00,0.0005
3893.00,0.0005
3892.00,0.0005
3891.00,0.0005
3890.00,0.0005
3889.00,0.0004
3888.00,0.0004
3887.00,0.0004
3886.00,0.0004
3885.00,0.0004
3884.00,0.0004
3883.00,0.0004
3882.00,0.0004
3881.00,0.0004
3880.00,0.0004
3879.00,0.0004
3878.00,0.0004
3877.00,0.0004
3876.00,0.0004
3875.00,0.0004
3874.00,0.0005
3873.00,0.0005
3872.00,0.0004
3871.00,0.0004
3870.00,0.0004
3869.00,0.0004
3868.00,0.0005
3867.00,0.0004
3866.00,0.0004
3865.00,0.0005
3864.00,0.0005
3863.00,0.0005
3862.00,0.0004
3861.00,0.0004
3860.00,0.0004
3859.00,0.0004
3858.00,0.0003
3857.00,0.0003
3856.00,0.0003
3855.00,0.0002
3854.00,0.0003
3853.00,0.0003
3852.00,0.0003
3851.00,0.0003
3850.00,0.0003
3849.00,0.0003
3848.00,0.0004
3847.00,0.0004
3846.00,0.0005
3845.00,0.0005
3844.00,0.0005
3843.00,0.0005
3842.00,0.0005
3841.00,0.0005
3840.00,0.0004
3839.00,0.0004
3838.00,0.0004
3837.00,0.0004
3836.00,0.0005
3835.00,0.0005
3834.00,0.0005
3833.00,0.0005
3832.00,0.0005
3831.00,0.0005
3830.00,0.0005
3829.00,0.0005
3828.00,0.0005
3827.00,0.0005
3826.00,0.0005
3825.00,0.0005
3824.00,0.0005
3823.00,0.0004
3822.00,0.0004
3821.00,0.0004
3820.00,0.0004
3819.00,0.0004
3818.00,0.0004
3817.00,0.0004
3816.00,0.0004
3815.00,0.0005
3814.00,0.0005
3813.00,0.0005
3812.00,0.0005
3811.00,0.0005
3810.00,0.0005
3809.00,0.0005
3808.00,0.0005
3807.00,0.0005
3806.00,0.0005
3805.00,0.0004
3804.00,0.0004
3803.00,0.0004
3802.00,0.0004
3801.00,0.0004
3800.00,0.0005
3799.00,0.0005
3798.00,0.0005
3797.00,0.0005
3796.00,0.0005
3795.00,0.0005
3794.00,0.0006
3793.00,0.0006
3792.00,0.0006
3791.00,0.0006
3790.00,0.0006
3789.00,0.0006
3788.00,0.0006
3787.00,0.0005
3786.00,0.0005
3785.00,0.0005
3784.00,0.0005
3783.00,0.0005
3782.00,0.0005
3781.00,0.0005
3780.00,0.0005
3779.00,0.0005
3778.00,0.0005
3777.00,0.0006
3776.00,0.0006
3775.00,0.0006
3774.00,0.0006
3773.00,0.0006
3772.00,0.0006
3771.00,0.0006
3770.00,0.0006
3769.00,0.0006
3768.00,0.0006
3767.00,0.0005
3766.00,0.0005
3765.00,0.0006
3764.00,0.0006
3763.00,0.0006
3762.00,0.0006
3761.00,0.0006
3760.00,0.0006
3759.00,0.0006
3758.00,0.0006
3757.00,0.0005
3756.00,0.0005
3755.00,0.0005
3754.00,0.0004
3753.00,0.0004
3752.00,0.0004
3751.00,0.0004
3750.00,0.0004
3749.00,0.0004
3748.00,0.0004
3747.00,0.0003
3746.00,0.0003
3745.00,0.0003
3744.00,0.0004
3743.00,0.0004
3742.00,0.0004
3741.00,0.0004
3740.00,0.0004
3739.00,0.0004
3738.00,0.0004
3737.00,0.0004
3736.00,0.0003
3735.00,0.0003
3734.00,0.0003
3733.00,0.0003
3732.00,0.0003
3731.00,0.0003
3730.00,0.0004
3729.00,0.0004
3728.00,0.0004
3727.00,0.0004
3726.00,0.0004
3725.00,0.0004
3724.00,0.0004
3723.00,0.0005
3722.00,0.0005
3721.00,0.0005
3720.00,0.0005
3719.00,0.0005
3718.00,0.0005
3717.00,0.0005
3716.00,0.0005
3715.00,0.0005
3714.00,0.0004
3713.00,0.0004
3712.00,0.0005
3711.00,0.0005
3710.00,0.0005
3709.00,0.0005
3708.00,0.0005
3707.00,0.0005
3706.00,0.0005
3705.00,0.0005
3704.00,0.0005
3703.00,0.0005
3702.00,0.0005
3701.00,0.0005
3700.00,0.0005
3699.00,0.0005
3698.00,0.0005
3697.00,0.0005
3696.00,0.0005
3695.00,0.0005
3694.00,0.0005
3693.00,0.0005
3692.00,0.0005
3691.00,0.0005
3690.00,0.0005
3689.00,0.0005
3688.00,0.0005
3687.00,0.0005
3686.00,0.0006
3685.00,0.0006
3684.00,0.0007
3683.00,0.0007
3682.00,0.0007
3681.00,0.0006
3680.00,0.0006
3679.00,0.0006
3678.00,0.0006
3677.00,0.0005
3676.00,0.0006
3675.00,0.0006
3674.00,0.0006
3673.00,0.0006
3672.00,0.0006
3671.00,0.0006
3670.00,0.0006
3669.00,0.0007
3668.00,0.0007
3667.00,0.0008
3666.00,0.0008
3665.00,0.0009
3664.00,0.0009
3663.00,0.0010
3662.00,0.0010
3661.00,0.0010
3660.00,0.0010
3659.00,0.0010
3658.00,0.0010
3657.00,0.0010
3656.00,0.0010
3655.00,0.0011
3654.00,0.0011
3653.00,0.0011
3652.00,0.0011
3651.00,0.0012
3650.00,0.0012
3649.00,0.0012
3648.00,0.0012
3647.00,0.0012
3646.00,0.0012
3645.00,0.0013
3644.00,0.0013
3643.00,0.0014
3642.00,0.0014
3641.00,0.0015
3640.00,0.0015
3639.00,0.0015
3638.00,0.0016
3637.00,0.0016
3636.00,0.0016
3635.00,0.0016
3634.00,0.0016
3633.00,0.0016
3632.00,0.0017
3631.00,0.0017
3630.00,0.0017
3629.00,0.0018
3628.00,0.0018
3627.00,0.0018
3626.00,0.0019
3625.00,0.0019
3624.00,0.0019
3623.00,0.0020
3622.00,0.0020
3621.00,0.0021
3620.00,0.0021
3619.00,0.0021
3618.00,0.0022
3617.00,0.0022
3616.00,0.0022
3615.00,0.0023
3614.00,0.0023
3613.00,0.0023
3612.00,0.0024
3611.00,0.0024
3610.00,0.0024
3609.00,0.0025
3608.00,0.0025
3607.00,0.0026
3606.00,0.0026
3605.00,0.0026
3604.00,0.0026
3603.00,0.0027
3602.00,0.0027
3601.00,0.0028
3600.00,0.0028
3599.00,0.0029
3598.00,0.0029
3597.00,0.0030
3596.00,0.0030
3595.00,0.0031
3594.00,0.0031
3593.00,0.0031
3592.00,0.0032
3591.00,0.0032
3590.00,0.0032
3589.00,0.0032
3588.00,0.0032
3587.00,0.0032
3586.00,0.0033
3585.00,0.0033
3584.00,0.0034
3583.00,0.0034
3582.00,0.0035
3581.00,0.0036
3580.00,0.0036
3579.00,0.0037
3578.00,0.0037
3577.00,0.0037
3576.00,0.0038
3575.00,0.0038
3574.00,0.0039
3573.00,0.0039
3572.00,0.0039
3571.00,0.0040
3570.00,0.0040
3569.00,0.0040
3568.00,0.0041
3567.00,0.0041
3566.00,0.0041
3565.00,0.0042
3564.00,0.0043
3563.00,0.0043
3562.00,0.0044
3561.00,0.0045
3560.00,0.0045
3559.00,0.0045
3558.00,0.0046
3557.00,0.0046
3556.00,0.0047
3555.00,0.0047
3554.00,0.0048
3553.00,0.0048
3552.00,0.0048
3551.00,0.0048
3550.00,0.0049
3549.00,0.0049
3548.00,0.0050
3547.00,0.0050
3546.00,0.0051
3545.00,0.0051
3544.00,0.0052
3543.00,0.0052
3542.00,0.0053
3541.00,0.0053
3540.00,0.0054
3539.00,0.0054
3538.00,0.0055
3537.00,0.0055
3536.00,0.0055
3535.00,0.0056
3534.00,0.0056
3533.00,0.0057
3532.00,0.0057
3531.00,0.0057
3530.00,0.0058
3529.00,0.0058
3528.00,0.0058
3527.00,0.0059
3526.00,0.0059
3525.00,0.0060
3524.00,0.0060
3523.00,0.0061
3522.00,0.0061
3521.00,0.0061
3520.00,0.0062
3519.00,0.0062
3518.00,0.0063
3517.00,0.0063
3516.00,0.0064
3515.00,0.0064
3514.00,0.0064
3513.00,0.0065
3512.00,0.0065
3511.00,0.0066
3510.00,0.0066
3509.00,0.0067
3508.00,0.0067
3507.00,0.0068
3506.00,0.0068
3505.00,0.0068
3504.00,0.0069
3503.00,0.0069
3502.00,0.0069
3501.00,0.0070
3500.00,0.0070
3499.00,0.0070
3498.00,0.0071
3497.00,0.0071
3496.00,0.0072
3495.00,0.0072
3494.00,0.0073
3493.00,0.0073
3492.00,0.0074
3491.00,0.0074
3490.00,0.0074
3489.00,0.0075
3488.00,0.0076
3487.00,0.0076
3486.00,0.0077
3485.00,0.0077
3484.00,0.0078
3483.00,0.0078
3482.00,0.0079
3481.00,0.0079
3480.00,0.0079
3479.00,0.0079
3478.00,0.0080
3477.00,0.0080
3476.00,0.0081
3475.00,0.0081
3474.00,0.0081
3473.00,0.0082
3472.00,0.0082
3471.00,0.0083
3470.00,0.0083
3469.00,0.0083
3468.00,0.0084
3467.00,0.0084
3466.00,0.0085
3465.00,0.0086
3464.00,0.0086
3463.00,0.0086
3462.00,0.0087
3461.00,0.0087
3460.00,0.0088
3459.00,0.0088
3458.00,0.0089
3457.00,0.0089
3456.00,0.0090
3455.00,0.0090
3454.00,0.0091
3453.00,0.0091
3452.00,0.0091
3451.00,0.0092
3450.00,0.0092
3449.00,0.0093
3448.00,0.0094
3447.00,0.0094
3446.00,0.0094
3445.00,0.0095
3444.00,0.0095
3443.00,0.0095
3442.00,0.0096
3441.00,0.0096
3440.00,0.0097
3439.00,0.0097
3438.00,0.0098
3437.00,0.0099
3436.00,0.0099
3435.00,0.0100
3434.00,0.0100
3433.00,0.0101
3432.00,0.0101
3431.00,0.0102
3430.00,0.0102
3429.00,0.0103
3428.00,0.0103
3427.00,0.0104
3426.00,0.0104
3425.00,0.0105
3424.00,0.0105
3423.00,0.0105
3422.00,0.0106
3421.00,0.0106
3420.00,0.0107
3419.00,0.0108
3418.00,0.0108
3417.00,0.0109
3416.00,0.0109
3415.00,0.0110
3414.00,0.0110
3413.00,0.0111
3412.00,0.0111
3411.00,0.0112
3410.00,0.0112
3409.00,0.0113
3408.00,0.0113
3407.00,0.0114
3406.00,0.0115
3405.00,0.0115
3404.00,0.0115
3403.00,0.0116
3402.00,0.0116
3401.00,0.0117
3400.00,0.0117
3399.00,0.0118
3398.00,0.0118
3397.00,0.0119
3396.00,0.0119
3395.00,0.0120
3394.00,0.0120
3393.00,0.0120
3392.00,0.0121
3391.00,0.0121
3390.00,0.0122
3389.00,0.0122
3388.00,0.0123
3387.00,0.0123
3386.00,0.0123
3385.00,0.0124
3384.00,0.0125
3383.00,0.0125
3382.00,0.0126
3381.00,0.0127
3380.00,0.0128
3379.00,0.0128
3378.00,0.0129
3377.00,0.0129
3376.00,0.0130
3375.00,0.0131
3374.00,0.0131
3373.00,0.0132
3372.00,0.0133
3371.00,0.0133
3370.00,0.0134
3369.00,0.0134
3368.00,0.0135
3367.00,0.0136
3366.00,0.0136
3365.00,0.0137
3364.00,0.0138
3363.00,0.0138
3362.00,0.0139
3361.00,0.0140
3360.00,0.0141
3359.00,0.0142
3358.00,0.0143
3357.00,0.0144
3356.00,0.0144
3355.00,0.0145
3354.00,0.0145
3353.00,0.0146
3352.00,0.0146
3351.00,0.0147
3350.00,0.0148
3349.00,0.0149
3348.00,0.0149
3347.00,0.0150
3346.00,0.0151
3345.00,0.0152
3344.00,0.0153
3343.00,0.0154
3342.00,0.0155
3341.00,0.0156
3340.00,0.0157
3339.00,0.0158
3338.00,0.0159
3337.00,0.0160
3336.00,0.0161
3335.00,0.0162
3334.00,0.0163
3333.00,0.0164
3332.00,0.0165
3331.00,0.0166
3330.00,0.0167
3329.00,0.0168
3328.00,0.0169
3327.00,0.0170
3326.00,0.0172
3325.00,0.0173
3324.00,0.0174
3323.00,0.0175
3322.00,0.0176
3321.00,0.0177
3320.00,0.0179
3319.00,0.0180
3318.00,0.0181
3317.00,0.0183
3316.00,0.0184
3315.00,0.0185
3314.00,0.0187
3313.00,0.0188
3312.00,0.0189
3311.00,0.0190
3310.00,0.0191
3309.00,0.0192
3308.00,0.0194
3307.00,0.0195
3306.00,0.0197
3305.00,0.0198
3304.00,0.0200
3303.00,0.0202
3302.00,0.0203
3301.00,0.0205
3300.00,0.0207
3299.00,0.0208
3298.00,0.0209
3297.00,0.0210
3296.00,0.0211
3295.00,0.0213
3294.00,0.0214
3293.00,0.0216
3292.00,0.0217
3291.00,0.0219
3290.00,0.0220
3289.00,0.0222
3288.00,0.0223
3287.00,0.0225
3286.00,0.0226
3285.00,0.0227
3284.00,0.0228
3283.00,0.0229
3282.00,0.0230
3281.00,0.0231
3280.00,0.0231
3279.00,0.0232
3278.00,0.0232
3277.00,0.0233
3276.00,0.0233
3275.00,0.0233
3274.00,0.0233
3273.00,0.0233
3272.00,0.0232
3271.00,0.0232
3270.00,0.0232
3269.00,0.0232
3268.00,0.0231
3267.00,0.0231
3266.00,0.0231
3265.00,0.0230
3264.00,0.0229
3263.00,0.0228
3262.00,0.0227
3261.00,0.0226
3260.00,0.0224
3259.00,0.0223
3258.00,0.0222
3257.00,0.0220
3256.00,0.0219
3255.00,0.0218
3254.00,0.0217
3253.00,0.0215
3252.00,0.0214
3251.00,0.0213
3250.00,0.0211
3249.00,0.0210
3248.00,0.0209
3247.00,0.0207
3246.00,0.0206
3245.00,0.0205
3244.00,0.0204
3243.00,0.0203
3242.00,0.0201
3241.00,0.0200
3240.00,0.0199
3239.00,0.0198
3238.00,0.0196
3237.00,0.0195
3236.00,0.0193
3235.00,0.0192
3234.00,0.0191
3233.00,0.0189
3232.00,0.0189
3231.00,0.0188
3230.00,0.0187
3229.00,0.0187
3228.00,0.0186
3227.00,0.0184
3226.00,0.0183
3225.00,0.0182
3224.00,0.0181
3223.00,0.0180
3222.00,0.0180
3221.00,0.0179
3220.00,0.0178
3219.00,0.0177
3218.00,0.0176
3217.00,0.0175
3216.00,0.0174
3215.00,0.0174
3214.00,0.0173
3213.00,0.0172
3212.00,0.0171
3211.00,0.0170
3210.00,0.0170
3209.00,0.0169
3208.00,0.0168
3207.00,0.0167
3206.00,0.0166
3205.00,0.0166
3204.00,0.0165
3203.00,0.0164
3202.00,0.0163
3201.00,0.0162
3200.00,0.0162
3199.00,0.0161
3198.00,0.0160
3197.00,0.0159
3196.00,0.0158
3195.00,0.0157
3194.00,0.0157
3193.00,0.0156
3192.00,0.0155
3191.00,0.0154
3190.00,0.0153
3189.00,0.0152
3188.00,0.0152
3187.00,0.0151
3186.00,0.0150
3185.00,0.0150
3184.00,0.0149
3183.00,0.0148
3182.00,0.0148
3181.00,0.0147
3180.00,0.0146
3179.00,0.0146
3178.00,0.0145
3177.00,0.0144
3176.00,0.0143
3175.00,0.0143
3174.00,0.0142
3173.00,0.0141
3172.00,0.0141
3171.00,0.0140
3170.00,0.0139
3169.00,0.0139
3168.00,0.0138
3167.00,0.0137
3166.00,0.0136
3165.00,0.0135
3164.00,0.0135
3163.00,0.0134
3162.00,0.0134
3161.00,0.0133
3160.00,0.0132
3159.00,0.0132
3158.00,0.0131
3157.00,0.0130
3156.00,0.0130
3155.00,0.0129
3154.00,0.0128
3153.00,0.0128
3152.00,0.0127
3151.00,0.0127
3150.00,0.0126
3149.00,0.0126
3148.00,0.0125
3147.00,0.0125
3146.00,0.0125
3145.00,0.0124
3144.00,0.0123
3143.00,0.0122
3142.00,0.0122
3141.00,0.0121
3140.00,0.0121
3139.00,0.0121
3138.00,0.0121
3137.00,0.0120
3136.00,0.0120
3135.00,0.0120
3134.00,0.0120
3133.00,0.0119
3132.00,0.0119
3131.00,0.0119
3130.00,0.0118
3129.00,0.0118
3128.00,0.0118
3127.00,0.0117
3126.00,0.0117
3125.00,0.0117
3124.00,0.0117
3123.00,0.0116
3122.00,0.0115
3121.00,0.0115
3120.00,0.0115
3119.00,0.0115
3118.00,0.0115
3117.00,0.0115
3116.00,0.0115
3115.00,0.0115
3114.00,0.0115
3113.00,0.0115
3112.00,0.0116
3111.00,0.0116
3110.00,0.0116
3109.00,0.0116
3108.00,0.0116
3107.00,0.0116
3106.00,0.0116
3105.00,0.0117
3104.00,0.0117
3103.00,0.0117
3102.00,0.0117
3101.00,0.0117
3100.00,0.0117
3099.00,0.0118
3098.00,0.0118
3097.00,0.0119
3096.00,0.0119
3095.00,0.0119
3094.00,0.0120
3093.00,0.0119
3092.00,0.0119
3091.00,0.0120
3090.00,0.0120
3089.00,0.0120
3088.00,0.0121
3087.00,0.0120
3086.00,0.0120
3085.00,0.0120
3084.00,0.0120
3083.00,0.0121
3082.00,0.0121
3081.00,0.0121
3080.00,0.0121
3079.00,0.0121
3078.00,0.0121
3077.00,0.0121
3076.00,0.0121
3075.00,0.0121
3074.00,0.0122
3073.00,0.0122
3072.00,0.0122
3071.00,0.0122
3070.00,0.0121
3069.00,0.0121
3068.00,0.0120
3067.00,0.0120
3066.00,0.0120
3065.00,0.0120
3064.00,0.0119
3063.00,0.0119
3062.00,0.0119
3061.00,0.0118
3060.00,0.0118
3059.00,0.0118
3058.00,0.0117
3057.00,0.0116
3056.00,0.0115
3055.00,0.0115
3054.00,0.0114
3053.00,0.0114
3052.00,0.0113
3051.00,0.0112
3050.00,0.0112
3049.00,0.0111
3048.00,0.0111
3047.00,0.0110
3046.00,0.0110
3045.00,0.0109
3044.00,0.0108
3043.00,0.0107
3042.00,0.0107
3041.00,0.0106
3040.00,0.0106
3039.00,0.0106
3038.00,0.0105
3037.00,0.0105
3036.00,0.0104
3035.00,0.0103
3034.00,0.0103
3033.00,0.0103
3032.00,0.0102
3031.00,0.0102
3030.00,0.0102
3029.00,0.0102
3028.00,0.0101
3027.00,0.0100
3026.00,0.0100
3025.00,0.0099
3024.00,0.0098
3023.00,0.0098
3022.00,0.0097
3021.00,0.0097
3020.00,0.0096
3019.00,0.0096
3018.00,0.0095
3017.00,0.0095
3016.00,0.0094
3015.00,0.0094
3014.00,0.0093
3013.00,0.0093
3012.00,0.0092
3011.00,0.0092
3010.00,0.0092
3009.00,0.0092
3008.00,0.0092
3007.00,0.0092
3006.00,0.0091
3005.00,0.0091
3004.00,0.0091
3003.00,0.0091
3002.00,0.0090
3001.00,0.0090
3000.00,0.0090
2999.00,0.0090
2998.00,0.0090
2997.00,0.0090
2996.00,0.0091
2995.00,0.0091
2994.00,0.0091
2993.00,0.0092
2992.00,0.0092
2991.00,0.0093
2990.00,0.0094
2989.00,0.0095
2988.00,0.0097
2987.00,0.0097
2986.00,0.0098
2985.00,0.0099
2984.00,0.0100
2983.00,0.0100
2982.00,0.0101
2981.00,0.0102
2980.00,0.0103
2979.00,0.0105
2978.00,0.0107
2977.00,0.0108
2976.00,0.0110
2975.00,0.0112
2974.00,0.0114
2973.00,0.0115
2972.00,0.0116
2971.00,0.0118
2970.00,0.0119
2969.00,0.0121
2968.00,0.0123
2967.00,0.0124
2966.00,0.0125
2965.00,0.0126
2964.00,0.0127
2963.00,0.0128
2962.00,0.0128
2961.00,0.0128
2960.00,0.0128
2959.00,0.0128
2958.00,0.0127
2957.00,0.0126
2956.00,0.0126
2955.00,0.0125
2954.00,0.0124
2953.00,0.0123
2952.00,0.0122
2951.00,0.0121
2950.00,0.0120
2949.00,0.0120
2948.00,0.0120
2947.00,0.0120
2946.00,0.0120
2945.00,0.0121
2944.00,0.0121
2943.00,0.0122
2942.00,0.0123
2941.00,0.0124
2940.00,0.0125
2939.00,0.0126
2938.00,0.0127
2937.00,0.0128
2936.00,0.0129
2935.00,0.0130
2934.00,0.0130
2933.00,0.0131
2932.00,0.0131
2931.00,0.0131
2930.00,0.0131
2929.00,0.0131
2928.00,0.0131
2927.00,0.0131
2926.00,0.0131
2925.00,0.0130
2924.00,0.0129
2923.00,0.0129
2922.00,0.0128
2921.00,0.0127
2920.00,0.0126
2919.00,0.0124
2918.00,0.0123
2917.00,0.0122
2916.00,0.0120
2915.00,0.0118
2914.00,0.0117
2913.00,0.0115
2912.00,0.0114
2911.00,0.0113
2910.00,0.0111
2909.00,0.0110
2908.00,0.0109
2907.00,0.0107
2906.00,0.0106
2905.00,0.0105
2904.00,0.0104
2903.00,0.0103
2902.00,0.0103
2901.00,0.0102
2900.00,0.0101
2899.00,0.0100
2898.00,0.0099
2897.00,0.0099
2896.00,0.0098
2895.00,0.0097
2894.00,0.0097
2893.00,0.0096
2892.00,0.0095
2891.00,0.0095
2890.00,0.0095
2889.00,0.0095
2888.00,0.0095
2887.00,0.0095
2886.00,0.0095
2885.00,0.0095
2884.00,0.0096
2883.00,0.0096
2882.00,0.0097
2881.00,0.0097
2880.00,0.0098
2879.00,0.0098
2878.00,0.0099
2877.00,0.0100
2876.00,0.0100
2875.00,0.0100
2874.00,0.0099
2873.00,0.0099
2872.00,0.0099
2871.00,0.0098
2870.00,0.0097
2869.00,0.0096
2868.00,0.0095
2867.00,0.0094
2866.00,0.0093
2865.00,0.0092
2864.00,0.0091
2863.00,0.0090
2862.00,0.0090
2861.00,0.0089
2860.00,0.0089
2859.00,0.0089
2858.00,0.0088
2857.00,0.0088
2856.00,0.0088
2855.00,0.0087
2854.00,0.0087
2853.00,0.0086
2852.00,0.0086
2851.00,0.0085
2850.00,0.0084
2849.00,0.0083
2848.00,0.0082
2847.00,0.0080
2846.00,0.0079
2845.00,0.0077
2844.00,0.0076
2843.00,0.0075
2842.00,0.0074
2841.00,0.0073
2840.00,0.0072
2839.00,0.0071
2838.00,0.0071
2837.00,0.0070
2836.00,0.0070
2835.00,0.0069
2834.00,0.0069
2833.00,0.0068
2832.00,0.0068
2831.00,0.0068
2830.00,0.0068
2829.00,0.0067
2828.00,0.0067
2827.00,0.0067
2826.00,0.0066
2825.00,0.0066
2824.00,0.0066
2823.00,0.0066
2822.00,0.0065
2821.00,0.0065
2820.00,0.0065
2819.00,0.0065
2818.00,0.0065
2817.00,0.0065
2816.00,0.0064
2815.00,0.0064
2814.00,0.0064
2813.00,0.0064
2812.00,0.0063
2811.00,0.0063
2810.00,0.0063
2809.00,0.0063
2808.00,0.0063
2807.00,0.0063
2806.00,0.0063
2805.00,0.0062
2804.00,0.0062
2803.00,0.0062
2802.00,0.0062
2801.00,0.0061
2800.00,0.0061
2799.00,0.0061
2798.00,0.0061
2797.00,0.0060
2796.00,0.0060
2795.00,0.0060
2794.00,0.0060
2793.00,0.0060
2792.00,0.0060
2791.00,0.0059
2790.00,0.0059
2789.00,0.0059
2788.00,0.0059
2787.00,0.0058
2786.00,0.0058
2785.00,0.0058
2784.00,0.0058
2783.00,0.0058
2782.00,0.0058
2781.00,0.0058
2780.00,0.0058
2779.00,0.0057
2778.00,0.0057
2777.00,0.0056
2776.00,0.0056
2775.00,0.0056
2774.00,0.0056
2773.00,0.0056
2772.00,0.0056
2771.00,0.0056
2770.00,0.0056
2769.00,0.0055
2768.00,0.0055
2767.00,0.0054
2766.00,0.0054
2765.00,0.0054
2764.00,0.0054
2763.00,0.0054
2762.00,0.0054
2761.00,0.0054
2760.00,0.0053
2759.00,0.0053
2758.00,0.0053
2757.00,0.0052
