Created as New Dataset,Sample 005 By YargerLab Date Wednesday, August 06 2025
cm-1,A
4000.00,0.0007
3999.00,0.0007
3998.00,0.0007
3997.00,0.0007
3996.00,0.0007
3995.00,0.0007
3994.00,0.0007
3993.00,0.0007
3992.00,0.0006
3991.00,0.0006
3990.00,0.0006
3989.00,0.0006
3988.00,0.0007
3987.00,0.0007
3986.00,0.0007
3985.00,0.0007
3984.00,0.0007
3983.00,0.0007
3982.00,0.0007
3981.00,0.0007
3980.00,0.0007
3979.00,0.0007
3978.00,0.0007
3977.00,0.0007
3976.00,0.0007
3975.00,0.0007
3974.00,0.0007
3973.00,0.0007
3972.00,0.0006
3971.00,0.0006
3970.00,0.0007
3969.00,0.0007
3968.00,0.0007
3967.00,0.0007
3966.00,0.0007
3965.00,0.0007
3964.00,0.0006
3963.00,0.0006
3962.00,0.0006
3961.00,0.0006
3960.00,0.0007
3959.00,0.0007
3958.00,0.0007
3957.00,0.0007
3956.00,0.0007
3955.00,0.0007
3954.00,0.0007
3953.00,0.0007
3952.00,0.0007
3951.00,0.0007
3950.00,0.0007
3949.00,0.0006
3948.00,0.0006
3947.00,0.0006
3946.00,0.0006
3945.00,0.0006
3944.00,0.0006
3943.00,0.0006
3942.00,0.0006
3941.00,0.0006
3940.00,0.0006
3939.00,0.0006
3938.00,0.0007
3937.00,0.0006
3936.00,0.0006
3935.00,0.0006
3934.00,0.0006
3933.00,0.0006
3932.00,0.0006
3931.00,0.0006
3930.00,0.0006
3929.00,0.0006
3928.00,0.0006
3927.00,0.0006
3926.00,0.0006
3925.00,0.0006
3924.00,0.0006
3923.00,0.0006
3922.00,0.0006
3921.00,0.0006
3920.00,0.0006
3919.00,0.0005
3918.00,0.0006
3917.00,0.0006
3916.00,0.0006
3915.00,0.0006
3914.00,0.0006
3913.00,0.0007
3912.00,0.0007
3911.00,0.0007
3910.00,0.0007
3909.00,0.0006
3908.00,0.0006
3907.00,0.0005
3906.00,0.0005
3905.00,0.0004
3904.00,0.0004
3903.00,0.0003
3902.00,0.0003
3901.00,0.0003
3900.00,0.0004
3899.00,0.0005
3898.00,0.0005
3897.00,0.0005
3896.00,0.0005
3895.00,0.0005
3894.00,0.0005
3893.00,0.0005
3892.00,0.0005
3891.00,0.0005
3890.00,0.0005
3889.00,0.0005
3888.00,0.0004
3887.00,0.0004
3886.00,0.0005
3885.00,0.0005
3884.00,0.0004
3883.00,0.0004
3882.00,0.0004
3881.00,0.0004
3880.00,0.0005
3879.00,0.0005
3878.00,0.0004
3877.00,0.0004
3876.00,0.0004
3875.00,0.0005
3874.00,0.0005
3873.00,0.0005
3872.00,0.0004
3871.00,0.0004
3870.00,0.0004
3869.00,0.0004
3868.00,0.0004
3867.00,0.0004
3866.00,0.0004
3865.00,0.0004
3864.00,0.0005
3863.00,0.0005
3862.00,0.0005
3861.00,0.0005
3860.00,0.0005
3859.00,0.0005
3858.00,0.0005
3857.00,0.0004
3856.00,0.0004
3855.00,0.0004
3854.00,0.0004
3853.00,0.0004
3852.00,0.0003
3851.00,0.0003
3850.00,0.0004
3849.00,0.0004
3848.00,0.0005
3847.00,0.0005
3846.00,0.0005
3845.00,0.0005
3844.00,0.0005
3843.00,0.0005
3842.00,0.0005
3841.00,0.0004
3840.00,0.0004
3839.00,0.0004
3838.00,0.0004
3837.00,0.0004
3836.00,0.0004
3835.00,0.0004
3834.00,0.0005
3833.00,0.0005
3832.00,0.0006
3831.00,0.0006
3830.00,0.0006
3829.00,0.0006
3828.00,0.0006
3827.00,0.0006
3826.00,0.0006
3825.00,0.0006
3824.00,0.0005
3823.00,0.0005
3822.00,0.0004
3821.00,0.0004
3820.00,0.0004
3819.00,0.0004
3818.00,0.0004
3817.00,0.0005
3816.00,0.0005
3815.00,0.0006
3814.00,0.0006
3813.00,0.0006
3812.00,0.0007
3811.00,0.0007
3810.00,0.0007
3809.00,0.0006
3808.00,0.0006
3807.00,0.0006
3806.00,0.0006
3805.00,0.0005
3804.00,0.0004
3803.00,0.0004
3802.00,0.0005
3801.00,0.0005
3800.00,0.0005
3799.00,0.0004
3798.00,0.0005
3797.00,0.0005
3796.00,0.0006
3795.00,0.0006
3794.00,0.0006
3793.00,0.0007
3792.00,0.0007
3791.00,0.0007
3790.00,0.0007
3789.00,0.0007
3788.00,0.0007
3787.00,0.0007
3786.00,0.0007
3785.00,0.0007
3784.00,0.0007
3783.00,0.0007
3782.00,0.0006
3781.00,0.0007
3780.00,0.0007
3779.00,0.0007
3778.00,0.0007
3777.00,0.0007
3776.00,0.0007
3775.00,0.0007
3774.00,0.0007
3773.00,0.0007
3772.00,0.0007
3771.00,0.0007
3770.00,0.0007
3769.00,0.0006
3768.00,0.0006
3767.00,0.0006
3766.00,0.0006
3765.00,0.0006
3764.00,0.0006
3763.00,0.0006
3762.00,0.0006
3761.00,0.0006
3760.00,0.0006
3759.00,0.0006
3758.00,0.0006
3757.00,0.0006
3756.00,0.0006
3755.00,0.0006
3754.00,0.0005
3753.00,0.0005
3752.00,0.0004
3751.00,0.0003
3750.00,0.0003
3749.00,0.0002
3748.00,0.0002
3747.00,0.0001
3746.00,0.0001
3745.00,0.0002
3744.00,0.0003
3743.00,0.0003
3742.00,0.0004
3741.00,0.0004
3740.00,0.0004
3739.00,0.0004
3738.00,0.0003
3737.00,0.0003
3736.00,0.0003
3735.00,0.0003
3734.00,0.0003
3733.00,0.0003
3732.00,0.0004
3731.00,0.0004
3730.00,0.0005
3729.00,0.0005
3728.00,0.0005
3727.00,0.0005
3726.00,0.0005
3725.00,0.0005
3724.00,0.0005
3723.00,0.0005
3722.00,0.0005
3721.00,0.0005
3720.00,0.0005
3719.00,0.0006
3718.00,0.0006
3717.00,0.0006
3716.00,0.0006
3715.00,0.0006
3714.00,0.0005
3713.00,0.0005
3712.00,0.0005
3711.00,0.0005
3710.00,0.0005
3709.00,0.0005
3708.00,0.0006
3707.00,0.0006
3706.00,0.0006
3705.00,0.0006
3704.00,0.0006
3703.00,0.0006
3702.00,0.0007
3701.00,0.0007
3700.00,0.0007
3699.00,0.0007
3698.00,0.0007
3697.00,0.0007
3696.00,0.0006
3695.00,0.0006
3694.00,0.0006
3693.00,0.0006
3692.00,0.0006
3691.00,0.0006
3690.00,0.0006
3689.00,0.0006
3688.00,0.0006
3687.00,0.0006
3686.00,0.0006
3685.00,0.0007
3684.00,0.0007
3683.00,0.0008
3682.00,0.0008
3681.00,0.0008
3680.00,0.0008
3679.00,0.0008
3678.00,0.0007
3677.00,0.0007
3676.00,0.0007
3675.00,0.0006
3674.00,0.0006
3673.00,0.0005
3672.00,0.0006
3671.00,0.0006
3670.00,0.0007
3669.00,0.0008
3668.00,0.0008
3667.00,0.0009
3666.00,0.0009
3665.00,0.0010
3664.00,0.0011
3663.00,0.0012
3662.00,0.0012
3661.00,0.0012
3660.00,0.0012
3659.00,0.0012
3658.00,0.0012
3657.00,0.0012
3656.00,0.0012
3655.00,0.0012
3654.00,0.0011
3653.00,0.0011
3652.00,0.0011
3651.00,0.0011
3650.00,0.0011
3649.00,0.0011
3648.00,0.0010
3647.00,0.0010
3646.00,0.0011
3645.00,0.0012
3644.00,0.0014
3643.00,0.0015
3642.00,0.0016
3641.00,0.0016
3640.00,0.0017
3639.00,0.0017
3638.00,0.0017
3637.00,0.0017
3636.00,0.0017
3635.00,0.0017
3634.00,0.0018
3633.00,0.0017
3632.00,0.0017
3631.00,0.0017
3630.00,0.0018
3629.00,0.0018
3628.00,0.0018
3627.00,0.0018
3626.00,0.0018
3625.00,0.0019
3624.00,0.0021
3623.00,0.0021
3622.00,0.0022
3621.00,0.0022
3620.00,0.0022
3619.00,0.0022
3618.00,0.0022
3617.00,0.0022
3616.00,0.0022
3615.00,0.0023
3614.00,0.0024
3613.00,0.0024
3612.00,0.0025
3611.00,0.0025
3610.00,0.0025
3609.00,0.0026
3608.00,0.0026
3607.00,0.0027
3606.00,0.0028
3605.00,0.0029
3604.00,0.0030
3603.00,0.0030
3602.00,0.0031
3601.00,0.0032
3600.00,0.0032
3599.00,0.0033
3598.00,0.0033
3597.00,0.0033
3596.00,0.0034
3595.00,0.0034
3594.00,0.0034
3593.00,0.0035
3592.00,0.0036
3591.00,0.0036
3590.00,0.0037
3589.00,0.0037
3588.00,0.0037
3587.00,0.0037
3586.00,0.0037
3585.00,0.0038
3584.00,0.0039
3583.00,0.0041
3582.00,0.0042
3581.00,0.0043
3580.00,0.0044
3579.00,0.0045
3578.00,0.0046
3577.00,0.0047
3576.00,0.0047
3575.00,0.0048
3574.00,0.0048
3573.00,0.0048
3572.00,0.0049
3571.00,0.0050
3570.00,0.0050
3569.00,0.0051
3568.00,0.0051
3567.00,0.0051
3566.00,0.0051
3565.00,0.0051
3564.00,0.0052
3563.00,0.0053
3562.00,0.0055
3561.00,0.0056
3560.00,0.0057
3559.00,0.0058
3558.00,0.0059
3557.00,0.0060
3556.00,0.0061
3555.00,0.0062
3554.00,0.0063
3553.00,0.0063
3552.00,0.0063
3551.00,0.0063
3550.00,0.0064
3549.00,0.0064
3548.00,0.0065
3547.00,0.0066
3546.00,0.0067
3545.00,0.0067
3544.00,0.0068
3543.00,0.0069
3542.00,0.0070
3541.00,0.0071
3540.00,0.0072
3539.00,0.0073
3538.00,0.0073
3537.00,0.0074
3536.00,0.0074
3535.00,0.0075
3534.00,0.0076
3533.00,0.0076
3532.00,0.0077
3531.00,0.0078
3530.00,0.0079
3529.00,0.0079
3528.00,0.0080
3527.00,0.0080
3526.00,0.0080
3525.00,0.0081
3524.00,0.0081
3523.00,0.0082
3522.00,0.0083
3521.00,0.0083
3520.00,0.0084
3519.00,0.0084
3518.00,0.0085
3517.00,0.0085
3516.00,0.0086
3515.00,0.0087
3514.00,0.0087
3513.00,0.0088
3512.00,0.0088
3511.00,0.0088
3510.00,0.0089
3509.00,0.0089
3508.00,0.0089
3507.00,0.0090
3506.00,0.0091
3505.00,0.0091
3504.00,0.0092
3503.00,0.0092
3502.00,0.0091
3501.00,0.0092
3500.00,0.0092
3499.00,0.0093
3498.00,0.0093
3497.00,0.0094
3496.00,0.0094
3495.00,0.0095
3494.00,0.0095
3493.00,0.0096
3492.00,0.0096
3491.00,0.0097
3490.00,0.0097
3489.00,0.0097
3488.00,0.0097
3487.00,0.0098
3486.00,0.0098
3485.00,0.0098
3484.00,0.0099
3483.00,0.0099
3482.00,0.0099
3481.00,0.0099
3480.00,0.0099
3479.00,0.0100
3478.00,0.0100
3477.00,0.0101
3476.00,0.0101
3475.00,0.0101
3474.00,0.0102
3473.00,0.0102
3472.00,0.0103
3471.00,0.0103
3470.00,0.0104
3469.00,0.0104
3468.00,0.0105
3467.00,0.0105
3466.00,0.0105
3465.00,0.0105
3464.00,0.0105
3463.00,0.0105
3462.00,0.0105
3461.00,0.0106
3460.00,0.0106
3459.00,0.0107
3458.00,0.0107
3457.00,0.0108
3456.00,0.0108
3455.00,0.0108
3454.00,0.0109
3453.00,0.0109
3452.00,0.0109
3451.00,0.0109
3450.00,0.0110
3449.00,0.0110
3448.00,0.0111
3447.00,0.0111
3446.00,0.0111
3445.00,0.0111
3444.00,0.0112
3443.00,0.0112
3442.00,0.0112
3441.00,0.0112
3440.00,0.0112
3439.00,0.0113
3438.00,0.0113
3437.00,0.0114
3436.00,0.0114
3435.00,0.0114
3434.00,0.0114
3433.00,0.0114
3432.00,0.0114
3431.00,0.0115
3430.00,0.0115
3429.00,0.0115
3428.00,0.0115
3427.00,0.0116
3426.00,0.0116
3425.00,0.0116
3424.00,0.0116
3423.00,0.0116
3422.00,0.0116
3421.00,0.0116
3420.00,0.0116
3419.00,0.0116
3418.00,0.0117
3417.00,0.0117
3416.00,0.0118
3415.00,0.0118
3414.00,0.0119
3413.00,0.0119
3412.00,0.0120
3411.00,0.0120
3410.00,0.0120
3409.00,0.0121
3408.00,0.0121
3407.00,0.0121
3406.00,0.0121
3405.00,0.0121
3404.00,0.0122
3403.00,0.0122
3402.00,0.0122
3401.00,0.0123
3400.00,0.0123
3399.00,0.0123
3398.00,0.0124
3397.00,0.0124
3396.00,0.0124
3395.00,0.0124
3394.00,0.0124
3393.00,0.0124
3392.00,0.0124
3391.00,0.0123
3390.00,0.0123
3389.00,0.0123
3388.00,0.0123
3387.00,0.0123
3386.00,0.0123
3385.00,0.0123
3384.00,0.0123
3383.00,0.0123
3382.00,0.0122
3381.00,0.0122
3380.00,0.0121
3379.00,0.0121
3378.00,0.0121
3377.00,0.0120
3376.00,0.0120
3375.00,0.0120
3374.00,0.0119
3373.00,0.0119
3372.00,0.0118
3371.00,0.0118
3370.00,0.0117
3369.00,0.0117
3368.00,0.0116
3367.00,0.0116
3366.00,0.0115
3365.00,0.0115
3364.00,0.0114
3363.00,0.0113
3362.00,0.0112
3361.00,0.0112
3360.00,0.0112
3359.00,0.0111
3358.00,0.0111
3357.00,0.0110
3356.00,0.0110
3355.00,0.0109
3354.00,0.0109
3353.00,0.0108
3352.00,0.0108
3351.00,0.0108
3350.00,0.0107
3349.00,0.0107
3348.00,0.0107
3347.00,0.0106
3346.00,0.0105
3345.00,0.0105
3344.00,0.0104
3343.00,0.0104
3342.00,0.0103
3341.00,0.0103
3340.00,0.0102
3339.00,0.0102
3338.00,0.0102
3337.00,0.0101
3336.00,0.0101
3335.00,0.0101
3334.00,0.0101
3333.00,0.0100
3332.00,0.0100
3331.00,0.0100
3330.00,0.0099
3329.00,0.0099
3328.00,0.0098
3327.00,0.0098
3326.00,0.0098
3325.00,0.0097
3324.00,0.0097
3323.00,0.0097
3322.00,0.0097
3321.00,0.0097
3320.00,0.0097
3319.00,0.0096
3318.00,0.0096
3317.00,0.0096
3316.00,0.0096
3315.00,0.0095
3314.00,0.0095
3313.00,0.0095
3312.00,0.0095
3311.00,0.0095
3310.00,0.0095
3309.00,0.0094
3308.00,0.0094
3307.00,0.0094
3306.00,0.0093
3305.00,0.0093
3304.00,0.0093
3303.00,0.0093
3302.00,0.0093
3301.00,0.0093
3300.00,0.0093
3299.00,0.0093
3298.00,0.0093
3297.00,0.0092
3296.00,0.0092
3295.00,0.0092
3294.00,0.0092
3293.00,0.0092
3292.00,0.0092
3291.00,0.0092
3290.00,0.0093
3289.00,0.0093
3288.00,0.0093
3287.00,0.0093
3286.00,0.0093
3285.00,0.0092
3284.00,0.0092
3283.00,0.0092
3282.00,0.0093
3281.00,0.0093
3280.00,0.0093
3279.00,0.0093
3278.00,0.0092
3277.00,0.0092
3276.00,0.0092
3275.00,0.0091
3274.00,0.0091
3273.00,0.0090
3272.00,0.0090
3271.00,0.0090
3270.00,0.0089
3269.00,0.0089
3268.00,0.0089
3267.00,0.0090
3266.00,0.0090
3265.00,0.0090
3264.00,0.0089
3263.00,0.0089
3262.00,0.0089
3261.00,0.0089
3260.00,0.0089
3259.00,0.0088
3258.00,0.0088
3257.00,0.0088
3256.00,0.0088
3255.00,0.0088
3254.00,0.0087
3253.00,0.0087
3252.00,0.0087
3251.00,0.0086
3250.00,0.0086
3249.00,0.0086
3248.00,0.0086
3247.00,0.0085
3246.00,0.0085
3245.00,0.0085
3244.00,0.0085
3243.00,0.0085
3242.00,0.0085
3241.00,0.0084
3240.00,0.0084
3239.00,0.0084
3238.00,0.0083
3237.00,0.0083
3236.00,0.0083
3235.00,0.0083
3234.00,0.0082
3233.00,0.0082
3232.00,0.0082
3231.00,0.0081
3230.00,0.0081
3229.00,0.0081
3228.00,0.0081
3227.00,0.0081
3226.00,0.0081
3225.00,0.0080
3224.00,0.0080
3223.00,0.0080
3222.00,0.0080
3221.00,0.0079
3220.00,0.0079
3219.00,0.0079
3218.00,0.0079
3217.00,0.0078
3216.00,0.0078
3215.00,0.0078
3214.00,0.0077
3213.00,0.0077
3212.00,0.0076
3211.00,0.0075
3210.00,0.0075
3209.00,0.0075
3208.00,0.0075
3207.00,0.0074
3206.00,0.0074
3205.00,0.0074
3204.00,0.0073
3203.00,0.0073
3202.00,0.0073
3201.00,0.0072
3200.00,0.0072
3199.00,0.0072
3198.00,0.0071
3197.00,0.0071
3196.00,0.0071
3195.00,0.0071
3194.00,0.0070
3193.00,0.0069
3192.00,0.0069
3191.00,0.0068
3190.00,0.0067
3189.00,0.0067
3188.00,0.0066
3187.00,0.0066
3186.00,0.0066
3185.00,0.0065
3184.00,0.0065
3183.00,0.0065
3182.00,0.0064
3181.00,0.0064
3180.00,0.0064
3179.00,0.0063
3178.00,0.0063
3177.00,0.0062
3176.00,0.0062
3175.00,0.0061
3174.00,0.0061
3173.00,0.0061
3172.00,0.0060
3171.00,0.0060
3170.00,0.0059
3169.00,0.0058
3168.00,0.0058
3167.00,0.0058
3166.00,0.0057
3165.00,0.0057
3164.00,0.0057
3163.00,0.0056
3162.00,0.0056
3161.00,0.0055
3160.00,0.0055
3159.00,0.0054
3158.00,0.0054
3157.00,0.0054
3156.00,0.0053
3155.00,0.0053
3154.00,0.0053
3153.00,0.0052
3152.00,0.0052
3151.00,0.0051
3150.00,0.0051
3149.00,0.0050
3148.00,0.0050
3147.00,0.0049
3146.00,0.0049
3145.00,0.0049
3144.00,0.0048
3143.00,0.0048
3142.00,0.0048
3141.00,0.0047
3140.00,0.0047
3139.00,0.0047
3138.00,0.0046
3137.00,0.0046
3136.00,0.0046
3135.00,0.0045
3134.00,0.0045
3133.00,0.0044
3132.00,0.0044
3131.00,0.0043
3130.00,0.0043
3129.00,0.0043
3128.00,0.0043
3127.00,0.0043
3126.00,0.0043
3125.00,0.0042
3124.00,0.0042
3123.00,0.0042
3122.00,0.0041
3121.00,0.0041
3120.00,0.0041
3119.00,0.0041
3118.00,0.0040
3117.00,0.0040
3116.00,0.0039
3115.00,0.0039
3114.00,0.0039
3113.00,0.0039
3112.00,0.0039
3111.00,0.0038
3110.00,0.0038
3109.00,0.0038
3108.00,0.0038
3107.00,0.0037
3106.00,0.0037
3105.00,0.0037
3104.00,0.0037
3103.00,0.0037
3102.00,0.0036
3101.00,0.0036
3100.00,0.0036
3099.00,0.0036
3098.00,0.0035
3097.00,0.0035
3096.00,0.0035
3095.00,0.0034
3094.00,0.0034
3093.00,0.0034
3092.00,0.0033
3091.00,0.0033
3090.00,0.0033
3089.00,0.0033
3088.00,0.0033
3087.00,0.0033
3086.00,0.0033
3085.00,0.0033
3084.00,0.0033
3083.00,0.0033
3082.00,0.0032
3081.00,0.0032
3080.00,0.0032
3079.00,0.0032
3078.00,0.0031
3077.00,0.0031
3076.00,0.0031
3075.00,0.0030
3074.00,0.0030
3073.00,0.0030
3072.00,0.0030
3071.00,0.0030
3070.00,0.0029
3069.00,0.0029
3068.00,0.0029
3067.00,0.0029
3066.00,0.0029
3065.00,0.0029
3064.00,0.0029
3063.00,0.0029
3062.00,0.0029
3061.00,0.0028
3060.00,0.0028
3059.00,0.0028
3058.00,0.0028
3057.00,0.0028
3056.00,0.0028
3055.00,0.0028
3054.00,0.0027
3053.00,0.0027
3052.00,0.0027
3051.00,0.0027
3050.00,0.0027
3049.00,0.0027
3048.00,0.0026
3047.00,0.0026
3046.00,0.0026
3045.00,0.0026
3044.00,0.0026
3043.00,0.0026
3042.00,0.0025
3041.00,0.0025
3040.00,0.0025
3039.00,0.0025
3038.00,0.0025
3037.00,0.0026
3036.00,0.0026
3035.00,0.0026
3034.00,0.0026
3033.00,0.0026
3032.00,0.0026
3031.00,0.0025
3030.00,0.0025
3029.00,0.0025
3028.00,0.0025
3027.00,0.0024
3026.00,0.0024
3025.00,0.0024
3024.00,0.0024
3023.00,0.0025
3022.00,0.0025
3021.00,0.0026
3020.00,0.0026
3019.00,0.0026
3018.00,0.0026
3017.00,0.0026
3016.00,0.0026
3015.00,0.0026
3014.00,0.0027
3013.00,0.0027
3012.00,0.0028
3011.00,0.0028
3010.00,0.0029
3009.00,0.0029
3008.00,0.0030
3007.00,0.0031
3006.00,0.0032
3005.00,0.0033
3004.00,0.0034
3003.00,0.0035
3002.00,0.0037
3001.00,0.0039
3000.00,0.0040
2999.00,0.0042
2998.00,0.0043
2997.00,0.0045
2996.00,0.0046
2995.00,0.0047
2994.00,0.0048
2993.00,0.0049
2992.00,0.0049
2991.00,0.0050
2990.00,0.0051
2989.00,0.0052
2988.00,0.0053
2987.00,0.0054
2986.00,0.0055
2985.00,0.0057
2984.00,0.0059
2983.00,0.0060
2982.00,0.0062
2981.00,0.0063
2980.00,0.0064
2979.00,0.0064
2978.00,0.0065
2977.00,0.0067
2976.00,0.0069
2975.00,0.0071
2974.00,0.0074
2973.00,0.0076
2972.00,0.0077
2971.00,0.0078
2970.00,0.0079
2969.00,0.0079
2968.00,0.0080
2967.00,0.0081
2966.00,0.0083
2965.00,0.0084
2964.00,0.0085
2963.00,0.0086
2962.00,0.0086
2961.00,0.0085
2960.00,0.0084
2959.00,0.0083
2958.00,0.0081
2957.00,0.0080
2956.00,0.0080
2955.00,0.0080
2954.00,0.0080
2953.00,0.0080
2952.00,0.0081
2951.00,0.0081
2950.00,0.0082
2949.00,0.0082
2948.00,0.0083
2947.00,0.0083
2946.00,0.0083
2945.00,0.0084
2944.00,0.0084
2943.00,0.0084
2942.00,0.0085
2941.00,0.0085
2940.00,0.0086
2939.00,0.0087
2938.00,0.0088
2937.00,0.0089
2936.00,0.0090
2935.00,0.0091
2934.00,0.0092
2933.00,0.0094
2932.00,0.0095
2931.00,0.0096
2930.00,0.0097
2929.00,0.0097
2928.00,0.0097
2927.00,0.0096
2926.00,0.0096
2925.00,0.0095
2924.00,0.0094
2923.00,0.0092
2922.00,0.0091
2921.00,0.0089
2920.00,0.0088
2919.00,0.0086
2918.00,0.0085
2917.00,0.0084
2916.00,0.0082
2915.00,0.0081
2914.00,0.0080
2913.00,0.0080
2912.00,0.0079
2911.00,0.0078
2910.00,0.0077
2909.00,0.0076
2908.00,0.0075
2907.00,0.0075
2906.00,0.0074
2905.00,0.0073
2904.00,0.0073
2903.00,0.0073
2902.00,0.0072
2901.00,0.0072
2900.00,0.0072
2899.00,0.0071
2898.00,0.0071
2897.00,0.0071
2896.00,0.0071
2895.00,0.0071
2894.00,0.0071
2893.00,0.0071
2892.00,0.0071
2891.00,0.0071
2890.00,0.0071
2889.00,0.0071
2888.00,0.0070
2887.00,0.0070
2886.00,0.0070
2885.00,0.0069
2884.00,0.0069
2883.00,0.0069
2882.00,0.0069
2881.00,0.0069
2880.00,0.0069
2879.00,0.0070
2878.00,0.0070
2877.00,0.0069
2876.00,0.0069
2875.00,0.0069
2874.00,0.0069
2873.00,0.0069
2872.00,0.0068
2871.00,0.0068
2870.00,0.0067
2869.00,0.0067
2868.00,0.0067
2867.00,0.0067
2866.00,0.0068
2865.00,0.0068
2864.00,0.0069
2863.00,0.0070
2862.00,0.0071
2861.00,0.0072
2860.00,0.0072
2859.00,0.0071
2858.00,0.0070
2857.00,0.0069
2856.00,0.0067
2855.00,0.0066
2854.00,0.0065
2853.00,0.0063
2852.00,0.0062
2851.00,0.0060
2850.00,0.0058
2849.00,0.0056
2848.00,0.0054
2847.00,0.0052
2846.00,0.0050
2845.00,0.0049
2844.00,0.0047
2843.00,0.0046
2842.00,0.0044
2841.00,0.0043
2840.00,0.0041
2839.00,0.0040
2838.00,0.0040
2837.00,0.0039
2836.00,0.0038
2835.00,0.0037
2834.00,0.0036
2833.00,0.0036
2832.00,0.0035
2831.00,0.0034
2830.00,0.0034
2829.00,0.0033
2828.00,0.0032
2827.00,0.0032
2826.00,0.0031
2825.00,0.0031
2824.00,0.0030
2823.00,0.0029
2822.00,0.0029
2821.00,0.0028
2820.00,0.0028
2819.00,0.0028
2818.00,0.0027
2817.00,0.0027
2816.00,0.0027
2815.00,0.0026
2814.00,0.0026
2813.00,0.0025
2812.00,0.0025
2811.00,0.0025
2810.00,0.0024
2809.00,0.0024
2808.00,0.0024
2807.00,0.0024
2806.00,0.0024
2805.00,0.0024
2804.00,0.0023
2803.00,0.0023
2802.00,0.0023
2801.00,0.0022
2800.00,0.0022
2799.00,0.0022
2798.00,0.0022
2797.00,0.0022
2796.00,0.0021
2795.00,0.0021
2794.00,0.0021
2793.00,0.0021
2792.00,0.0021
2791.00,0.0021
2790.00,0.0021
2789.00,0.0021
2788.00,0.0021
2787.00,0.0021
2786.00,0.0020
2785.00,0.0020
2784.00,0.0020
2783.00,0.0020
2782.00,0.0020
2781.00,0.0020
2780.00,0.0020
2779.00,0.0020
2778.00,0.0020
2777.00,0.0019
2776.00,0.0019
2775.00,0.0019
2774.00,0.0019
2773.00,0.0019
2772.00,0.0019
2771.00,0.0019
2770.00,0.0019
2769.00,0.0019
2768.00,0.0019
2767.00,0.0019
2766.00,0.0019
2765.00,0.0019
2764.00,0.0018
2763.00,0.0018
2762.00,0.0018
2761.00,0.0018
2760.00,0.0018
2759.00,0.0018
2758.00,0.0018
2757.00,0.0018
