Created as New Dataset,Sample 837 By YargerLab Date Wednesday, July 16 2025
cm-1,A
4000.00,0.0131
3999.00,0.0130
3998.00,0.0130
3997.00,0.0130
3996.00,0.0131
3995.00,0.0131
3994.00,0.0131
3993.00,0.0131
3992.00,0.0130
3991.00,0.0130
3990.00,0.0130
3989.00,0.0130
3988.00,0.0130
3987.00,0.0130
3986.00,0.0130
3985.00,0.0130
3984.00,0.0130
3983.00,0.0130
3982.00,0.0130
3981.00,0.0130
3980.00,0.0130
3979.00,0.0130
3978.00,0.0130
3977.00,0.0130
3976.00,0.0130
3975.00,0.0130
3974.00,0.0130
3973.00,0.0130
3972.00,0.0130
3971.00,0.0130
3970.00,0.0130
3969.00,0.0130
3968.00,0.0130
3967.00,0.0130
3966.00,0.0130
3965.00,0.0130
3964.00,0.0130
3963.00,0.0130
3962.00,0.0130
3961.00,0.0130
3960.00,0.0130
3959.00,0.0130
3958.00,0.0130
3957.00,0.0130
3956.00,0.0130
3955.00,0.0130
3954.00,0.0130
3953.00,0.0129
3952.00,0.0129
3951.00,0.0129
3950.00,0.0129
3949.00,0.0129
3948.00,0.0129
3947.00,0.0129
3946.00,0.0130
3945.00,0.0130
3944.00,0.0129
3943.00,0.0129
3942.00,0.0129
3941.00,0.0130
3940.00,0.0130
3939.00,0.0130
3938.00,0.0130
3937.00,0.0129
3936.00,0.0129
3935.00,0.0129
3934.00,0.0129
3933.00,0.0128
3932.00,0.0128
3931.00,0.0128
3930.00,0.0128
3929.00,0.0128
3928.00,0.0128
3927.00,0.0129
3926.00,0.0129
3925.00,0.0129
3924.00,0.0129
3923.00,0.0129
3922.00,0.0129
3921.00,0.0129
3920.00,0.0128
3919.00,0.0128
3918.00,0.0127
3917.00,0.0127
3916.00,0.0127
3915.00,0.0127
3914.00,0.0128
3913.00,0.0128
3912.00,0.0128
3911.00,0.0128
3910.00,0.0128
3909.00,0.0128
3908.00,0.0128
3907.00,0.0128
3906.00,0.0128
3905.00,0.0127
3904.00,0.0127
3903.00,0.0127
3902.00,0.0127
3901.00,0.0127
3900.00,0.0127
3899.00,0.0128
3898.00,0.0128
3897.00,0.0128
3896.00,0.0128
3895.00,0.0127
3894.00,0.0127
3893.00,0.0127
3892.00,0.0127
3891.00,0.0127
3890.00,0.0127
3889.00,0.0127
3888.00,0.0127
3887.00,0.0127
3886.00,0.0126
3885.00,0.0127
3884.00,0.0127
3883.00,0.0127
3882.00,0.0126
3881.00,0.0126
3880.00,0.0126
3879.00,0.0126
3878.00,0.0126
3877.00,0.0126
3876.00,0.0126
3875.00,0.0126
3874.00,0.0127
3873.00,0.0127
3872.00,0.0127
3871.00,0.0126
3870.00,0.0126
3869.00,0.0126
3868.00,0.0126
3867.00,0.0126
3866.00,0.0126
3865.00,0.0125
3864.00,0.0125
3863.00,0.0125
3862.00,0.0125
3861.00,0.0126
3860.00,0.0126
3859.00,0.0126
3858.00,0.0126
3857.00,0.0126
3856.00,0.0126
3855.00,0.0126
3854.00,0.0126
3853.00,0.0126
3852.00,0.0126
3851.00,0.0125
3850.00,0.0125
3849.00,0.0124
3848.00,0.0124
3847.00,0.0124
3846.00,0.0125
3845.00,0.0124
3844.00,0.0124
3843.00,0.0125
3842.00,0.0125
3841.00,0.0125
3840.00,0.0125
3839.00,0.0125
3838.00,0.0125
3837.00,0.0125
3836.00,0.0125
3835.00,0.0125
3834.00,0.0125
3833.00,0.0125
3832.00,0.0124
3831.00,0.0124
3830.00,0.0124
3829.00,0.0123
3828.00,0.0123
3827.00,0.0123
3826.00,0.0123
3825.00,0.0123
3824.00,0.0124
3823.00,0.0124
3822.00,0.0124
3821.00,0.0124
3820.00,0.0124
3819.00,0.0124
3818.00,0.0124
3817.00,0.0124
3816.00,0.0124
3815.00,0.0124
3814.00,0.0124
3813.00,0.0123
3812.00,0.0123
3811.00,0.0123
3810.00,0.0123
3809.00,0.0123
3808.00,0.0123
3807.00,0.0123
3806.00,0.0124
3805.00,0.0124
3804.00,0.0124
3803.00,0.0123
3802.00,0.0123
3801.00,0.0123
3800.00,0.0123
3799.00,0.0123
3798.00,0.0123
3797.00,0.0122
3796.00,0.0122
3795.00,0.0122
3794.00,0.0122
3793.00,0.0122
3792.00,0.0121
3791.00,0.0121
3790.00,0.0121
3789.00,0.0121
3788.00,0.0121
3787.00,0.0121
3786.00,0.0122
3785.00,0.0122
3784.00,0.0122
3783.00,0.0122
3782.00,0.0121
3781.00,0.0121
3780.00,0.0121
3779.00,0.0121
3778.00,0.0121
3777.00,0.0121
3776.00,0.0121
3775.00,0.0121
3774.00,0.0121
3773.00,0.0121
3772.00,0.0121
3771.00,0.0121
3770.00,0.0122
3769.00,0.0122
3768.00,0.0121
3767.00,0.0121
3766.00,0.0120
3765.00,0.0120
3764.00,0.0120
3763.00,0.0120
3762.00,0.0120
3761.00,0.0120
3760.00,0.0120
3759.00,0.0120
3758.00,0.0120
3757.00,0.0121
3756.00,0.0121
3755.00,0.0121
3754.00,0.0121
3753.00,0.0121
3752.00,0.0122
3751.00,0.0122
3750.00,0.0122
3749.00,0.0122
3748.00,0.0122
3747.00,0.0121
3746.00,0.0120
3745.00,0.0120
3744.00,0.0120
3743.00,0.0120
3742.00,0.0120
3741.00,0.0119
3740.00,0.0119
3739.00,0.0119
3738.00,0.0119
3737.00,0.0119
3736.00,0.0119
3735.00,0.0118
3734.00,0.0118
3733.00,0.0118
3732.00,0.0118
3731.00,0.0118
3730.00,0.0118
3729.00,0.0118
3728.00,0.0118
3727.00,0.0118
3726.00,0.0118
3725.00,0.0118
3724.00,0.0118
3723.00,0.0118
3722.00,0.0117
3721.00,0.0117
3720.00,0.0117
3719.00,0.0117
3718.00,0.0117
3717.00,0.0117
3716.00,0.0117
3715.00,0.0117
3714.00,0.0117
3713.00,0.0117
3712.00,0.0117
3711.00,0.0118
3710.00,0.0118
3709.00,0.0118
3708.00,0.0117
3707.00,0.0117
3706.00,0.0117
3705.00,0.0117
3704.00,0.0116
3703.00,0.0116
3702.00,0.0116
3701.00,0.0115
3700.00,0.0115
3699.00,0.0116
3698.00,0.0116
3697.00,0.0116
3696.00,0.0116
3695.00,0.0116
3694.00,0.0116
3693.00,0.0116
3692.00,0.0116
3691.00,0.0116
3690.00,0.0116
3689.00,0.0117
3688.00,0.0117
3687.00,0.0117
3686.00,0.0117
3685.00,0.0117
3684.00,0.0117
3683.00,0.0117
3682.00,0.0117
3681.00,0.0118
3680.00,0.0118
3679.00,0.0119
3678.00,0.0119
3677.00,0.0119
3676.00,0.0119
3675.00,0.0119
3674.00,0.0119
3673.00,0.0119
3672.00,0.0119
3671.00,0.0119
3670.00,0.0120
3669.00,0.0120
3668.00,0.0121
3667.00,0.0121
3666.00,0.0121
3665.00,0.0121
3664.00,0.0121
3663.00,0.0121
3662.00,0.0122
3661.00,0.0122
3660.00,0.0123
3659.00,0.0123
3658.00,0.0124
3657.00,0.0124
3656.00,0.0125
3655.00,0.0126
3654.00,0.0127
3653.00,0.0127
3652.00,0.0127
3651.00,0.0128
3650.00,0.0128
3649.00,0.0128
3648.00,0.0128
3647.00,0.0129
3646.00,0.0129
3645.00,0.0130
3644.00,0.0130
3643.00,0.0130
3642.00,0.0131
3641.00,0.0131
3640.00,0.0132
3639.00,0.0132
3638.00,0.0133
3637.00,0.0133
3636.00,0.0134
3635.00,0.0135
3634.00,0.0135
3633.00,0.0136
3632.00,0.0137
3631.00,0.0138
3630.00,0.0138
3629.00,0.0139
3628.00,0.0140
3627.00,0.0140
3626.00,0.0141
3625.00,0.0142
3624.00,0.0143
3623.00,0.0143
3622.00,0.0144
3621.00,0.0145
3620.00,0.0145
3619.00,0.0145
3618.00,0.0146
3617.00,0.0147
3616.00,0.0147
3615.00,0.0148
3614.00,0.0149
3613.00,0.0150
3612.00,0.0151
3611.00,0.0152
3610.00,0.0153
3609.00,0.0154
3608.00,0.0154
3607.00,0.0155
3606.00,0.0155
3605.00,0.0156
3604.00,0.0157
3603.00,0.0158
3602.00,0.0158
3601.00,0.0159
3600.00,0.0160
3599.00,0.0161
3598.00,0.0162
3597.00,0.0162
3596.00,0.0163
3595.00,0.0164
3594.00,0.0165
3593.00,0.0166
3592.00,0.0167
3591.00,0.0168
3590.00,0.0168
3589.00,0.0169
3588.00,0.0170
3587.00,0.0171
3586.00,0.0171
3585.00,0.0172
3584.00,0.0173
3583.00,0.0174
3582.00,0.0175
3581.00,0.0176
3580.00,0.0177
3579.00,0.0177
3578.00,0.0178
3577.00,0.0179
3576.00,0.0180
3575.00,0.0181
3574.00,0.0182
3573.00,0.0184
3572.00,0.0185
3571.00,0.0186
3570.00,0.0187
3569.00,0.0188
3568.00,0.0189
3567.00,0.0189
3566.00,0.0190
3565.00,0.0191
3564.00,0.0192
3563.00,0.0193
3562.00,0.0194
3561.00,0.0196
3560.00,0.0197
3559.00,0.0198
3558.00,0.0199
3557.00,0.0200
3556.00,0.0201
3555.00,0.0202
3554.00,0.0204
3553.00,0.0205
3552.00,0.0206
3551.00,0.0207
3550.00,0.0208
3549.00,0.0209
3548.00,0.0210
3547.00,0.0211
3546.00,0.0212
3545.00,0.0213
3544.00,0.0213
3543.00,0.0214
3542.00,0.0215
3541.00,0.0216
3540.00,0.0218
3539.00,0.0219
3538.00,0.0220
3537.00,0.0221
3536.00,0.0222
3535.00,0.0223
3534.00,0.0223
3533.00,0.0224
3532.00,0.0225
3531.00,0.0226
3530.00,0.0227
3529.00,0.0228
3528.00,0.0229
3527.00,0.0231
3526.00,0.0232
3525.00,0.0234
3524.00,0.0235
3523.00,0.0236
3522.00,0.0237
3521.00,0.0238
3520.00,0.0239
3519.00,0.0239
3518.00,0.0240
3517.00,0.0241
3516.00,0.0242
3515.00,0.0243
3514.00,0.0243
3513.00,0.0244
3512.00,0.0245
3511.00,0.0246
3510.00,0.0247
3509.00,0.0248
3508.00,0.0249
3507.00,0.0250
3506.00,0.0251
3505.00,0.0252
3504.00,0.0253
3503.00,0.0254
3502.00,0.0255
3501.00,0.0256
3500.00,0.0257
3499.00,0.0258
3498.00,0.0259
3497.00,0.0260
3496.00,0.0261
3495.00,0.0262
3494.00,0.0262
3493.00,0.0263
3492.00,0.0263
3491.00,0.0264
3490.00,0.0265
3489.00,0.0266
3488.00,0.0266
3487.00,0.0267
3486.00,0.0268
3485.00,0.0269
3484.00,0.0270
3483.00,0.0271
3482.00,0.0272
3481.00,0.0272
3480.00,0.0273
3479.00,0.0274
3478.00,0.0275
3477.00,0.0275
3476.00,0.0276
3475.00,0.0277
3474.00,0.0278
3473.00,0.0279
3472.00,0.0280
3471.00,0.0281
3470.00,0.0282
3469.00,0.0283
3468.00,0.0283
3467.00,0.0284
3466.00,0.0285
3465.00,0.0285
3464.00,0.0286
3463.00,0.0286
3462.00,0.0287
3461.00,0.0288
3460.00,0.0289
3459.00,0.0289
3458.00,0.0290
3457.00,0.0291
3456.00,0.0292
3455.00,0.0293
3454.00,0.0293
3453.00,0.0294
3452.00,0.0295
3451.00,0.0296
3450.00,0.0297
3449.00,0.0298
3448.00,0.0299
3447.00,0.0299
3446.00,0.0300
3445.00,0.0300
3444.00,0.0301
3443.00,0.0302
3442.00,0.0302
3441.00,0.0304
3440.00,0.0305
3439.00,0.0306
3438.00,0.0307
3437.00,0.0307
3436.00,0.0308
3435.00,0.0309
3434.00,0.0310
3433.00,0.0310
3432.00,0.0311
3431.00,0.0312
3430.00,0.0313
3429.00,0.0314
3428.00,0.0315
3427.00,0.0316
3426.00,0.0317
3425.00,0.0318
3424.00,0.0319
3423.00,0.0319
3422.00,0.0320
3421.00,0.0322
3420.00,0.0323
3419.00,0.0324
3418.00,0.0325
3417.00,0.0326
3416.00,0.0327
3415.00,0.0328
3414.00,0.0329
3413.00,0.0330
3412.00,0.0331
3411.00,0.0332
3410.00,0.0333
3409.00,0.0334
3408.00,0.0335
3407.00,0.0336
3406.00,0.0338
3405.00,0.0339
3404.00,0.0340
3403.00,0.0341
3402.00,0.0342
3401.00,0.0343
3400.00,0.0344
3399.00,0.0345
3398.00,0.0346
3397.00,0.0347
3396.00,0.0348
3395.00,0.0349
3394.00,0.0350
3393.00,0.0351
3392.00,0.0352
3391.00,0.0353
3390.00,0.0354
3389.00,0.0355
3388.00,0.0356
3387.00,0.0357
3386.00,0.0359
3385.00,0.0360
3384.00,0.0361
3383.00,0.0362
3382.00,0.0363
3381.00,0.0365
3380.00,0.0366
3379.00,0.0367
3378.00,0.0368
3377.00,0.0370
3376.00,0.0371
3375.00,0.0372
3374.00,0.0374
3373.00,0.0375
3372.00,0.0376
3371.00,0.0378
3370.00,0.0379
3369.00,0.0380
3368.00,0.0382
3367.00,0.0384
3366.00,0.0386
3365.00,0.0388
3364.00,0.0390
3363.00,0.0392
3362.00,0.0393
3361.00,0.0395
3360.00,0.0397
3359.00,0.0399
3358.00,0.0401
3357.00,0.0403
3356.00,0.0405
3355.00,0.0406
3354.00,0.0408
3353.00,0.0410
3352.00,0.0412
3351.00,0.0414
3350.00,0.0417
3349.00,0.0419
3348.00,0.0422
3347.00,0.0424
3346.00,0.0426
3345.00,0.0428
3344.00,0.0430
3343.00,0.0432
3342.00,0.0435
3341.00,0.0437
3340.00,0.0440
3339.00,0.0442
3338.00,0.0445
3337.00,0.0449
3336.00,0.0452
3335.00,0.0455
3334.00,0.0458
3333.00,0.0461
3332.00,0.0464
3331.00,0.0467
3330.00,0.0471
3329.00,0.0474
3328.00,0.0477
3327.00,0.0480
3326.00,0.0483
3325.00,0.0486
3324.00,0.0490
3323.00,0.0494
3322.00,0.0498
3321.00,0.0502
3320.00,0.0506
3319.00,0.0510
3318.00,0.0514
3317.00,0.0518
3316.00,0.0522
3315.00,0.0526
3314.00,0.0530
3313.00,0.0533
3312.00,0.0537
3311.00,0.0540
3310.00,0.0543
3309.00,0.0547
3308.00,0.0550
3307.00,0.0554
3306.00,0.0558
3305.00,0.0563
3304.00,0.0568
3303.00,0.0573
3302.00,0.0577
3301.00,0.0581
3300.00,0.0585
3299.00,0.0588
3298.00,0.0591
3297.00,0.0594
3296.00,0.0596
3295.00,0.0599
3294.00,0.0602
3293.00,0.0605
3292.00,0.0608
3291.00,0.0610
3290.00,0.0613
3289.00,0.0615
3288.00,0.0617
3287.00,0.0618
3286.00,0.0619
3285.00,0.0619
3284.00,0.0619
3283.00,0.0619
3282.00,0.0618
3281.00,0.0618
3280.00,0.0617
3279.00,0.0615
3278.00,0.0613
3277.00,0.0611
3276.00,0.0609
3275.00,0.0606
3274.00,0.0603
3273.00,0.0600
3272.00,0.0597
3271.00,0.0594
3270.00,0.0591
3269.00,0.0588
3268.00,0.0585
3267.00,0.0582
3266.00,0.0579
3265.00,0.0575
3264.00,0.0571
3263.00,0.0567
3262.00,0.0563
3261.00,0.0559
3260.00,0.0556
3259.00,0.0552
3258.00,0.0547
3257.00,0.0544
3256.00,0.0540
3255.00,0.0536
3254.00,0.0533
3253.00,0.0530
3252.00,0.0526
3251.00,0.0522
3250.00,0.0519
3249.00,0.0515
3248.00,0.0512
3247.00,0.0508
3246.00,0.0506
3245.00,0.0503
3244.00,0.0501
3243.00,0.0498
3242.00,0.0496
3241.00,0.0493
3240.00,0.0490
3239.00,0.0488
3238.00,0.0484
3237.00,0.0481
3236.00,0.0478
3235.00,0.0475
3234.00,0.0473
3233.00,0.0471
3232.00,0.0470
3231.00,0.0468
3230.00,0.0467
3229.00,0.0465
3228.00,0.0463
3227.00,0.0461
3226.00,0.0459
3225.00,0.0457
3224.00,0.0455
3223.00,0.0453
3222.00,0.0451
3221.00,0.0449
3220.00,0.0447
3219.00,0.0446
3218.00,0.0444
3217.00,0.0442
3216.00,0.0441
3215.00,0.0439
3214.00,0.0437
3213.00,0.0435
3212.00,0.0434
3211.00,0.0432
3210.00,0.0430
3209.00,0.0428
3208.00,0.0427
3207.00,0.0425
3206.00,0.0424
3205.00,0.0422
3204.00,0.0421
3203.00,0.0419
3202.00,0.0417
3201.00,0.0415
3200.00,0.0413
3199.00,0.0412
3198.00,0.0410
3197.00,0.0408
3196.00,0.0407
3195.00,0.0405
3194.00,0.0403
3193.00,0.0401
3192.00,0.0399
3191.00,0.0397
3190.00,0.0396
3189.00,0.0394
3188.00,0.0392
3187.00,0.0390
3186.00,0.0388
3185.00,0.0386
3184.00,0.0384
3183.00,0.0383
3182.00,0.0381
3181.00,0.0379
3180.00,0.0377
3179.00,0.0375
3178.00,0.0373
3177.00,0.0371
3176.00,0.0369
3175.00,0.0367
3174.00,0.0365
3173.00,0.0363
3172.00,0.0361
3171.00,0.0359
3170.00,0.0358
3169.00,0.0356
3168.00,0.0354
3167.00,0.0353
3166.00,0.0351
3165.00,0.0349
3164.00,0.0347
3163.00,0.0345
3162.00,0.0344
3161.00,0.0342
3160.00,0.0341
3159.00,0.0340
3158.00,0.0338
3157.00,0.0336
3156.00,0.0334
3155.00,0.0332
3154.00,0.0330
3153.00,0.0329
3152.00,0.0327
3151.00,0.0326
3150.00,0.0325
3149.00,0.0324
3148.00,0.0323
3147.00,0.0321
3146.00,0.0320
3145.00,0.0319
3144.00,0.0318
3143.00,0.0317
3142.00,0.0315
3141.00,0.0314
3140.00,0.0312
3139.00,0.0311
3138.00,0.0310
3137.00,0.0310
3136.00,0.0309
3135.00,0.0309
3134.00,0.0308
3133.00,0.0307
3132.00,0.0306
3131.00,0.0305
3130.00,0.0304
3129.00,0.0303
3128.00,0.0303
3127.00,0.0302
3126.00,0.0301
3125.00,0.0301
3124.00,0.0300
3123.00,0.0299
3122.00,0.0298
3121.00,0.0297
3120.00,0.0297
3119.00,0.0296
3118.00,0.0295
3117.00,0.0295
3116.00,0.0295
3115.00,0.0296
3114.00,0.0296
3113.00,0.0297
3112.00,0.0297
3111.00,0.0296
3110.00,0.0296
3109.00,0.0296
3108.00,0.0297
3107.00,0.0297
3106.00,0.0298
3105.00,0.0299
3104.00,0.0299
3103.00,0.0299
3102.00,0.0299
3101.00,0.0299
3100.00,0.0300
3099.00,0.0300
3098.00,0.0301
3097.00,0.0302
3096.00,0.0302
3095.00,0.0302
3094.00,0.0302
3093.00,0.0302
3092.00,0.0302
3091.00,0.0303
3090.00,0.0303
3089.00,0.0303
3088.00,0.0304
3087.00,0.0304
3086.00,0.0304
3085.00,0.0305
3084.00,0.0305
3083.00,0.0306
3082.00,0.0306
3081.00,0.0306
3080.00,0.0306
3079.00,0.0307
3078.00,0.0308
3077.00,0.0309
3076.00,0.0310
3075.00,0.0310
3074.00,0.0311
3073.00,0.0311
3072.00,0.0311
3071.00,0.0310
3070.00,0.0310
3069.00,0.0310
3068.00,0.0309
3067.00,0.0309
3066.00,0.0309
3065.00,0.0309
3064.00,0.0309
3063.00,0.0309
3062.00,0.0309
3061.00,0.0308
3060.00,0.0308
3059.00,0.0306
3058.00,0.0305
3057.00,0.0304
3056.00,0.0302
3055.00,0.0301
3054.00,0.0300
3053.00,0.0299
3052.00,0.0298
3051.00,0.0297
3050.00,0.0296
3049.00,0.0295
3048.00,0.0294
3047.00,0.0293
3046.00,0.0291
3045.00,0.0289
3044.00,0.0288
3043.00,0.0287
3042.00,0.0286
3041.00,0.0285
3040.00,0.0284
3039.00,0.0283
3038.00,0.0282
3037.00,0.0281
3036.00,0.0279
3035.00,0.0277
3034.00,0.0276
3033.00,0.0275
3032.00,0.0275
3031.00,0.0274
3030.00,0.0274
3029.00,0.0273
3028.00,0.0272
3027.00,0.0270
3026.00,0.0269
3025.00,0.0268
3024.00,0.0267
3023.00,0.0266
3022.00,0.0265
3021.00,0.0263
3020.00,0.0262
3019.00,0.0261
3018.00,0.0260
3017.00,0.0258
3016.00,0.0257
3015.00,0.0256
3014.00,0.0255
3013.00,0.0254
3012.00,0.0254
3011.00,0.0254
3010.00,0.0254
3009.00,0.0254
3008.00,0.0254
3007.00,0.0253
3006.00,0.0253
3005.00,0.0252
3004.00,0.0252
3003.00,0.0252
3002.00,0.0251
3001.00,0.0251
3000.00,0.0251
2999.00,0.0251
2998.00,0.0251
2997.00,0.0252
2996.00,0.0252
2995.00,0.0253
2994.00,0.0253
2993.00,0.0254
2992.00,0.0255
2991.00,0.0257
2990.00,0.0258
2989.00,0.0260
2988.00,0.0261
2987.00,0.0262
2986.00,0.0264
2985.00,0.0266
2984.00,0.0267
2983.00,0.0268
2982.00,0.0269
2981.00,0.0271
2980.00,0.0272
2979.00,0.0274
2978.00,0.0276
2977.00,0.0278
2976.00,0.0280
2975.00,0.0282
2974.00,0.0284
2973.00,0.0286
2972.00,0.0288
2971.00,0.0290
2970.00,0.0292
2969.00,0.0294
2968.00,0.0296
2967.00,0.0298
2966.00,0.0299
2965.00,0.0301
2964.00,0.0302
2963.00,0.0303
2962.00,0.0304
2961.00,0.0305
2960.00,0.0305
2959.00,0.0305
2958.00,0.0305
2957.00,0.0305
2956.00,0.0304
2955.00,0.0303
2954.00,0.0302
2953.00,0.0301
2952.00,0.0299
2951.00,0.0298
2950.00,0.0297
2949.00,0.0297
2948.00,0.0297
2947.00,0.0298
2946.00,0.0299
2945.00,0.0301
2944.00,0.0303
2943.00,0.0306
2942.00,0.0309
2941.00,0.0313
2940.00,0.0317
2939.00,0.0321
2938.00,0.0324
2937.00,0.0328
2936.00,0.0332
2935.00,0.0336
2934.00,0.0339
2933.00,0.0343
2932.00,0.0347
2931.00,0.0350
2930.00,0.0354
2929.00,0.0357
2928.00,0.0361
2927.00,0.0365
2926.00,0.0368
2925.00,0.0372
2924.00,0.0375
2923.00,0.0378
2922.00,0.0381
2921.00,0.0383
2920.00,0.0385
2919.00,0.0385
2918.00,0.0384
2917.00,0.0381
2916.00,0.0376
2915.00,0.0369
2914.00,0.0360
2913.00,0.0351
2912.00,0.0342
2911.00,0.0333
2910.00,0.0326
2909.00,0.0319
2908.00,0.0313
2907.00,0.0308
2906.00,0.0304
2905.00,0.0300
2904.00,0.0296
2903.00,0.0293
2902.00,0.0291
2901.00,0.0289
2900.00,0.0286
2899.00,0.0284
2898.00,0.0282
2897.00,0.0280
2896.00,0.0277
2895.00,0.0275
2894.00,0.0274
2893.00,0.0272
2892.00,0.0270
2891.00,0.0269
2890.00,0.0267
2889.00,0.0266
2888.00,0.0265
2887.00,0.0264
2886.00,0.0263
2885.00,0.0262
2884.00,0.0262
2883.00,0.0262
2882.00,0.0262
2881.00,0.0262
2880.00,0.0262
2879.00,0.0262
2878.00,0.0263
2877.00,0.0263
2876.00,0.0263
2875.00,0.0263
2874.00,0.0263
2873.00,0.0263
2872.00,0.0262
2871.00,0.0261
2870.00,0.0260
2869.00,0.0259
2868.00,0.0258
2867.00,0.0257
2866.00,0.0256
2865.00,0.0255
2864.00,0.0255
2863.00,0.0255
2862.00,0.0256
2861.00,0.0258
2860.00,0.0260
2859.00,0.0263
2858.00,0.0267
2857.00,0.0270
2856.00,0.0275
2855.00,0.0279
2854.00,0.0284
2853.00,0.0289
2852.00,0.0294
2851.00,0.0296
2850.00,0.0297
2849.00,0.0294
2848.00,0.0288
2847.00,0.0280
2846.00,0.0271
2845.00,0.0262
2844.00,0.0254
2843.00,0.0246
2842.00,0.0240
2841.00,0.0235
2840.00,0.0231
2839.00,0.0227
2838.00,0.0225
2837.00,0.0223
2836.00,0.0221
2835.00,0.0219
2834.00,0.0217
2833.00,0.0216
2832.00,0.0215
2831.00,0.0214
2830.00,0.0213
2829.00,0.0212
2828.00,0.0211
2827.00,0.0210
2826.00,0.0210
2825.00,0.0209
2824.00,0.0209
2823.00,0.0208
2822.00,0.0208
2821.00,0.0207
2820.00,0.0206
2819.00,0.0206
2818.00,0.0205
2817.00,0.0205
2816.00,0.0204
2815.00,0.0204
2814.00,0.0203
2813.00,0.0203
2812.00,0.0202
2811.00,0.0202
2810.00,0.0201
2809.00,0.0201
2808.00,0.0200
2807.00,0.0200
2806.00,0.0199
2805.00,0.0199
2804.00,0.0198
2803.00,0.0198
2802.00,0.0197
2801.00,0.0197
2800.00,0.0196
2799.00,0.0196
2798.00,0.0196
2797.00,0.0195
2796.00,0.0195
2795.00,0.0195
2794.00,0.0194
2793.00,0.0194
2792.00,0.0193
2791.00,0.0193
2790.00,0.0192
2789.00,0.0192
2788.00,0.0191
2787.00,0.0191
2786.00,0.0190
2785.00,0.0190
2784.00,0.0190
2783.00,0.0190
2782.00,0.0189
2781.00,0.0189
2780.00,0.0189
2779.00,0.0188
2778.00,0.0188
2777.00,0.0187
2776.00,0.0186
2775.00,0.0186
2774.00,0.0186
2773.00,0.0185
2772.00,0.0185
2771.00,0.0185
2770.00,0.0184
2769.00,0.0184
2768.00,0.0184
2767.00,0.0183
2766.00,0.0183
2765.00,0.0183
2764.00,0.0183
2763.00,0.0182
2762.00,0.0182
2761.00,0.0181
2760.00,0.0181
2759.00,0.0180
2758.00,0.0180
2757.00,0.0179
