Created as New Dataset,Sample 1058 By YargerLab Date Monday, August 04 2025
cm-1,A
4000.00,0.0003
3999.00,0.0004
3998.00,0.0004
3997.00,0.0004
3996.00,0.0004
3995.00,0.0004
3994.00,0.0004
3993.00,0.0004
3992.00,0.0004
3991.00,0.0004
3990.00,0.0004
3989.00,0.0004
3988.00,0.0004
3987.00,0.0004
3986.00,0.0004
3985.00,0.0003
3984.00,0.0003
3983.00,0.0003
3982.00,0.0003
3981.00,0.0003
3980.00,0.0003
3979.00,0.0003
3978.00,0.0003
3977.00,0.0004
3976.00,0.0004
3975.00,0.0004
3974.00,0.0003
3973.00,0.0003
3972.00,0.0003
3971.00,0.0003
3970.00,0.0003
3969.00,0.0003
3968.00,0.0003
3967.00,0.0003
3966.00,0.0003
3965.00,0.0003
3964.00,0.0003
3963.00,0.0003
3962.00,0.0003
3961.00,0.0003
3960.00,0.0003
3959.00,0.0003
3958.00,0.0003
3957.00,0.0003
3956.00,0.0003
3955.00,0.0003
3954.00,0.0003
3953.00,0.0003
3952.00,0.0003
3951.00,0.0003
3950.00,0.0003
3949.00,0.0003
3948.00,0.0003
3947.00,0.0003
3946.00,0.0003
3945.00,0.0003
3944.00,0.0003
3943.00,0.0003
3942.00,0.0003
3941.00,0.0003
3940.00,0.0003
3939.00,0.0003
3938.00,0.0003
3937.00,0.0003
3936.00,0.0003
3935.00,0.0002
3934.00,0.0002
3933.00,0.0003
3932.00,0.0003
3931.00,0.0003
3930.00,0.0003
3929.00,0.0003
3928.00,0.0003
3927.00,0.0003
3926.00,0.0003
3925.00,0.0003
3924.00,0.0003
3923.00,0.0003
3922.00,0.0003
3921.00,0.0003
3920.00,0.0003
3919.00,0.0003
3918.00,0.0003
3917.00,0.0003
3916.00,0.0003
3915.00,0.0003
3914.00,0.0003
3913.00,0.0003
3912.00,0.0003
3911.00,0.0003
3910.00,0.0003
3909.00,0.0003
3908.00,0.0003
3907.00,0.0003
3906.00,0.0002
3905.00,0.0002
3904.00,0.0002
3903.00,0.0002
3902.00,0.0002
3901.00,0.0002
3900.00,0.0002
3899.00,0.0002
3898.00,0.0002
3897.00,0.0003
3896.00,0.0003
3895.00,0.0003
3894.00,0.0003
3893.00,0.0003
3892.00,0.0003
3891.00,0.0003
3890.00,0.0003
3889.00,0.0003
3888.00,0.0002
3887.00,0.0002
3886.00,0.0002
3885.00,0.0002
3884.00,0.0002
3883.00,0.0002
3882.00,0.0002
3881.00,0.0002
3880.00,0.0003
3879.00,0.0003
3878.00,0.0003
3877.00,0.0003
3876.00,0.0003
3875.00,0.0003
3874.00,0.0003
3873.00,0.0003
3872.00,0.0003
3871.00,0.0002
3870.00,0.0003
3869.00,0.0003
3868.00,0.0003
3867.00,0.0002
3866.00,0.0002
3865.00,0.0002
3864.00,0.0002
3863.00,0.0002
3862.00,0.0002
3861.00,0.0002
3860.00,0.0003
3859.00,0.0003
3858.00,0.0003
3857.00,0.0002
3856.00,0.0002
3855.00,0.0002
3854.00,0.0002
3853.00,0.0003
3852.00,0.0002
3851.00,0.0002
3850.00,0.0002
3849.00,0.0003
3848.00,0.0003
3847.00,0.0003
3846.00,0.0003
3845.00,0.0003
3844.00,0.0003
3843.00,0.0003
3842.00,0.0003
3841.00,0.0003
3840.00,0.0003
3839.00,0.0002
3838.00,0.0002
3837.00,0.0002
3836.00,0.0002
3835.00,0.0002
3834.00,0.0002
3833.00,0.0002
3832.00,0.0003
3831.00,0.0003
3830.00,0.0003
3829.00,0.0003
3828.00,0.0003
3827.00,0.0003
3826.00,0.0003
3825.00,0.0004
3824.00,0.0003
3823.00,0.0003
3822.00,0.0003
3821.00,0.0003
3820.00,0.0003
3819.00,0.0003
3818.00,0.0003
3817.00,0.0003
3816.00,0.0003
3815.00,0.0003
3814.00,0.0003
3813.00,0.0003
3812.00,0.0003
3811.00,0.0003
3810.00,0.0004
3809.00,0.0004
3808.00,0.0004
3807.00,0.0004
3806.00,0.0003
3805.00,0.0003
3804.00,0.0003
3803.00,0.0003
3802.00,0.0003
3801.00,0.0003
3800.00,0.0003
3799.00,0.0003
3798.00,0.0003
3797.00,0.0003
3796.00,0.0003
3795.00,0.0003
3794.00,0.0003
3793.00,0.0003
3792.00,0.0003
3791.00,0.0003
3790.00,0.0003
3789.00,0.0004
3788.00,0.0004
3787.00,0.0004
3786.00,0.0004
3785.00,0.0004
3784.00,0.0004
3783.00,0.0004
3782.00,0.0004
3781.00,0.0004
3780.00,0.0004
3779.00,0.0004
3778.00,0.0004
3777.00,0.0004
3776.00,0.0004
3775.00,0.0004
3774.00,0.0004
3773.00,0.0004
3772.00,0.0004
3771.00,0.0004
3770.00,0.0004
3769.00,0.0003
3768.00,0.0003
3767.00,0.0003
3766.00,0.0003
3765.00,0.0003
3764.00,0.0003
3763.00,0.0004
3762.00,0.0004
3761.00,0.0004
3760.00,0.0004
3759.00,0.0004
3758.00,0.0005
3757.00,0.0005
3756.00,0.0004
3755.00,0.0004
3754.00,0.0004
3753.00,0.0004
3752.00,0.0004
3751.00,0.0003
3750.00,0.0003
3749.00,0.0003
3748.00,0.0003
3747.00,0.0002
3746.00,0.0002
3745.00,0.0002
3744.00,0.0003
3743.00,0.0003
3742.00,0.0003
3741.00,0.0003
3740.00,0.0004
3739.00,0.0004
3738.00,0.0004
3737.00,0.0004
3736.00,0.0004
3735.00,0.0003
3734.00,0.0003
3733.00,0.0002
3732.00,0.0002
3731.00,0.0002
3730.00,0.0003
3729.00,0.0003
3728.00,0.0003
3727.00,0.0003
3726.00,0.0003
3725.00,0.0003
3724.00,0.0003
3723.00,0.0003
3722.00,0.0003
3721.00,0.0003
3720.00,0.0003
3719.00,0.0003
3718.00,0.0004
3717.00,0.0004
3716.00,0.0004
3715.00,0.0004
3714.00,0.0003
3713.00,0.0003
3712.00,0.0003
3711.00,0.0003
3710.00,0.0003
3709.00,0.0003
3708.00,0.0003
3707.00,0.0003
3706.00,0.0003
3705.00,0.0003
3704.00,0.0003
3703.00,0.0003
3702.00,0.0003
3701.00,0.0003
3700.00,0.0003
3699.00,0.0004
3698.00,0.0004
3697.00,0.0004
3696.00,0.0005
3695.00,0.0005
3694.00,0.0005
3693.00,0.0005
3692.00,0.0005
3691.00,0.0005
3690.00,0.0005
3689.00,0.0005
3688.00,0.0005
3687.00,0.0006
3686.00,0.0006
3685.00,0.0007
3684.00,0.0008
3683.00,0.0008
3682.00,0.0009
3681.00,0.0009
3680.00,0.0009
3679.00,0.0010
3678.00,0.0009
3677.00,0.0009
3676.00,0.0009
3675.00,0.0009
3674.00,0.0009
3673.00,0.0009
3672.00,0.0009
3671.00,0.0009
3670.00,0.0010
3669.00,0.0010
3668.00,0.0011
3667.00,0.0011
3666.00,0.0011
3665.00,0.0012
3664.00,0.0012
3663.00,0.0013
3662.00,0.0013
3661.00,0.0014
3660.00,0.0014
3659.00,0.0014
3658.00,0.0014
3657.00,0.0014
3656.00,0.0015
3655.00,0.0015
3654.00,0.0015
3653.00,0.0015
3652.00,0.0016
3651.00,0.0016
3650.00,0.0016
3649.00,0.0016
3648.00,0.0016
3647.00,0.0016
3646.00,0.0017
3645.00,0.0018
3644.00,0.0019
3643.00,0.0019
3642.00,0.0020
3641.00,0.0020
3640.00,0.0021
3639.00,0.0021
3638.00,0.0022
3637.00,0.0022
3636.00,0.0022
3635.00,0.0022
3634.00,0.0023
3633.00,0.0023
3632.00,0.0023
3631.00,0.0024
3630.00,0.0024
3629.00,0.0025
3628.00,0.0025
3627.00,0.0026
3626.00,0.0026
3625.00,0.0026
3624.00,0.0027
3623.00,0.0028
3622.00,0.0028
3621.00,0.0029
3620.00,0.0029
3619.00,0.0030
3618.00,0.0031
3617.00,0.0032
3616.00,0.0032
3615.00,0.0033
3614.00,0.0033
3613.00,0.0033
3612.00,0.0034
3611.00,0.0034
3610.00,0.0034
3609.00,0.0035
3608.00,0.0036
3607.00,0.0036
3606.00,0.0037
3605.00,0.0038
3604.00,0.0039
3603.00,0.0040
3602.00,0.0040
3601.00,0.0041
3600.00,0.0042
3599.00,0.0042
3598.00,0.0043
3597.00,0.0043
3596.00,0.0044
3595.00,0.0044
3594.00,0.0045
3593.00,0.0046
3592.00,0.0046
3591.00,0.0047
3590.00,0.0048
3589.00,0.0049
3588.00,0.0049
3587.00,0.0050
3586.00,0.0051
3585.00,0.0052
3584.00,0.0052
3583.00,0.0053
3582.00,0.0054
3581.00,0.0055
3580.00,0.0056
3579.00,0.0057
3578.00,0.0058
3577.00,0.0058
3576.00,0.0059
3575.00,0.0060
3574.00,0.0061
3573.00,0.0062
3572.00,0.0063
3571.00,0.0064
3570.00,0.0065
3569.00,0.0065
3568.00,0.0066
3567.00,0.0067
3566.00,0.0068
3565.00,0.0069
3564.00,0.0070
3563.00,0.0071
3562.00,0.0072
3561.00,0.0073
3560.00,0.0073
3559.00,0.0074
3558.00,0.0075
3557.00,0.0075
3556.00,0.0076
3555.00,0.0077
3554.00,0.0078
3553.00,0.0079
3552.00,0.0080
3551.00,0.0081
3550.00,0.0082
3549.00,0.0082
3548.00,0.0083
3547.00,0.0084
3546.00,0.0084
3545.00,0.0085
3544.00,0.0085
3543.00,0.0086
3542.00,0.0087
3541.00,0.0088
3540.00,0.0088
3539.00,0.0089
3538.00,0.0090
3537.00,0.0091
3536.00,0.0091
3535.00,0.0092
3534.00,0.0092
3533.00,0.0093
3532.00,0.0093
3531.00,0.0094
3530.00,0.0094
3529.00,0.0095
3528.00,0.0096
3527.00,0.0097
3526.00,0.0097
3525.00,0.0098
3524.00,0.0098
3523.00,0.0099
3522.00,0.0100
3521.00,0.0100
3520.00,0.0101
3519.00,0.0101
3518.00,0.0102
3517.00,0.0102
3516.00,0.0103
3515.00,0.0103
3514.00,0.0104
3513.00,0.0104
3512.00,0.0105
3511.00,0.0105
3510.00,0.0106
3509.00,0.0106
3508.00,0.0107
3507.00,0.0107
3506.00,0.0108
3505.00,0.0108
3504.00,0.0109
3503.00,0.0109
3502.00,0.0110
3501.00,0.0110
3500.00,0.0111
3499.00,0.0111
3498.00,0.0112
3497.00,0.0113
3496.00,0.0113
3495.00,0.0114
3494.00,0.0114
3493.00,0.0114
3492.00,0.0115
3491.00,0.0115
3490.00,0.0115
3489.00,0.0116
3488.00,0.0116
3487.00,0.0117
3486.00,0.0117
3485.00,0.0117
3484.00,0.0118
3483.00,0.0118
3482.00,0.0118
3481.00,0.0119
3480.00,0.0119
3479.00,0.0120
3478.00,0.0120
3477.00,0.0120
3476.00,0.0121
3475.00,0.0121
3474.00,0.0121
3473.00,0.0122
3472.00,0.0122
3471.00,0.0122
3470.00,0.0123
3469.00,0.0123
3468.00,0.0124
3467.00,0.0124
3466.00,0.0124
3465.00,0.0124
3464.00,0.0124
3463.00,0.0124
3462.00,0.0125
3461.00,0.0125
3460.00,0.0125
3459.00,0.0126
3458.00,0.0126
3457.00,0.0127
3456.00,0.0127
3455.00,0.0127
3454.00,0.0127
3453.00,0.0127
3452.00,0.0128
3451.00,0.0128
3450.00,0.0128
3449.00,0.0128
3448.00,0.0128
3447.00,0.0128
3446.00,0.0128
3445.00,0.0128
3444.00,0.0129
3443.00,0.0129
3442.00,0.0129
3441.00,0.0129
3440.00,0.0129
3439.00,0.0130
3438.00,0.0130
3437.00,0.0130
3436.00,0.0130
3435.00,0.0130
3434.00,0.0130
3433.00,0.0130
3432.00,0.0131
3431.00,0.0131
3430.00,0.0131
3429.00,0.0131
3428.00,0.0131
3427.00,0.0131
3426.00,0.0131
3425.00,0.0131
3424.00,0.0131
3423.00,0.0131
3422.00,0.0131
3421.00,0.0131
3420.00,0.0131
3419.00,0.0131
3418.00,0.0131
3417.00,0.0131
3416.00,0.0131
3415.00,0.0132
3414.00,0.0132
3413.00,0.0132
3412.00,0.0131
3411.00,0.0131
3410.00,0.0131
3409.00,0.0131
3408.00,0.0131
3407.00,0.0131
3406.00,0.0131
3405.00,0.0131
3404.00,0.0131
3403.00,0.0131
3402.00,0.0131
3401.00,0.0131
3400.00,0.0131
3399.00,0.0131
3398.00,0.0131
3397.00,0.0131
3396.00,0.0131
3395.00,0.0131
3394.00,0.0130
3393.00,0.0130
3392.00,0.0130
3391.00,0.0130
3390.00,0.0130
3389.00,0.0130
3388.00,0.0130
3387.00,0.0130
3386.00,0.0130
3385.00,0.0130
3384.00,0.0129
3383.00,0.0129
3382.00,0.0129
3381.00,0.0129
3380.00,0.0128
3379.00,0.0128
3378.00,0.0128
3377.00,0.0128
3376.00,0.0128
3375.00,0.0128
3374.00,0.0128
3373.00,0.0128
3372.00,0.0127
3371.00,0.0127
3370.00,0.0126
3369.00,0.0126
3368.00,0.0126
3367.00,0.0126
3366.00,0.0126
3365.00,0.0126
3364.00,0.0126
3363.00,0.0125
3362.00,0.0125
3361.00,0.0125
3360.00,0.0125
3359.00,0.0125
3358.00,0.0125
3357.00,0.0125
3356.00,0.0125
3355.00,0.0125
3354.00,0.0125
3353.00,0.0124
3352.00,0.0124
3351.00,0.0123
3350.00,0.0123
3349.00,0.0123
3348.00,0.0124
3347.00,0.0124
3346.00,0.0123
3345.00,0.0123
3344.00,0.0123
3343.00,0.0122
3342.00,0.0122
3341.00,0.0122
3340.00,0.0121
3339.00,0.0121
3338.00,0.0120
3337.00,0.0120
3336.00,0.0121
3335.00,0.0121
3334.00,0.0121
3333.00,0.0121
3332.00,0.0121
3331.00,0.0121
3330.00,0.0121
3329.00,0.0120
3328.00,0.0120
3327.00,0.0120
3326.00,0.0119
3325.00,0.0119
3324.00,0.0120
3323.00,0.0120
3322.00,0.0121
3321.00,0.0121
3320.00,0.0121
3319.00,0.0121
3318.00,0.0121
3317.00,0.0121
3316.00,0.0121
3315.00,0.0121
3314.00,0.0121
3313.00,0.0120
3312.00,0.0120
3311.00,0.0119
3310.00,0.0118
3309.00,0.0117
3308.00,0.0117
3307.00,0.0117
3306.00,0.0117
3305.00,0.0117
3304.00,0.0118
3303.00,0.0119
3302.00,0.0120
3301.00,0.0120
3300.00,0.0120
3299.00,0.0120
3298.00,0.0120
3297.00,0.0119
3296.00,0.0119
3295.00,0.0118
3294.00,0.0118
3293.00,0.0118
3292.00,0.0118
3291.00,0.0119
3290.00,0.0120
3289.00,0.0120
3288.00,0.0121
3287.00,0.0121
3286.00,0.0120
3285.00,0.0120
3284.00,0.0120
3283.00,0.0120
3282.00,0.0120
3281.00,0.0120
3280.00,0.0119
3279.00,0.0119
3278.00,0.0119
3277.00,0.0119
3276.00,0.0118
3275.00,0.0118
3274.00,0.0117
3273.00,0.0117
3272.00,0.0117
3271.00,0.0117
3270.00,0.0117
3269.00,0.0117
3268.00,0.0117
3267.00,0.0117
3266.00,0.0117
3265.00,0.0117
3264.00,0.0117
3263.00,0.0117
3262.00,0.0116
3261.00,0.0116
3260.00,0.0116
3259.00,0.0115
3258.00,0.0115
3257.00,0.0115
3256.00,0.0114
3255.00,0.0114
3254.00,0.0114
3253.00,0.0114
3252.00,0.0114
3251.00,0.0114
3250.00,0.0114
3249.00,0.0113
3248.00,0.0113
3247.00,0.0113
3246.00,0.0113
3245.00,0.0113
3244.00,0.0113
3243.00,0.0113
3242.00,0.0113
3241.00,0.0112
3240.00,0.0112
3239.00,0.0112
3238.00,0.0112
3237.00,0.0111
3236.00,0.0111
3235.00,0.0110
3234.00,0.0110
3233.00,0.0109
3232.00,0.0109
3231.00,0.0109
3230.00,0.0109
3229.00,0.0109
3228.00,0.0109
3227.00,0.0109
3226.00,0.0108
3225.00,0.0108
3224.00,0.0108
3223.00,0.0108
3222.00,0.0108
3221.00,0.0107
3220.00,0.0107
3219.00,0.0106
3218.00,0.0106
3217.00,0.0106
3216.00,0.0106
3215.00,0.0106
3214.00,0.0105
3213.00,0.0105
3212.00,0.0105
3211.00,0.0104
3210.00,0.0104
3209.00,0.0104
3208.00,0.0104
3207.00,0.0103
3206.00,0.0103
3205.00,0.0102
3204.00,0.0102
3203.00,0.0101
3202.00,0.0101
3201.00,0.0100
3200.00,0.0100
3199.00,0.0100
3198.00,0.0099
3197.00,0.0099
3196.00,0.0098
3195.00,0.0098
3194.00,0.0098
3193.00,0.0098
3192.00,0.0098
3191.00,0.0098
3190.00,0.0097
3189.00,0.0097
3188.00,0.0097
3187.00,0.0096
3186.00,0.0096
3185.00,0.0095
3184.00,0.0095
3183.00,0.0095
3182.00,0.0094
3181.00,0.0094
3180.00,0.0094
3179.00,0.0094
3178.00,0.0094
3177.00,0.0093
3176.00,0.0093
3175.00,0.0093
3174.00,0.0093
3173.00,0.0092
3172.00,0.0092
3171.00,0.0092
3170.00,0.0091
3169.00,0.0091
3168.00,0.0091
3167.00,0.0091
3166.00,0.0090
3165.00,0.0090
3164.00,0.0089
3163.00,0.0089
3162.00,0.0089
3161.00,0.0089
3160.00,0.0089
3159.00,0.0088
3158.00,0.0088
3157.00,0.0087
3156.00,0.0087
3155.00,0.0087
3154.00,0.0086
3153.00,0.0086
3152.00,0.0086
3151.00,0.0086
3150.00,0.0085
3149.00,0.0085
3148.00,0.0085
3147.00,0.0084
3146.00,0.0084
3145.00,0.0084
3144.00,0.0084
3143.00,0.0083
3142.00,0.0083
3141.00,0.0083
3140.00,0.0083
3139.00,0.0082
3138.00,0.0082
3137.00,0.0082
3136.00,0.0081
3135.00,0.0081
3134.00,0.0081
3133.00,0.0081
3132.00,0.0080
3131.00,0.0080
3130.00,0.0080
3129.00,0.0079
3128.00,0.0079
3127.00,0.0079
3126.00,0.0079
3125.00,0.0079
3124.00,0.0079
3123.00,0.0079
3122.00,0.0079
3121.00,0.0078
3120.00,0.0078
3119.00,0.0078
3118.00,0.0078
3117.00,0.0078
3116.00,0.0077
3115.00,0.0077
3114.00,0.0077
3113.00,0.0077
3112.00,0.0077
3111.00,0.0076
3110.00,0.0076
3109.00,0.0076
3108.00,0.0075
3107.00,0.0075
3106.00,0.0075
3105.00,0.0074
3104.00,0.0074
3103.00,0.0074
3102.00,0.0073
3101.00,0.0073
3100.00,0.0073
3099.00,0.0073
3098.00,0.0072
3097.00,0.0072
3096.00,0.0072
3095.00,0.0072
3094.00,0.0072
3093.00,0.0072
3092.00,0.0072
3091.00,0.0072
3090.00,0.0072
3089.00,0.0072
3088.00,0.0072
3087.00,0.0072
3086.00,0.0071
3085.00,0.0071
3084.00,0.0071
3083.00,0.0071
3082.00,0.0071
3081.00,0.0071
3080.00,0.0071
3079.00,0.0071
3078.00,0.0071
3077.00,0.0071
3076.00,0.0071
3075.00,0.0070
3074.00,0.0070
3073.00,0.0070
3072.00,0.0070
3071.00,0.0070
3070.00,0.0069
3069.00,0.0069
3068.00,0.0069
3067.00,0.0068
3066.00,0.0068
3065.00,0.0068
3064.00,0.0067
3063.00,0.0067
3062.00,0.0067
3061.00,0.0067
3060.00,0.0066
3059.00,0.0066
3058.00,0.0066
3057.00,0.0065
3056.00,0.0065
3055.00,0.0065
3054.00,0.0065
3053.00,0.0065
3052.00,0.0065
3051.00,0.0065
3050.00,0.0065
3049.00,0.0065
3048.00,0.0064
3047.00,0.0064
3046.00,0.0064
3045.00,0.0064
3044.00,0.0064
3043.00,0.0064
3042.00,0.0063
3041.00,0.0063
3040.00,0.0063
3039.00,0.0063
3038.00,0.0063
3037.00,0.0063
3036.00,0.0063
3035.00,0.0063
3034.00,0.0063
3033.00,0.0063
3032.00,0.0063
3031.00,0.0062
3030.00,0.0062
3029.00,0.0062
3028.00,0.0062
3027.00,0.0061
3026.00,0.0061
3025.00,0.0061
3024.00,0.0061
3023.00,0.0061
3022.00,0.0061
3021.00,0.0061
3020.00,0.0062
3019.00,0.0062
3018.00,0.0062
3017.00,0.0063
3016.00,0.0063
3015.00,0.0064
3014.00,0.0064
3013.00,0.0065
3012.00,0.0065
3011.00,0.0066
3010.00,0.0067
3009.00,0.0068
3008.00,0.0070
3007.00,0.0071
3006.00,0.0073
3005.00,0.0075
3004.00,0.0077
3003.00,0.0079
3002.00,0.0082
3001.00,0.0084
3000.00,0.0086
2999.00,0.0089
2998.00,0.0092
2997.00,0.0095
2996.00,0.0098
2995.00,0.0102
2994.00,0.0105
2993.00,0.0108
2992.00,0.0112
2991.00,0.0115
2990.00,0.0119
2989.00,0.0123
2988.00,0.0126
2987.00,0.0129
2986.00,0.0133
2985.00,0.0137
2984.00,0.0140
2983.00,0.0143
2982.00,0.0146
2981.00,0.0149
2980.00,0.0151
2979.00,0.0153
2978.00,0.0154
2977.00,0.0155
2976.00,0.0157
2975.00,0.0158
2974.00,0.0160
2973.00,0.0161
2972.00,0.0163
2971.00,0.0165
2970.00,0.0167
2969.00,0.0169
2968.00,0.0171
2967.00,0.0173
2966.00,0.0176
2965.00,0.0179
2964.00,0.0181
2963.00,0.0184
2962.00,0.0186
2961.00,0.0188
2960.00,0.0190
2959.00,0.0191
2958.00,0.0193
2957.00,0.0194
2956.00,0.0196
2955.00,0.0197
2954.00,0.0198
2953.00,0.0198
2952.00,0.0198
2951.00,0.0198
2950.00,0.0197
2949.00,0.0197
2948.00,0.0196
2947.00,0.0195
2946.00,0.0194
2945.00,0.0194
2944.00,0.0193
2943.00,0.0193
2942.00,0.0194
2941.00,0.0194
2940.00,0.0195
2939.00,0.0196
2938.00,0.0197
2937.00,0.0199
2936.00,0.0200
2935.00,0.0202
2934.00,0.0204
2933.00,0.0206
2932.00,0.0208
2931.00,0.0210
2930.00,0.0211
2929.00,0.0212
2928.00,0.0213
2927.00,0.0213
2926.00,0.0213
2925.00,0.0212
2924.00,0.0211
2923.00,0.0210
2922.00,0.0208
2921.00,0.0206
2920.00,0.0203
2919.00,0.0200
2918.00,0.0197
2917.00,0.0194
2916.00,0.0191
2915.00,0.0188
2914.00,0.0184
2913.00,0.0181
2912.00,0.0178
2911.00,0.0174
2910.00,0.0171
2909.00,0.0168
2908.00,0.0165
2907.00,0.0162
2906.00,0.0160
2905.00,0.0157
2904.00,0.0156
2903.00,0.0154
2902.00,0.0153
2901.00,0.0152
2900.00,0.0152
2899.00,0.0151
2898.00,0.0151
2897.00,0.0150
2896.00,0.0150
2895.00,0.0150
2894.00,0.0149
2893.00,0.0149
2892.00,0.0149
2891.00,0.0149
2890.00,0.0149
2889.00,0.0148
2888.00,0.0148
2887.00,0.0148
2886.00,0.0148
2885.00,0.0147
2884.00,0.0147
2883.00,0.0147
2882.00,0.0147
2881.00,0.0147
2880.00,0.0147
2879.00,0.0148
2878.00,0.0148
2877.00,0.0149
2876.00,0.0149
2875.00,0.0150
2874.00,0.0151
2873.00,0.0151
2872.00,0.0152
2871.00,0.0152
2870.00,0.0152
2869.00,0.0152
2868.00,0.0151
2867.00,0.0151
2866.00,0.0150
2865.00,0.0150
2864.00,0.0149
2863.00,0.0149
2862.00,0.0149
2861.00,0.0149
2860.00,0.0149
2859.00,0.0149
2858.00,0.0148
2857.00,0.0146
2856.00,0.0144
2855.00,0.0142
2854.00,0.0138
2853.00,0.0135
2852.00,0.0131
2851.00,0.0127
2850.00,0.0122
2849.00,0.0118
2848.00,0.0113
2847.00,0.0109
2846.00,0.0105
2845.00,0.0101
2844.00,0.0098
2843.00,0.0094
2842.00,0.0091
2841.00,0.0088
2840.00,0.0084
2839.00,0.0081
2838.00,0.0079
2837.00,0.0077
2836.00,0.0075
2835.00,0.0073
2834.00,0.0071
2833.00,0.0069
2832.00,0.0068
2831.00,0.0066
2830.00,0.0064
2829.00,0.0062
2828.00,0.0061
2827.00,0.0060
2826.00,0.0058
2825.00,0.0057
2824.00,0.0056
2823.00,0.0055
2822.00,0.0053
2821.00,0.0052
2820.00,0.0051
2819.00,0.0050
2818.00,0.0049
2817.00,0.0048
2816.00,0.0047
2815.00,0.0047
2814.00,0.0046
2813.00,0.0045
2812.00,0.0045
2811.00,0.0044
2810.00,0.0043
2809.00,0.0043
2808.00,0.0043
2807.00,0.0042
2806.00,0.0042
2805.00,0.0041
2804.00,0.0041
2803.00,0.0040
2802.00,0.0040
2801.00,0.0040
2800.00,0.0039
2799.00,0.0039
2798.00,0.0039
2797.00,0.0038
2796.00,0.0038
2795.00,0.0038
2794.00,0.0038
2793.00,0.0037
2792.00,0.0037
2791.00,0.0037
2790.00,0.0036
2789.00,0.0036
2788.00,0.0036
2787.00,0.0036
2786.00,0.0035
2785.00,0.0035
2784.00,0.0035
2783.00,0.0035
2782.00,0.0035
2781.00,0.0035
2780.00,0.0035
2779.00,0.0035
2778.00,0.0034
2777.00,0.0034
2776.00,0.0034
2775.00,0.0034
2774.00,0.0033
2773.00,0.0033
2772.00,0.0033
2771.00,0.0033
2770.00,0.0033
2769.00,0.0033
2768.00,0.0033
2767.00,0.0032
2766.00,0.0032
2765.00,0.0032
2764.00,0.0032
2763.00,0.0032
2762.00,0.0032
2761.00,0.0032
2760.00,0.0032
2759.00,0.0032
2758.00,0.0032
2757.00,0.0032
