Created as New Dataset,Sample 1057 By YargerLab Date Monday, August 04 2025
cm-1,A
4000.00,0.0006
3999.00,0.0006
3998.00,0.0006
3997.00,0.0006
3996.00,0.0006
3995.00,0.0006
3994.00,0.0006
3993.00,0.0006
3992.00,0.0006
3991.00,0.0006
3990.00,0.0006
3989.00,0.0006
3988.00,0.0006
3987.00,0.0006
3986.00,0.0006
3985.00,0.0006
3984.00,0.0006
3983.00,0.0006
3982.00,0.0006
3981.00,0.0006
3980.00,0.0006
3979.00,0.0006
3978.00,0.0006
3977.00,0.0006
3976.00,0.0006
3975.00,0.0006
3974.00,0.0005
3973.00,0.0005
3972.00,0.0005
3971.00,0.0005
3970.00,0.0005
3969.00,0.0005
3968.00,0.0005
3967.00,0.0005
3966.00,0.0005
3965.00,0.0005
3964.00,0.0005
3963.00,0.0005
3962.00,0.0005
3961.00,0.0005
3960.00,0.0005
3959.00,0.0005
3958.00,0.0005
3957.00,0.0005
3956.00,0.0006
3955.00,0.0006
3954.00,0.0005
3953.00,0.0005
3952.00,0.0005
3951.00,0.0005
3950.00,0.0005
3949.00,0.0005
3948.00,0.0005
3947.00,0.0005
3946.00,0.0005
3945.00,0.0004
3944.00,0.0004
3943.00,0.0004
3942.00,0.0004
3941.00,0.0005
3940.00,0.0005
3939.00,0.0005
3938.00,0.0005
3937.00,0.0005
3936.00,0.0005
3935.00,0.0005
3934.00,0.0005
3933.00,0.0005
3932.00,0.0005
3931.00,0.0005
3930.00,0.0005
3929.00,0.0005
3928.00,0.0005
3927.00,0.0005
3926.00,0.0005
3925.00,0.0005
3924.00,0.0005
3923.00,0.0005
3922.00,0.0004
3921.00,0.0004
3920.00,0.0004
3919.00,0.0004
3918.00,0.0004
3917.00,0.0004
3916.00,0.0004
3915.00,0.0004
3914.00,0.0004
3913.00,0.0005
3912.00,0.0004
3911.00,0.0004
3910.00,0.0004
3909.00,0.0004
3908.00,0.0004
3907.00,0.0004
3906.00,0.0004
3905.00,0.0004
3904.00,0.0004
3903.00,0.0004
3902.00,0.0004
3901.00,0.0004
3900.00,0.0004
3899.00,0.0004
3898.00,0.0004
3897.00,0.0004
3896.00,0.0004
3895.00,0.0004
3894.00,0.0004
3893.00,0.0004
3892.00,0.0004
3891.00,0.0004
3890.00,0.0004
3889.00,0.0004
3888.00,0.0004
3887.00,0.0004
3886.00,0.0004
3885.00,0.0004
3884.00,0.0005
3883.00,0.0004
3882.00,0.0004
3881.00,0.0004
3880.00,0.0004
3879.00,0.0005
3878.00,0.0005
3877.00,0.0005
3876.00,0.0004
3875.00,0.0004
3874.00,0.0004
3873.00,0.0004
3872.00,0.0004
3871.00,0.0004
3870.00,0.0004
3869.00,0.0004
3868.00,0.0004
3867.00,0.0004
3866.00,0.0003
3865.00,0.0003
3864.00,0.0004
3863.00,0.0004
3862.00,0.0004
3861.00,0.0004
3860.00,0.0004
3859.00,0.0004
3858.00,0.0004
3857.00,0.0004
3856.00,0.0004
3855.00,0.0004
3854.00,0.0004
3853.00,0.0004
3852.00,0.0004
3851.00,0.0004
3850.00,0.0004
3849.00,0.0004
3848.00,0.0004
3847.00,0.0005
3846.00,0.0005
3845.00,0.0005
3844.00,0.0005
3843.00,0.0005
3842.00,0.0005
3841.00,0.0004
3840.00,0.0004
3839.00,0.0004
3838.00,0.0005
3837.00,0.0005
3836.00,0.0005
3835.00,0.0004
3834.00,0.0004
3833.00,0.0004
3832.00,0.0004
3831.00,0.0004
3830.00,0.0004
3829.00,0.0005
3828.00,0.0005
3827.00,0.0005
3826.00,0.0005
3825.00,0.0005
3824.00,0.0005
3823.00,0.0005
3822.00,0.0005
3821.00,0.0005
3820.00,0.0005
3819.00,0.0004
3818.00,0.0004
3817.00,0.0004
3816.00,0.0004
3815.00,0.0004
3814.00,0.0004
3813.00,0.0004
3812.00,0.0004
3811.00,0.0005
3810.00,0.0005
3809.00,0.0005
3808.00,0.0006
3807.00,0.0006
3806.00,0.0006
3805.00,0.0006
3804.00,0.0005
3803.00,0.0005
3802.00,0.0005
3801.00,0.0005
3800.00,0.0004
3799.00,0.0004
3798.00,0.0003
3797.00,0.0003
3796.00,0.0004
3795.00,0.0004
3794.00,0.0004
3793.00,0.0004
3792.00,0.0004
3791.00,0.0004
3790.00,0.0005
3789.00,0.0005
3788.00,0.0005
3787.00,0.0005
3786.00,0.0005
3785.00,0.0005
3784.00,0.0005
3783.00,0.0005
3782.00,0.0005
3781.00,0.0005
3780.00,0.0005
3779.00,0.0005
3778.00,0.0005
3777.00,0.0005
3776.00,0.0005
3775.00,0.0005
3774.00,0.0005
3773.00,0.0005
3772.00,0.0005
3771.00,0.0005
3770.00,0.0005
3769.00,0.0005
3768.00,0.0004
3767.00,0.0004
3766.00,0.0004
3765.00,0.0004
3764.00,0.0004
3763.00,0.0004
3762.00,0.0005
3761.00,0.0005
3760.00,0.0005
3759.00,0.0005
3758.00,0.0005
3757.00,0.0005
3756.00,0.0005
3755.00,0.0005
3754.00,0.0005
3753.00,0.0005
3752.00,0.0005
3751.00,0.0004
3750.00,0.0004
3749.00,0.0004
3748.00,0.0003
3747.00,0.0003
3746.00,0.0002
3745.00,0.0003
3744.00,0.0003
3743.00,0.0004
3742.00,0.0003
3741.00,0.0003
3740.00,0.0003
3739.00,0.0004
3738.00,0.0004
3737.00,0.0004
3736.00,0.0004
3735.00,0.0003
3734.00,0.0003
3733.00,0.0003
3732.00,0.0003
3731.00,0.0003
3730.00,0.0003
3729.00,0.0003
3728.00,0.0003
3727.00,0.0003
3726.00,0.0003
3725.00,0.0003
3724.00,0.0003
3723.00,0.0003
3722.00,0.0003
3721.00,0.0003
3720.00,0.0003
3719.00,0.0004
3718.00,0.0004
3717.00,0.0005
3716.00,0.0005
3715.00,0.0005
3714.00,0.0005
3713.00,0.0004
3712.00,0.0004
3711.00,0.0004
3710.00,0.0004
3709.00,0.0004
3708.00,0.0004
3707.00,0.0004
3706.00,0.0004
3705.00,0.0005
3704.00,0.0005
3703.00,0.0005
3702.00,0.0005
3701.00,0.0005
3700.00,0.0005
3699.00,0.0005
3698.00,0.0005
3697.00,0.0006
3696.00,0.0006
3695.00,0.0006
3694.00,0.0007
3693.00,0.0007
3692.00,0.0007
3691.00,0.0007
3690.00,0.0007
3689.00,0.0007
3688.00,0.0007
3687.00,0.0008
3686.00,0.0008
3685.00,0.0009
3684.00,0.0010
3683.00,0.0011
3682.00,0.0011
3681.00,0.0012
3680.00,0.0012
3679.00,0.0012
3678.00,0.0012
3677.00,0.0012
3676.00,0.0012
3675.00,0.0012
3674.00,0.0012
3673.00,0.0012
3672.00,0.0012
3671.00,0.0012
3670.00,0.0013
3669.00,0.0014
3668.00,0.0014
3667.00,0.0014
3666.00,0.0014
3665.00,0.0015
3664.00,0.0015
3663.00,0.0016
3662.00,0.0016
3661.00,0.0017
3660.00,0.0018
3659.00,0.0018
3658.00,0.0018
3657.00,0.0018
3656.00,0.0019
3655.00,0.0019
3654.00,0.0019
3653.00,0.0020
3652.00,0.0020
3651.00,0.0020
3650.00,0.0021
3649.00,0.0021
3648.00,0.0021
3647.00,0.0021
3646.00,0.0021
3645.00,0.0023
3644.00,0.0024
3643.00,0.0025
3642.00,0.0026
3641.00,0.0027
3640.00,0.0028
3639.00,0.0028
3638.00,0.0029
3637.00,0.0029
3636.00,0.0029
3635.00,0.0030
3634.00,0.0030
3633.00,0.0031
3632.00,0.0032
3631.00,0.0032
3630.00,0.0033
3629.00,0.0033
3628.00,0.0033
3627.00,0.0033
3626.00,0.0034
3625.00,0.0035
3624.00,0.0036
3623.00,0.0037
3622.00,0.0038
3621.00,0.0039
3620.00,0.0039
3619.00,0.0040
3618.00,0.0040
3617.00,0.0041
3616.00,0.0042
3615.00,0.0043
3614.00,0.0044
3613.00,0.0044
3612.00,0.0045
3611.00,0.0045
3610.00,0.0046
3609.00,0.0047
3608.00,0.0047
3607.00,0.0048
3606.00,0.0050
3605.00,0.0051
3604.00,0.0052
3603.00,0.0053
3602.00,0.0054
3601.00,0.0055
3600.00,0.0056
3599.00,0.0057
3598.00,0.0058
3597.00,0.0059
3596.00,0.0060
3595.00,0.0061
3594.00,0.0061
3593.00,0.0062
3592.00,0.0063
3591.00,0.0064
3590.00,0.0065
3589.00,0.0066
3588.00,0.0067
3587.00,0.0068
3586.00,0.0068
3585.00,0.0069
3584.00,0.0071
3583.00,0.0072
3582.00,0.0074
3581.00,0.0076
3580.00,0.0077
3579.00,0.0078
3578.00,0.0079
3577.00,0.0080
3576.00,0.0081
3575.00,0.0083
3574.00,0.0084
3573.00,0.0085
3572.00,0.0087
3571.00,0.0089
3570.00,0.0090
3569.00,0.0091
3568.00,0.0091
3567.00,0.0091
3566.00,0.0091
3565.00,0.0092
3564.00,0.0094
3563.00,0.0096
3562.00,0.0097
3561.00,0.0099
3560.00,0.0100
3559.00,0.0101
3558.00,0.0103
3557.00,0.0104
3556.00,0.0105
3555.00,0.0106
3554.00,0.0107
3553.00,0.0108
3552.00,0.0109
3551.00,0.0110
3550.00,0.0111
3549.00,0.0112
3548.00,0.0114
3547.00,0.0114
3546.00,0.0115
3545.00,0.0116
3544.00,0.0117
3543.00,0.0118
3542.00,0.0119
3541.00,0.0120
3540.00,0.0122
3539.00,0.0123
3538.00,0.0124
3537.00,0.0125
3536.00,0.0126
3535.00,0.0126
3534.00,0.0127
3533.00,0.0128
3532.00,0.0129
3531.00,0.0130
3530.00,0.0131
3529.00,0.0131
3528.00,0.0132
3527.00,0.0133
3526.00,0.0133
3525.00,0.0134
3524.00,0.0135
3523.00,0.0136
3522.00,0.0137
3521.00,0.0137
3520.00,0.0138
3519.00,0.0139
3518.00,0.0140
3517.00,0.0141
3516.00,0.0142
3515.00,0.0143
3514.00,0.0144
3513.00,0.0144
3512.00,0.0145
3511.00,0.0145
3510.00,0.0146
3509.00,0.0147
3508.00,0.0147
3507.00,0.0148
3506.00,0.0149
3505.00,0.0150
3504.00,0.0150
3503.00,0.0151
3502.00,0.0151
3501.00,0.0151
3500.00,0.0152
3499.00,0.0153
3498.00,0.0154
3497.00,0.0155
3496.00,0.0156
3495.00,0.0156
3494.00,0.0157
3493.00,0.0157
3492.00,0.0158
3491.00,0.0158
3490.00,0.0159
3489.00,0.0159
3488.00,0.0160
3487.00,0.0160
3486.00,0.0161
3485.00,0.0161
3484.00,0.0162
3483.00,0.0162
3482.00,0.0163
3481.00,0.0164
3480.00,0.0164
3479.00,0.0164
3478.00,0.0165
3477.00,0.0165
3476.00,0.0166
3475.00,0.0166
3474.00,0.0167
3473.00,0.0167
3472.00,0.0168
3471.00,0.0168
3470.00,0.0169
3469.00,0.0169
3468.00,0.0170
3467.00,0.0170
3466.00,0.0170
3465.00,0.0171
3464.00,0.0171
3463.00,0.0171
3462.00,0.0171
3461.00,0.0172
3460.00,0.0172
3459.00,0.0172
3458.00,0.0173
3457.00,0.0173
3456.00,0.0174
3455.00,0.0174
3454.00,0.0174
3453.00,0.0175
3452.00,0.0175
3451.00,0.0176
3450.00,0.0176
3449.00,0.0176
3448.00,0.0176
3447.00,0.0176
3446.00,0.0176
3445.00,0.0176
3444.00,0.0176
3443.00,0.0177
3442.00,0.0177
3441.00,0.0177
3440.00,0.0178
3439.00,0.0178
3438.00,0.0179
3437.00,0.0179
3436.00,0.0179
3435.00,0.0179
3434.00,0.0179
3433.00,0.0180
3432.00,0.0180
3431.00,0.0180
3430.00,0.0180
3429.00,0.0180
3428.00,0.0180
3427.00,0.0180
3426.00,0.0180
3425.00,0.0181
3424.00,0.0181
3423.00,0.0181
3422.00,0.0181
3421.00,0.0181
3420.00,0.0181
3419.00,0.0181
3418.00,0.0181
3417.00,0.0181
3416.00,0.0181
3415.00,0.0181
3414.00,0.0181
3413.00,0.0181
3412.00,0.0181
3411.00,0.0181
3410.00,0.0181
3409.00,0.0181
3408.00,0.0181
3407.00,0.0181
3406.00,0.0180
3405.00,0.0180
3404.00,0.0180
3403.00,0.0181
3402.00,0.0181
3401.00,0.0181
3400.00,0.0181
3399.00,0.0180
3398.00,0.0180
3397.00,0.0180
3396.00,0.0180
3395.00,0.0179
3394.00,0.0179
3393.00,0.0179
3392.00,0.0178
3391.00,0.0178
3390.00,0.0178
3389.00,0.0178
3388.00,0.0178
3387.00,0.0177
3386.00,0.0177
3385.00,0.0177
3384.00,0.0176
3383.00,0.0176
3382.00,0.0176
3381.00,0.0176
3380.00,0.0176
3379.00,0.0175
3378.00,0.0175
3377.00,0.0174
3376.00,0.0174
3375.00,0.0174
3374.00,0.0173
3373.00,0.0173
3372.00,0.0173
3371.00,0.0172
3370.00,0.0172
3369.00,0.0171
3368.00,0.0171
3367.00,0.0171
3366.00,0.0170
3365.00,0.0170
3364.00,0.0169
3363.00,0.0169
3362.00,0.0168
3361.00,0.0168
3360.00,0.0168
3359.00,0.0167
3358.00,0.0167
3357.00,0.0167
3356.00,0.0166
3355.00,0.0166
3354.00,0.0166
3353.00,0.0165
3352.00,0.0165
3351.00,0.0165
3350.00,0.0164
3349.00,0.0164
3348.00,0.0164
3347.00,0.0164
3346.00,0.0163
3345.00,0.0163
3344.00,0.0163
3343.00,0.0162
3342.00,0.0162
3341.00,0.0161
3340.00,0.0161
3339.00,0.0160
3338.00,0.0160
3337.00,0.0160
3336.00,0.0160
3335.00,0.0159
3334.00,0.0159
3333.00,0.0159
3332.00,0.0159
3331.00,0.0159
3330.00,0.0159
3329.00,0.0158
3328.00,0.0158
3327.00,0.0157
3326.00,0.0157
3325.00,0.0157
3324.00,0.0157
3323.00,0.0157
3322.00,0.0157
3321.00,0.0157
3320.00,0.0157
3319.00,0.0157
3318.00,0.0157
3317.00,0.0157
3316.00,0.0157
3315.00,0.0157
3314.00,0.0157
3313.00,0.0156
3312.00,0.0156
3311.00,0.0156
3310.00,0.0155
3309.00,0.0154
3308.00,0.0154
3307.00,0.0153
3306.00,0.0153
3305.00,0.0153
3304.00,0.0154
3303.00,0.0154
3302.00,0.0155
3301.00,0.0155
3300.00,0.0155
3299.00,0.0155
3298.00,0.0155
3297.00,0.0155
3296.00,0.0154
3295.00,0.0154
3294.00,0.0154
3293.00,0.0154
3292.00,0.0154
3291.00,0.0154
3290.00,0.0155
3289.00,0.0155
3288.00,0.0155
3287.00,0.0155
3286.00,0.0154
3285.00,0.0154
3284.00,0.0154
3283.00,0.0154
3282.00,0.0154
3281.00,0.0153
3280.00,0.0153
3279.00,0.0153
3278.00,0.0153
3277.00,0.0152
3276.00,0.0152
3275.00,0.0152
3274.00,0.0151
3273.00,0.0151
3272.00,0.0151
3271.00,0.0150
3270.00,0.0150
3269.00,0.0150
3268.00,0.0150
3267.00,0.0150
3266.00,0.0150
3265.00,0.0150
3264.00,0.0149
3263.00,0.0149
3262.00,0.0149
3261.00,0.0149
3260.00,0.0148
3259.00,0.0148
3258.00,0.0147
3257.00,0.0147
3256.00,0.0147
3255.00,0.0146
3254.00,0.0146
3253.00,0.0145
3252.00,0.0145
3251.00,0.0145
3250.00,0.0145
3249.00,0.0145
3248.00,0.0145
3247.00,0.0144
3246.00,0.0144
3245.00,0.0143
3244.00,0.0143
3243.00,0.0143
3242.00,0.0143
3241.00,0.0143
3240.00,0.0142
3239.00,0.0142
3238.00,0.0142
3237.00,0.0141
3236.00,0.0141
3235.00,0.0140
3234.00,0.0139
3233.00,0.0139
3232.00,0.0139
3231.00,0.0138
3230.00,0.0138
3229.00,0.0138
3228.00,0.0137
3227.00,0.0136
3226.00,0.0136
3225.00,0.0136
3224.00,0.0136
3223.00,0.0135
3222.00,0.0135
3221.00,0.0134
3220.00,0.0134
3219.00,0.0133
3218.00,0.0133
3217.00,0.0132
3216.00,0.0132
3215.00,0.0131
3214.00,0.0131
3213.00,0.0131
3212.00,0.0130
3211.00,0.0130
3210.00,0.0129
3209.00,0.0129
3208.00,0.0128
3207.00,0.0128
3206.00,0.0127
3205.00,0.0127
3204.00,0.0126
3203.00,0.0126
3202.00,0.0125
3201.00,0.0125
3200.00,0.0124
3199.00,0.0124
3198.00,0.0123
3197.00,0.0123
3196.00,0.0122
3195.00,0.0122
3194.00,0.0121
3193.00,0.0121
3192.00,0.0121
3191.00,0.0121
3190.00,0.0120
3189.00,0.0119
3188.00,0.0119
3187.00,0.0118
3186.00,0.0118
3185.00,0.0118
3184.00,0.0117
3183.00,0.0117
3182.00,0.0116
3181.00,0.0116
3180.00,0.0115
3179.00,0.0115
3178.00,0.0114
3177.00,0.0114
3176.00,0.0114
3175.00,0.0114
3174.00,0.0113
3173.00,0.0113
3172.00,0.0113
3171.00,0.0112
3170.00,0.0112
3169.00,0.0111
3168.00,0.0111
3167.00,0.0110
3166.00,0.0110
3165.00,0.0109
3164.00,0.0109
3163.00,0.0109
3162.00,0.0108
3161.00,0.0108
3160.00,0.0108
3159.00,0.0107
3158.00,0.0107
3157.00,0.0106
3156.00,0.0106
3155.00,0.0106
3154.00,0.0105
3153.00,0.0105
3152.00,0.0105
3151.00,0.0104
3150.00,0.0104
3149.00,0.0104
3148.00,0.0103
3147.00,0.0103
3146.00,0.0102
3145.00,0.0102
3144.00,0.0101
3143.00,0.0101
3142.00,0.0100
3141.00,0.0100
3140.00,0.0100
3139.00,0.0099
3138.00,0.0099
3137.00,0.0098
3136.00,0.0098
3135.00,0.0098
3134.00,0.0097
3133.00,0.0097
3132.00,0.0097
3131.00,0.0097
3130.00,0.0097
3129.00,0.0096
3128.00,0.0096
3127.00,0.0096
3126.00,0.0096
3125.00,0.0095
3124.00,0.0095
3123.00,0.0095
3122.00,0.0095
3121.00,0.0094
3120.00,0.0094
3119.00,0.0094
3118.00,0.0094
3117.00,0.0093
3116.00,0.0093
3115.00,0.0093
3114.00,0.0093
3113.00,0.0092
3112.00,0.0092
3111.00,0.0092
3110.00,0.0091
3109.00,0.0091
3108.00,0.0090
3107.00,0.0090
3106.00,0.0089
3105.00,0.0089
3104.00,0.0088
3103.00,0.0088
3102.00,0.0087
3101.00,0.0087
3100.00,0.0087
3099.00,0.0087
3098.00,0.0087
3097.00,0.0087
3096.00,0.0086
3095.00,0.0086
3094.00,0.0086
3093.00,0.0086
3092.00,0.0086
3091.00,0.0085
3090.00,0.0085
3089.00,0.0085
3088.00,0.0085
3087.00,0.0085
3086.00,0.0085
3085.00,0.0085
3084.00,0.0084
3083.00,0.0084
3082.00,0.0085
3081.00,0.0085
3080.00,0.0085
3079.00,0.0085
3078.00,0.0084
3077.00,0.0084
3076.00,0.0084
3075.00,0.0084
3074.00,0.0084
3073.00,0.0083
3072.00,0.0083
3071.00,0.0083
3070.00,0.0082
3069.00,0.0082
3068.00,0.0082
3067.00,0.0081
3066.00,0.0081
3065.00,0.0081
3064.00,0.0080
3063.00,0.0080
3062.00,0.0080
3061.00,0.0079
3060.00,0.0079
3059.00,0.0078
3058.00,0.0078
3057.00,0.0078
3056.00,0.0078
3055.00,0.0078
3054.00,0.0077
3053.00,0.0077
3052.00,0.0077
3051.00,0.0077
3050.00,0.0077
3049.00,0.0077
3048.00,0.0077
3047.00,0.0076
3046.00,0.0076
3045.00,0.0076
3044.00,0.0075
3043.00,0.0075
3042.00,0.0075
3041.00,0.0075
3040.00,0.0075
3039.00,0.0074
3038.00,0.0074
3037.00,0.0074
3036.00,0.0074
3035.00,0.0074
3034.00,0.0074
3033.00,0.0074
3032.00,0.0074
3031.00,0.0074
3030.00,0.0073
3029.00,0.0073
3028.00,0.0073
3027.00,0.0072
3026.00,0.0072
3025.00,0.0072
3024.00,0.0072
3023.00,0.0072
3022.00,0.0072
3021.00,0.0071
3020.00,0.0072
3019.00,0.0072
3018.00,0.0072
3017.00,0.0073
3016.00,0.0073
3015.00,0.0074
3014.00,0.0074
3013.00,0.0075
3012.00,0.0075
3011.00,0.0076
3010.00,0.0077
3009.00,0.0079
3008.00,0.0080
3007.00,0.0082
3006.00,0.0084
3005.00,0.0085
3004.00,0.0088
3003.00,0.0090
3002.00,0.0092
3001.00,0.0095
3000.00,0.0098
2999.00,0.0101
2998.00,0.0105
2997.00,0.0108
2996.00,0.0112
2995.00,0.0115
2994.00,0.0119
2993.00,0.0123
2992.00,0.0127
2991.00,0.0131
2990.00,0.0135
2989.00,0.0139
2988.00,0.0143
2987.00,0.0148
2986.00,0.0152
2985.00,0.0156
2984.00,0.0160
2983.00,0.0164
2982.00,0.0167
2981.00,0.0170
2980.00,0.0172
2979.00,0.0174
2978.00,0.0176
2977.00,0.0178
2976.00,0.0179
2975.00,0.0181
2974.00,0.0183
2973.00,0.0184
2972.00,0.0186
2971.00,0.0188
2970.00,0.0190
2969.00,0.0193
2968.00,0.0195
2967.00,0.0198
2966.00,0.0201
2965.00,0.0204
2964.00,0.0207
2963.00,0.0210
2962.00,0.0213
2961.00,0.0216
2960.00,0.0218
2959.00,0.0220
2958.00,0.0223
2957.00,0.0225
2956.00,0.0227
2955.00,0.0228
2954.00,0.0229
2953.00,0.0229
2952.00,0.0229
2951.00,0.0229
2950.00,0.0228
2949.00,0.0226
2948.00,0.0225
2947.00,0.0223
2946.00,0.0222
2945.00,0.0220
2944.00,0.0219
2943.00,0.0219
2942.00,0.0219
2941.00,0.0219
2940.00,0.0220
2939.00,0.0221
2938.00,0.0222
2937.00,0.0224
2936.00,0.0225
2935.00,0.0228
2934.00,0.0230
2933.00,0.0232
2932.00,0.0235
2931.00,0.0237
2930.00,0.0239
2929.00,0.0241
2928.00,0.0242
2927.00,0.0243
2926.00,0.0244
2925.00,0.0244
2924.00,0.0243
2923.00,0.0242
2922.00,0.0240
2921.00,0.0238
2920.00,0.0236
2919.00,0.0233
2918.00,0.0230
2917.00,0.0226
2916.00,0.0222
2915.00,0.0218
2914.00,0.0213
2913.00,0.0209
2912.00,0.0205
2911.00,0.0200
2910.00,0.0196
2909.00,0.0193
2908.00,0.0189
2907.00,0.0186
2906.00,0.0183
2905.00,0.0180
2904.00,0.0178
2903.00,0.0177
2902.00,0.0175
2901.00,0.0174
2900.00,0.0174
2899.00,0.0173
2898.00,0.0173
2897.00,0.0172
2896.00,0.0172
2895.00,0.0172
2894.00,0.0172
2893.00,0.0172
2892.00,0.0172
2891.00,0.0171
2890.00,0.0171
2889.00,0.0170
2888.00,0.0170
2887.00,0.0169
2886.00,0.0169
2885.00,0.0169
2884.00,0.0169
2883.00,0.0169
2882.00,0.0169
2881.00,0.0169
2880.00,0.0169
2879.00,0.0169
2878.00,0.0170
2877.00,0.0170
2876.00,0.0171
2875.00,0.0172
2874.00,0.0173
2873.00,0.0173
2872.00,0.0173
2871.00,0.0174
2870.00,0.0173
2869.00,0.0173
2868.00,0.0173
2867.00,0.0172
2866.00,0.0171
2865.00,0.0171
2864.00,0.0171
2863.00,0.0171
2862.00,0.0171
2861.00,0.0171
2860.00,0.0171
2859.00,0.0171
2858.00,0.0170
2857.00,0.0169
2856.00,0.0167
2855.00,0.0164
2854.00,0.0161
2853.00,0.0157
2852.00,0.0152
2851.00,0.0148
2850.00,0.0142
2849.00,0.0137
2848.00,0.0131
2847.00,0.0126
2846.00,0.0121
2845.00,0.0117
2844.00,0.0112
2843.00,0.0108
2842.00,0.0104
2841.00,0.0100
2840.00,0.0097
2839.00,0.0093
2838.00,0.0090
2837.00,0.0088
2836.00,0.0086
2835.00,0.0083
2834.00,0.0081
2833.00,0.0079
2832.00,0.0077
2831.00,0.0075
2830.00,0.0074
2829.00,0.0072
2828.00,0.0071
2827.00,0.0069
2826.00,0.0067
2825.00,0.0066
2824.00,0.0064
2823.00,0.0063
2822.00,0.0061
2821.00,0.0060
2820.00,0.0059
2819.00,0.0058
2818.00,0.0057
2817.00,0.0056
2816.00,0.0055
2815.00,0.0054
2814.00,0.0054
2813.00,0.0053
2812.00,0.0052
2811.00,0.0052
2810.00,0.0051
2809.00,0.0051
2808.00,0.0050
2807.00,0.0050
2806.00,0.0049
2805.00,0.0049
2804.00,0.0048
2803.00,0.0048
2802.00,0.0047
2801.00,0.0047
2800.00,0.0046
2799.00,0.0046
2798.00,0.0045
2797.00,0.0045
2796.00,0.0045
2795.00,0.0045
2794.00,0.0045
2793.00,0.0044
2792.00,0.0044
2791.00,0.0044
2790.00,0.0043
2789.00,0.0043
2788.00,0.0043
2787.00,0.0043
2786.00,0.0042
2785.00,0.0042
2784.00,0.0042
2783.00,0.0042
2782.00,0.0042
2781.00,0.0042
2780.00,0.0042
2779.00,0.0042
2778.00,0.0041
2777.00,0.0041
2776.00,0.0041
2775.00,0.0040
2774.00,0.0040
2773.00,0.0040
2772.00,0.0040
2771.00,0.0040
2770.00,0.0040
2769.00,0.0039
2768.00,0.0039
2767.00,0.0039
2766.00,0.0039
2765.00,0.0039
2764.00,0.0039
2763.00,0.0038
2762.00,0.0038
2761.00,0.0038
2760.00,0.0038
2759.00,0.0039
2758.00,0.0039
2757.00,0.0039
