Created as New Dataset,Sample 978 By YargerLab Date Wednesday, July 30 2025
cm-1,A
4000.00,0.0022
3999.00,0.0022
3998.00,0.0022
3997.00,0.0022
3996.00,0.0022
3995.00,0.0022
3994.00,0.0022
3993.00,0.0022
3992.00,0.0022
3991.00,0.0022
3990.00,0.0022
3989.00,0.0022
3988.00,0.0022
3987.00,0.0022
3986.00,0.0022
3985.00,0.0022
3984.00,0.0022
3983.00,0.0022
3982.00,0.0022
3981.00,0.0022
3980.00,0.0022
3979.00,0.0022
3978.00,0.0022
3977.00,0.0022
3976.00,0.0022
3975.00,0.0022
3974.00,0.0022
3973.00,0.0022
3972.00,0.0022
3971.00,0.0022
3970.00,0.0022
3969.00,0.0022
3968.00,0.0022
3967.00,0.0022
3966.00,0.0022
3965.00,0.0022
3964.00,0.0022
3963.00,0.0022
3962.00,0.0022
3961.00,0.0021
3960.00,0.0021
3959.00,0.0021
3958.00,0.0021
3957.00,0.0021
3956.00,0.0021
3955.00,0.0022
3954.00,0.0022
3953.00,0.0022
3952.00,0.0022
3951.00,0.0021
3950.00,0.0021
3949.00,0.0022
3948.00,0.0022
3947.00,0.0022
3946.00,0.0022
3945.00,0.0021
3944.00,0.0021
3943.00,0.0021
3942.00,0.0022
3941.00,0.0022
3940.00,0.0021
3939.00,0.0021
3938.00,0.0021
3937.00,0.0021
3936.00,0.0021
3935.00,0.0021
3934.00,0.0021
3933.00,0.0021
3932.00,0.0021
3931.00,0.0021
3930.00,0.0021
3929.00,0.0021
3928.00,0.0021
3927.00,0.0021
3926.00,0.0021
3925.00,0.0021
3924.00,0.0021
3923.00,0.0021
3922.00,0.0021
3921.00,0.0021
3920.00,0.0021
3919.00,0.0022
3918.00,0.0022
3917.00,0.0022
3916.00,0.0022
3915.00,0.0022
3914.00,0.0022
3913.00,0.0022
3912.00,0.0022
3911.00,0.0021
3910.00,0.0021
3909.00,0.0021
3908.00,0.0021
3907.00,0.0021
3906.00,0.0021
3905.00,0.0021
3904.00,0.0021
3903.00,0.0022
3902.00,0.0021
3901.00,0.0021
3900.00,0.0021
3899.00,0.0021
3898.00,0.0021
3897.00,0.0021
3896.00,0.0022
3895.00,0.0022
3894.00,0.0022
3893.00,0.0021
3892.00,0.0021
3891.00,0.0021
3890.00,0.0022
3889.00,0.0022
3888.00,0.0022
3887.00,0.0022
3886.00,0.0021
3885.00,0.0021
3884.00,0.0021
3883.00,0.0021
3882.00,0.0021
3881.00,0.0021
3880.00,0.0022
3879.00,0.0022
3878.00,0.0022
3877.00,0.0021
3876.00,0.0021
3875.00,0.0021
3874.00,0.0021
3873.00,0.0021
3872.00,0.0021
3871.00,0.0021
3870.00,0.0021
3869.00,0.0021
3868.00,0.0021
3867.00,0.0021
3866.00,0.0021
3865.00,0.0021
3864.00,0.0021
3863.00,0.0022
3862.00,0.0022
3861.00,0.0022
3860.00,0.0022
3859.00,0.0022
3858.00,0.0022
3857.00,0.0022
3856.00,0.0022
3855.00,0.0021
3854.00,0.0021
3853.00,0.0021
3852.00,0.0021
3851.00,0.0021
3850.00,0.0021
3849.00,0.0021
3848.00,0.0021
3847.00,0.0021
3846.00,0.0021
3845.00,0.0021
3844.00,0.0021
3843.00,0.0021
3842.00,0.0022
3841.00,0.0022
3840.00,0.0022
3839.00,0.0022
3838.00,0.0022
3837.00,0.0022
3836.00,0.0022
3835.00,0.0022
3834.00,0.0022
3833.00,0.0022
3832.00,0.0021
3831.00,0.0022
3830.00,0.0022
3829.00,0.0022
3828.00,0.0022
3827.00,0.0022
3826.00,0.0022
3825.00,0.0022
3824.00,0.0022
3823.00,0.0022
3822.00,0.0022
3821.00,0.0022
3820.00,0.0022
3819.00,0.0022
3818.00,0.0022
3817.00,0.0022
3816.00,0.0021
3815.00,0.0021
3814.00,0.0021
3813.00,0.0021
3812.00,0.0021
3811.00,0.0021
3810.00,0.0021
3809.00,0.0021
3808.00,0.0021
3807.00,0.0022
3806.00,0.0022
3805.00,0.0022
3804.00,0.0022
3803.00,0.0021
3802.00,0.0021
3801.00,0.0021
3800.00,0.0021
3799.00,0.0021
3798.00,0.0021
3797.00,0.0021
3796.00,0.0021
3795.00,0.0021
3794.00,0.0021
3793.00,0.0021
3792.00,0.0021
3791.00,0.0021
3790.00,0.0021
3789.00,0.0021
3788.00,0.0021
3787.00,0.0021
3786.00,0.0021
3785.00,0.0021
3784.00,0.0021
3783.00,0.0021
3782.00,0.0022
3781.00,0.0022
3780.00,0.0022
3779.00,0.0022
3778.00,0.0022
3777.00,0.0022
3776.00,0.0021
3775.00,0.0021
3774.00,0.0021
3773.00,0.0021
3772.00,0.0021
3771.00,0.0022
3770.00,0.0022
3769.00,0.0022
3768.00,0.0022
3767.00,0.0022
3766.00,0.0022
3765.00,0.0021
3764.00,0.0021
3763.00,0.0021
3762.00,0.0021
3761.00,0.0021
3760.00,0.0021
3759.00,0.0021
3758.00,0.0021
3757.00,0.0021
3756.00,0.0022
3755.00,0.0022
3754.00,0.0022
3753.00,0.0022
3752.00,0.0023
3751.00,0.0023
3750.00,0.0023
3749.00,0.0023
3748.00,0.0023
3747.00,0.0023
3746.00,0.0023
3745.00,0.0022
3744.00,0.0022
3743.00,0.0022
3742.00,0.0022
3741.00,0.0021
3740.00,0.0021
3739.00,0.0021
3738.00,0.0022
3737.00,0.0022
3736.00,0.0021
3735.00,0.0021
3734.00,0.0021
3733.00,0.0021
3732.00,0.0021
3731.00,0.0021
3730.00,0.0021
3729.00,0.0021
3728.00,0.0021
3727.00,0.0021
3726.00,0.0021
3725.00,0.0021
3724.00,0.0021
3723.00,0.0021
3722.00,0.0021
3721.00,0.0021
3720.00,0.0021
3719.00,0.0021
3718.00,0.0021
3717.00,0.0021
3716.00,0.0021
3715.00,0.0021
3714.00,0.0021
3713.00,0.0021
3712.00,0.0021
3711.00,0.0021
3710.00,0.0021
3709.00,0.0021
3708.00,0.0021
3707.00,0.0020
3706.00,0.0020
3705.00,0.0020
3704.00,0.0020
3703.00,0.0020
3702.00,0.0019
3701.00,0.0019
3700.00,0.0019
3699.00,0.0019
3698.00,0.0019
3697.00,0.0019
3696.00,0.0019
3695.00,0.0019
3694.00,0.0020
3693.00,0.0021
3692.00,0.0021
3691.00,0.0021
3690.00,0.0022
3689.00,0.0022
3688.00,0.0022
3687.00,0.0023
3686.00,0.0023
3685.00,0.0023
3684.00,0.0023
3683.00,0.0023
3682.00,0.0023
3681.00,0.0023
3680.00,0.0024
3679.00,0.0024
3678.00,0.0025
3677.00,0.0025
3676.00,0.0025
3675.00,0.0025
3674.00,0.0025
3673.00,0.0025
3672.00,0.0025
3671.00,0.0025
3670.00,0.0025
3669.00,0.0025
3668.00,0.0025
3667.00,0.0025
3666.00,0.0025
3665.00,0.0026
3664.00,0.0026
3663.00,0.0026
3662.00,0.0026
3661.00,0.0026
3660.00,0.0026
3659.00,0.0027
3658.00,0.0027
3657.00,0.0027
3656.00,0.0028
3655.00,0.0028
3654.00,0.0029
3653.00,0.0029
3652.00,0.0029
3651.00,0.0030
3650.00,0.0030
3649.00,0.0030
3648.00,0.0031
3647.00,0.0031
3646.00,0.0031
3645.00,0.0031
3644.00,0.0031
3643.00,0.0031
3642.00,0.0031
3641.00,0.0031
3640.00,0.0031
3639.00,0.0032
3638.00,0.0032
3637.00,0.0032
3636.00,0.0033
3635.00,0.0033
3634.00,0.0034
3633.00,0.0034
3632.00,0.0034
3631.00,0.0034
3630.00,0.0034
3629.00,0.0035
3628.00,0.0035
3627.00,0.0036
3626.00,0.0036
3625.00,0.0036
3624.00,0.0036
3623.00,0.0036
3622.00,0.0036
3621.00,0.0037
3620.00,0.0037
3619.00,0.0037
3618.00,0.0038
3617.00,0.0039
3616.00,0.0039
3615.00,0.0040
3614.00,0.0040
3613.00,0.0041
3612.00,0.0041
3611.00,0.0041
3610.00,0.0042
3609.00,0.0042
3608.00,0.0042
3607.00,0.0042
3606.00,0.0043
3605.00,0.0043
3604.00,0.0043
3603.00,0.0044
3602.00,0.0044
3601.00,0.0045
3600.00,0.0045
3599.00,0.0046
3598.00,0.0046
3597.00,0.0046
3596.00,0.0047
3595.00,0.0048
3594.00,0.0048
3593.00,0.0049
3592.00,0.0049
3591.00,0.0050
3590.00,0.0050
3589.00,0.0051
3588.00,0.0051
3587.00,0.0053
3586.00,0.0053
3585.00,0.0054
3584.00,0.0054
3583.00,0.0055
3582.00,0.0055
3581.00,0.0056
3580.00,0.0056
3579.00,0.0057
3578.00,0.0058
3577.00,0.0058
3576.00,0.0059
3575.00,0.0059
3574.00,0.0059
3573.00,0.0060
3572.00,0.0061
3571.00,0.0061
3570.00,0.0062
3569.00,0.0063
3568.00,0.0063
3567.00,0.0064
3566.00,0.0065
3565.00,0.0066
3564.00,0.0067
3563.00,0.0067
3562.00,0.0067
3561.00,0.0068
3560.00,0.0068
3559.00,0.0069
3558.00,0.0069
3557.00,0.0070
3556.00,0.0070
3555.00,0.0071
3554.00,0.0071
3553.00,0.0072
3552.00,0.0072
3551.00,0.0073
3550.00,0.0073
3549.00,0.0074
3548.00,0.0074
3547.00,0.0075
3546.00,0.0076
3545.00,0.0076
3544.00,0.0076
3543.00,0.0077
3542.00,0.0077
3541.00,0.0077
3540.00,0.0077
3539.00,0.0077
3538.00,0.0078
3537.00,0.0078
3536.00,0.0079
3535.00,0.0080
3534.00,0.0080
3533.00,0.0080
3532.00,0.0080
3531.00,0.0081
3530.00,0.0081
3529.00,0.0081
3528.00,0.0082
3527.00,0.0082
3526.00,0.0082
3525.00,0.0083
3524.00,0.0083
3523.00,0.0084
3522.00,0.0084
3521.00,0.0085
3520.00,0.0085
3519.00,0.0085
3518.00,0.0085
3517.00,0.0086
3516.00,0.0086
3515.00,0.0087
3514.00,0.0087
3513.00,0.0087
3512.00,0.0088
3511.00,0.0088
3510.00,0.0088
3509.00,0.0089
3508.00,0.0089
3507.00,0.0089
3506.00,0.0090
3505.00,0.0090
3504.00,0.0091
3503.00,0.0091
3502.00,0.0092
3501.00,0.0092
3500.00,0.0092
3499.00,0.0092
3498.00,0.0092
3497.00,0.0092
3496.00,0.0092
3495.00,0.0093
3494.00,0.0093
3493.00,0.0094
3492.00,0.0094
3491.00,0.0095
3490.00,0.0095
3489.00,0.0095
3488.00,0.0096
3487.00,0.0096
3486.00,0.0096
3485.00,0.0096
3484.00,0.0096
3483.00,0.0096
3482.00,0.0096
3481.00,0.0097
3480.00,0.0098
3479.00,0.0098
3478.00,0.0099
3477.00,0.0099
3476.00,0.0099
3475.00,0.0099
3474.00,0.0099
3473.00,0.0099
3472.00,0.0100
3471.00,0.0100
3470.00,0.0100
3469.00,0.0100
3468.00,0.0101
3467.00,0.0101
3466.00,0.0101
3465.00,0.0101
3464.00,0.0101
3463.00,0.0101
3462.00,0.0102
3461.00,0.0102
3460.00,0.0102
3459.00,0.0102
3458.00,0.0103
3457.00,0.0103
3456.00,0.0103
3455.00,0.0103
3454.00,0.0103
3453.00,0.0103
3452.00,0.0103
3451.00,0.0103
3450.00,0.0103
3449.00,0.0103
3448.00,0.0103
3447.00,0.0104
3446.00,0.0104
3445.00,0.0104
3444.00,0.0104
3443.00,0.0104
3442.00,0.0104
3441.00,0.0104
3440.00,0.0104
3439.00,0.0104
3438.00,0.0104
3437.00,0.0104
3436.00,0.0104
3435.00,0.0104
3434.00,0.0104
3433.00,0.0104
3432.00,0.0104
3431.00,0.0104
3430.00,0.0104
3429.00,0.0104
3428.00,0.0104
3427.00,0.0104
3426.00,0.0104
3425.00,0.0104
3424.00,0.0104
3423.00,0.0104
3422.00,0.0104
3421.00,0.0104
3420.00,0.0104
3419.00,0.0104
3418.00,0.0104
3417.00,0.0104
3416.00,0.0104
3415.00,0.0104
3414.00,0.0104
3413.00,0.0104
3412.00,0.0104
3411.00,0.0104
3410.00,0.0104
3409.00,0.0104
3408.00,0.0104
3407.00,0.0104
3406.00,0.0104
3405.00,0.0103
3404.00,0.0103
3403.00,0.0103
3402.00,0.0103
3401.00,0.0103
3400.00,0.0103
3399.00,0.0103
3398.00,0.0104
3397.00,0.0104
3396.00,0.0104
3395.00,0.0104
3394.00,0.0104
3393.00,0.0104
3392.00,0.0104
3391.00,0.0104
3390.00,0.0104
3389.00,0.0105
3388.00,0.0105
3387.00,0.0106
3386.00,0.0106
3385.00,0.0106
3384.00,0.0106
3383.00,0.0106
3382.00,0.0106
3381.00,0.0106
3380.00,0.0106
3379.00,0.0106
3378.00,0.0106
3377.00,0.0106
3376.00,0.0106
3375.00,0.0106
3374.00,0.0106
3373.00,0.0105
3372.00,0.0105
3371.00,0.0104
3370.00,0.0104
3369.00,0.0104
3368.00,0.0104
3367.00,0.0104
3366.00,0.0105
3365.00,0.0106
3364.00,0.0107
3363.00,0.0107
3362.00,0.0107
3361.00,0.0107
3360.00,0.0107
3359.00,0.0108
3358.00,0.0108
3357.00,0.0109
3356.00,0.0109
3355.00,0.0108
3354.00,0.0108
3353.00,0.0107
3352.00,0.0107
3351.00,0.0107
3350.00,0.0107
3349.00,0.0108
3348.00,0.0108
3347.00,0.0109
3346.00,0.0108
3345.00,0.0108
3344.00,0.0108
3343.00,0.0108
3342.00,0.0108
3341.00,0.0108
3340.00,0.0107
3339.00,0.0107
3338.00,0.0108
3337.00,0.0108
3336.00,0.0109
3335.00,0.0110
3334.00,0.0110
3333.00,0.0110
3332.00,0.0110
3331.00,0.0110
3330.00,0.0110
3329.00,0.0109
3328.00,0.0109
3327.00,0.0108
3326.00,0.0108
3325.00,0.0108
3324.00,0.0109
3323.00,0.0110
3322.00,0.0110
3321.00,0.0111
3320.00,0.0111
3319.00,0.0111
3318.00,0.0111
3317.00,0.0111
3316.00,0.0110
3315.00,0.0110
3314.00,0.0110
3313.00,0.0110
3312.00,0.0110
3311.00,0.0109
3310.00,0.0108
3309.00,0.0107
3308.00,0.0106
3307.00,0.0106
3306.00,0.0107
3305.00,0.0108
3304.00,0.0109
3303.00,0.0110
3302.00,0.0111
3301.00,0.0111
3300.00,0.0111
3299.00,0.0111
3298.00,0.0110
3297.00,0.0109
3296.00,0.0109
3295.00,0.0109
3294.00,0.0109
3293.00,0.0109
3292.00,0.0110
3291.00,0.0110
3290.00,0.0111
3289.00,0.0112
3288.00,0.0112
3287.00,0.0112
3286.00,0.0112
3285.00,0.0112
3284.00,0.0112
3283.00,0.0112
3282.00,0.0112
3281.00,0.0112
3280.00,0.0112
3279.00,0.0112
3278.00,0.0112
3277.00,0.0112
3276.00,0.0112
3275.00,0.0111
3274.00,0.0111
3273.00,0.0111
3272.00,0.0110
3271.00,0.0110
3270.00,0.0111
3269.00,0.0111
3268.00,0.0112
3267.00,0.0112
3266.00,0.0113
3265.00,0.0113
3264.00,0.0113
3263.00,0.0113
3262.00,0.0113
3261.00,0.0113
3260.00,0.0113
3259.00,0.0112
3258.00,0.0112
3257.00,0.0112
3256.00,0.0111
3255.00,0.0111
3254.00,0.0112
3253.00,0.0112
3252.00,0.0113
3251.00,0.0113
3250.00,0.0112
3249.00,0.0112
3248.00,0.0112
3247.00,0.0112
3246.00,0.0112
3245.00,0.0112
3244.00,0.0112
3243.00,0.0113
3242.00,0.0113
3241.00,0.0113
3240.00,0.0113
3239.00,0.0113
3238.00,0.0113
3237.00,0.0113
3236.00,0.0112
3235.00,0.0112
3234.00,0.0112
3233.00,0.0112
3232.00,0.0112
3231.00,0.0112
3230.00,0.0113
3229.00,0.0113
3228.00,0.0113
3227.00,0.0112
3226.00,0.0112
3225.00,0.0112
3224.00,0.0112
3223.00,0.0112
3222.00,0.0112
3221.00,0.0112
3220.00,0.0112
3219.00,0.0112
3218.00,0.0112
3217.00,0.0112
3216.00,0.0112
3215.00,0.0112
3214.00,0.0112
3213.00,0.0112
3212.00,0.0112
3211.00,0.0112
3210.00,0.0111
3209.00,0.0111
3208.00,0.0111
3207.00,0.0110
3206.00,0.0110
3205.00,0.0110
3204.00,0.0110
3203.00,0.0110
3202.00,0.0110
3201.00,0.0110
3200.00,0.0110
3199.00,0.0110
3198.00,0.0110
3197.00,0.0110
3196.00,0.0110
3195.00,0.0110
3194.00,0.0110
3193.00,0.0110
3192.00,0.0110
3191.00,0.0110
3190.00,0.0110
3189.00,0.0109
3188.00,0.0109
3187.00,0.0109
3186.00,0.0109
3185.00,0.0109
3184.00,0.0109
3183.00,0.0109
3182.00,0.0109
3181.00,0.0109
3180.00,0.0109
3179.00,0.0109
3178.00,0.0109
3177.00,0.0109
3176.00,0.0109
3175.00,0.0109
3174.00,0.0109
3173.00,0.0108
3172.00,0.0108
3171.00,0.0108
3170.00,0.0108
3169.00,0.0108
3168.00,0.0108
3167.00,0.0108
3166.00,0.0108
3165.00,0.0108
3164.00,0.0107
3163.00,0.0107
3162.00,0.0107
3161.00,0.0107
3160.00,0.0106
3159.00,0.0106
3158.00,0.0106
3157.00,0.0105
3156.00,0.0105
3155.00,0.0105
3154.00,0.0105
3153.00,0.0105
3152.00,0.0105
3151.00,0.0105
3150.00,0.0104
3149.00,0.0104
3148.00,0.0104
3147.00,0.0104
3146.00,0.0103
3145.00,0.0103
3144.00,0.0103
3143.00,0.0103
3142.00,0.0103
3141.00,0.0103
3140.00,0.0103
3139.00,0.0103
3138.00,0.0103
3137.00,0.0102
3136.00,0.0102
3135.00,0.0102
3134.00,0.0102
3133.00,0.0102
3132.00,0.0102
3131.00,0.0101
3130.00,0.0101
3129.00,0.0101
3128.00,0.0101
3127.00,0.0101
3126.00,0.0101
3125.00,0.0101
3124.00,0.0101
3123.00,0.0101
3122.00,0.0101
3121.00,0.0101
3120.00,0.0101
3119.00,0.0101
3118.00,0.0101
3117.00,0.0101
3116.00,0.0100
3115.00,0.0100
3114.00,0.0100
3113.00,0.0100
3112.00,0.0099
3111.00,0.0099
3110.00,0.0098
3109.00,0.0098
3108.00,0.0098
3107.00,0.0098
3106.00,0.0097
3105.00,0.0097
3104.00,0.0097
3103.00,0.0097
3102.00,0.0096
3101.00,0.0096
3100.00,0.0096
3099.00,0.0096
3098.00,0.0096
3097.00,0.0096
3096.00,0.0096
3095.00,0.0096
3094.00,0.0097
3093.00,0.0096
3092.00,0.0096
3091.00,0.0096
3090.00,0.0096
3089.00,0.0097
3088.00,0.0097
3087.00,0.0097
3086.00,0.0097
3085.00,0.0097
3084.00,0.0097
3083.00,0.0097
3082.00,0.0097
3081.00,0.0097
3080.00,0.0097
3079.00,0.0097
3078.00,0.0096
3077.00,0.0096
3076.00,0.0096
3075.00,0.0096
3074.00,0.0096
3073.00,0.0096
3072.00,0.0096
3071.00,0.0096
3070.00,0.0095
3069.00,0.0095
3068.00,0.0094
3067.00,0.0094
3066.00,0.0094
3065.00,0.0093
3064.00,0.0093
3063.00,0.0093
3062.00,0.0093
3061.00,0.0093
3060.00,0.0092
3059.00,0.0092
3058.00,0.0092
3057.00,0.0092
3056.00,0.0092
3055.00,0.0092
3054.00,0.0092
3053.00,0.0092
3052.00,0.0091
3051.00,0.0091
3050.00,0.0091
3049.00,0.0090
3048.00,0.0090
3047.00,0.0090
3046.00,0.0090
3045.00,0.0090
3044.00,0.0090
3043.00,0.0090
3042.00,0.0090
3041.00,0.0089
3040.00,0.0089
3039.00,0.0089
3038.00,0.0089
3037.00,0.0089
3036.00,0.0089
3035.00,0.0089
3034.00,0.0089
3033.00,0.0089
3032.00,0.0089
3031.00,0.0089
3030.00,0.0089
3029.00,0.0089
3028.00,0.0088
3027.00,0.0088
3026.00,0.0088
3025.00,0.0088
3024.00,0.0088
3023.00,0.0088
3022.00,0.0088
3021.00,0.0088
3020.00,0.0088
3019.00,0.0088
3018.00,0.0089
3017.00,0.0089
3016.00,0.0089
3015.00,0.0090
3014.00,0.0090
3013.00,0.0091
3012.00,0.0092
3011.00,0.0093
3010.00,0.0094
3009.00,0.0096
3008.00,0.0097
3007.00,0.0099
3006.00,0.0101
3005.00,0.0103
3004.00,0.0105
3003.00,0.0107
3002.00,0.0110
3001.00,0.0113
3000.00,0.0116
2999.00,0.0120
2998.00,0.0123
2997.00,0.0127
2996.00,0.0131
2995.00,0.0136
2994.00,0.0140
2993.00,0.0145
2992.00,0.0150
2991.00,0.0155
2990.00,0.0160
2989.00,0.0165
2988.00,0.0170
2987.00,0.0175
2986.00,0.0180
2985.00,0.0184
2984.00,0.0189
2983.00,0.0193
2982.00,0.0197
2981.00,0.0200
2980.00,0.0204
2979.00,0.0207
2978.00,0.0209
2977.00,0.0212
2976.00,0.0214
2975.00,0.0216
2974.00,0.0218
2973.00,0.0220
2972.00,0.0222
2971.00,0.0224
2970.00,0.0227
2969.00,0.0229
2968.00,0.0232
2967.00,0.0235
2966.00,0.0238
2965.00,0.0242
2964.00,0.0245
2963.00,0.0249
2962.00,0.0252
2961.00,0.0256
2960.00,0.0259
2959.00,0.0263
2958.00,0.0266
2957.00,0.0268
2956.00,0.0271
2955.00,0.0272
2954.00,0.0274
2953.00,0.0275
2952.00,0.0275
2951.00,0.0274
2950.00,0.0274
2949.00,0.0273
2948.00,0.0272
2947.00,0.0271
2946.00,0.0270
2945.00,0.0270
2944.00,0.0270
2943.00,0.0271
2942.00,0.0271
2941.00,0.0273
2940.00,0.0274
2939.00,0.0276
2938.00,0.0278
2937.00,0.0281
2936.00,0.0284
2935.00,0.0287
2934.00,0.0290
2933.00,0.0293
2932.00,0.0296
2931.00,0.0299
2930.00,0.0301
2929.00,0.0304
2928.00,0.0306
2927.00,0.0307
2926.00,0.0307
2925.00,0.0308
2924.00,0.0307
2923.00,0.0306
2922.00,0.0305
2921.00,0.0303
2920.00,0.0300
2919.00,0.0297
2918.00,0.0293
2917.00,0.0288
2916.00,0.0283
2915.00,0.0278
2914.00,0.0273
2913.00,0.0267
2912.00,0.0262
2911.00,0.0256
2910.00,0.0250
2909.00,0.0245
2908.00,0.0240
2907.00,0.0236
2906.00,0.0232
2905.00,0.0229
2904.00,0.0225
2903.00,0.0223
2902.00,0.0220
2901.00,0.0218
2900.00,0.0217
2899.00,0.0216
2898.00,0.0215
2897.00,0.0214
2896.00,0.0213
2895.00,0.0213
2894.00,0.0212
2893.00,0.0212
2892.00,0.0211
2891.00,0.0211
2890.00,0.0210
2889.00,0.0210
2888.00,0.0209
2887.00,0.0208
2886.00,0.0208
2885.00,0.0208
2884.00,0.0208
2883.00,0.0208
2882.00,0.0208
2881.00,0.0209
2880.00,0.0209
2879.00,0.0210
2878.00,0.0211
2877.00,0.0213
2876.00,0.0214
2875.00,0.0215
2874.00,0.0217
2873.00,0.0219
2872.00,0.0220
2871.00,0.0220
2870.00,0.0220
2869.00,0.0220
2868.00,0.0219
2867.00,0.0218
2866.00,0.0218
2865.00,0.0218
2864.00,0.0218
2863.00,0.0218
2862.00,0.0219
2861.00,0.0219
2860.00,0.0220
2859.00,0.0220
2858.00,0.0219
2857.00,0.0218
2856.00,0.0215
2855.00,0.0212
2854.00,0.0208
2853.00,0.0204
2852.00,0.0199
2851.00,0.0193
2850.00,0.0188
2849.00,0.0182
2848.00,0.0176
2847.00,0.0170
2846.00,0.0164
2845.00,0.0159
2844.00,0.0153
2843.00,0.0148
2842.00,0.0143
2841.00,0.0138
2840.00,0.0134
2839.00,0.0130
2838.00,0.0127
2837.00,0.0124
2836.00,0.0121
2835.00,0.0118
2834.00,0.0116
2833.00,0.0113
2832.00,0.0110
2831.00,0.0108
2830.00,0.0106
2829.00,0.0104
2828.00,0.0102
2827.00,0.0100
2826.00,0.0098
2825.00,0.0096
2824.00,0.0094
2823.00,0.0092
2822.00,0.0091
2821.00,0.0089
2820.00,0.0088
2819.00,0.0086
2818.00,0.0085
2817.00,0.0084
2816.00,0.0083
2815.00,0.0082
2814.00,0.0080
2813.00,0.0079
2812.00,0.0078
2811.00,0.0077
2810.00,0.0076
2809.00,0.0075
2808.00,0.0074
2807.00,0.0074
2806.00,0.0073
2805.00,0.0072
2804.00,0.0071
2803.00,0.0071
2802.00,0.0070
2801.00,0.0069
2800.00,0.0069
2799.00,0.0068
2798.00,0.0068
2797.00,0.0067
2796.00,0.0067
2795.00,0.0066
2794.00,0.0066
2793.00,0.0065
2792.00,0.0065
2791.00,0.0064
2790.00,0.0064
2789.00,0.0063
2788.00,0.0063
2787.00,0.0063
2786.00,0.0062
2785.00,0.0062
2784.00,0.0062
2783.00,0.0061
2782.00,0.0061
2781.00,0.0061
2780.00,0.0060
2779.00,0.0060
2778.00,0.0059
2777.00,0.0059
2776.00,0.0059
2775.00,0.0058
2774.00,0.0058
2773.00,0.0058
2772.00,0.0058
2771.00,0.0058
2770.00,0.0058
2769.00,0.0057
2768.00,0.0057
2767.00,0.0057
2766.00,0.0057
2765.00,0.0056
2764.00,0.0056
2763.00,0.0056
2762.00,0.0056
2761.00,0.0056
2760.00,0.0056
2759.00,0.0056
2758.00,0.0056
2757.00,0.0056
