Created as New Dataset,Sample 068 By YargerLab Date Wednesday, August 13 2025
cm-1,A
4000.00,0.0023
3999.00,0.0023
3998.00,0.0023
3997.00,0.0023
3996.00,0.0023
3995.00,0.0023
3994.00,0.0023
3993.00,0.0024
3992.00,0.0024
3991.00,0.0024
3990.00,0.0023
3989.00,0.0023
3988.00,0.0023
3987.00,0.0023
3986.00,0.0023
3985.00,0.0023
3984.00,0.0023
3983.00,0.0023
3982.00,0.0023
3981.00,0.0023
3980.00,0.0023
3979.00,0.0024
3978.00,0.0024
3977.00,0.0023
3976.00,0.0023
3975.00,0.0023
3974.00,0.0023
3973.00,0.0023
3972.00,0.0023
3971.00,0.0023
3970.00,0.0024
3969.00,0.0024
3968.00,0.0024
3967.00,0.0024
3966.00,0.0024
3965.00,0.0023
3964.00,0.0023
3963.00,0.0023
3962.00,0.0023
3961.00,0.0023
3960.00,0.0023
3959.00,0.0023
3958.00,0.0023
3957.00,0.0023
3956.00,0.0023
3955.00,0.0023
3954.00,0.0023
3953.00,0.0023
3952.00,0.0024
3951.00,0.0024
3950.00,0.0024
3949.00,0.0024
3948.00,0.0024
3947.00,0.0024
3946.00,0.0025
3945.00,0.0025
3944.00,0.0025
3943.00,0.0025
3942.00,0.0024
3941.00,0.0024
3940.00,0.0024
3939.00,0.0024
3938.00,0.0024
3937.00,0.0024
3936.00,0.0024
3935.00,0.0024
3934.00,0.0024
3933.00,0.0024
3932.00,0.0024
3931.00,0.0024
3930.00,0.0024
3929.00,0.0024
3928.00,0.0025
3927.00,0.0025
3926.00,0.0025
3925.00,0.0025
3924.00,0.0025
3923.00,0.0025
3922.00,0.0025
3921.00,0.0025
3920.00,0.0025
3919.00,0.0025
3918.00,0.0025
3917.00,0.0024
3916.00,0.0024
3915.00,0.0024
3914.00,0.0024
3913.00,0.0023
3912.00,0.0023
3911.00,0.0023
3910.00,0.0024
3909.00,0.0024
3908.00,0.0025
3907.00,0.0025
3906.00,0.0026
3905.00,0.0026
3904.00,0.0027
3903.00,0.0027
3902.00,0.0027
3901.00,0.0027
3900.00,0.0027
3899.00,0.0027
3898.00,0.0026
3897.00,0.0026
3896.00,0.0026
3895.00,0.0026
3894.00,0.0026
3893.00,0.0026
3892.00,0.0026
3891.00,0.0026
3890.00,0.0025
3889.00,0.0026
3888.00,0.0026
3887.00,0.0026
3886.00,0.0026
3885.00,0.0026
3884.00,0.0026
3883.00,0.0026
3882.00,0.0026
3881.00,0.0026
3880.00,0.0026
3879.00,0.0026
3878.00,0.0026
3877.00,0.0026
3876.00,0.0026
3875.00,0.0026
3874.00,0.0026
3873.00,0.0027
3872.00,0.0027
3871.00,0.0027
3870.00,0.0027
3869.00,0.0028
3868.00,0.0028
3867.00,0.0028
3866.00,0.0028
3865.00,0.0027
3864.00,0.0027
3863.00,0.0027
3862.00,0.0026
3861.00,0.0026
3860.00,0.0026
3859.00,0.0027
3858.00,0.0027
3857.00,0.0028
3856.00,0.0029
3855.00,0.0030
3854.00,0.0030
3853.00,0.0030
3852.00,0.0031
3851.00,0.0031
3850.00,0.0030
3849.00,0.0029
3848.00,0.0028
3847.00,0.0027
3846.00,0.0027
3845.00,0.0026
3844.00,0.0026
3843.00,0.0027
3842.00,0.0027
3841.00,0.0028
3840.00,0.0028
3839.00,0.0029
3838.00,0.0029
3837.00,0.0030
3836.00,0.0030
3835.00,0.0030
3834.00,0.0029
3833.00,0.0028
3832.00,0.0028
3831.00,0.0027
3830.00,0.0027
3829.00,0.0026
3828.00,0.0026
3827.00,0.0026
3826.00,0.0026
3825.00,0.0026
3824.00,0.0027
3823.00,0.0028
3822.00,0.0028
3821.00,0.0028
3820.00,0.0029
3819.00,0.0029
3818.00,0.0029
3817.00,0.0029
3816.00,0.0028
3815.00,0.0028
3814.00,0.0027
3813.00,0.0027
3812.00,0.0026
3811.00,0.0026
3810.00,0.0026
3809.00,0.0026
3808.00,0.0026
3807.00,0.0026
3806.00,0.0026
3805.00,0.0027
3804.00,0.0028
3803.00,0.0029
3802.00,0.0029
3801.00,0.0029
3800.00,0.0029
3799.00,0.0029
3798.00,0.0028
3797.00,0.0027
3796.00,0.0026
3795.00,0.0026
3794.00,0.0025
3793.00,0.0025
3792.00,0.0024
3791.00,0.0024
3790.00,0.0024
3789.00,0.0024
3788.00,0.0024
3787.00,0.0024
3786.00,0.0024
3785.00,0.0024
3784.00,0.0024
3783.00,0.0025
3782.00,0.0025
3781.00,0.0025
3780.00,0.0025
3779.00,0.0025
3778.00,0.0025
3777.00,0.0025
3776.00,0.0025
3775.00,0.0025
3774.00,0.0025
3773.00,0.0025
3772.00,0.0025
3771.00,0.0025
3770.00,0.0025
3769.00,0.0026
3768.00,0.0026
3767.00,0.0026
3766.00,0.0026
3765.00,0.0026
3764.00,0.0026
3763.00,0.0026
3762.00,0.0027
3761.00,0.0027
3760.00,0.0027
3759.00,0.0027
3758.00,0.0027
3757.00,0.0028
3756.00,0.0028
3755.00,0.0029
3754.00,0.0030
3753.00,0.0031
3752.00,0.0032
3751.00,0.0032
3750.00,0.0032
3749.00,0.0033
3748.00,0.0033
3747.00,0.0034
3746.00,0.0033
3745.00,0.0032
3744.00,0.0031
3743.00,0.0031
3742.00,0.0030
3741.00,0.0029
3740.00,0.0029
3739.00,0.0030
3738.00,0.0030
3737.00,0.0030
3736.00,0.0030
3735.00,0.0030
3734.00,0.0029
3733.00,0.0029
3732.00,0.0028
3731.00,0.0028
3730.00,0.0027
3729.00,0.0027
3728.00,0.0026
3727.00,0.0026
3726.00,0.0026
3725.00,0.0027
3724.00,0.0026
3723.00,0.0026
3722.00,0.0026
3721.00,0.0026
3720.00,0.0025
3719.00,0.0025
3718.00,0.0025
3717.00,0.0025
3716.00,0.0025
3715.00,0.0026
3714.00,0.0026
3713.00,0.0027
3712.00,0.0027
3711.00,0.0027
3710.00,0.0026
3709.00,0.0026
3708.00,0.0026
3707.00,0.0026
3706.00,0.0025
3705.00,0.0024
3704.00,0.0024
3703.00,0.0024
3702.00,0.0024
3701.00,0.0024
3700.00,0.0024
3699.00,0.0024
3698.00,0.0024
3697.00,0.0024
3696.00,0.0024
3695.00,0.0024
3694.00,0.0025
3693.00,0.0026
3692.00,0.0026
3691.00,0.0027
3690.00,0.0027
3689.00,0.0028
3688.00,0.0029
3687.00,0.0029
3686.00,0.0029
3685.00,0.0029
3684.00,0.0028
3683.00,0.0028
3682.00,0.0028
3681.00,0.0028
3680.00,0.0028
3679.00,0.0029
3678.00,0.0030
3677.00,0.0031
3676.00,0.0032
3675.00,0.0032
3674.00,0.0033
3673.00,0.0034
3672.00,0.0034
3671.00,0.0034
3670.00,0.0033
3669.00,0.0033
3668.00,0.0032
3667.00,0.0031
3666.00,0.0031
3665.00,0.0030
3664.00,0.0030
3663.00,0.0029
3662.00,0.0029
3661.00,0.0029
3660.00,0.0030
3659.00,0.0030
3658.00,0.0031
3657.00,0.0031
3656.00,0.0032
3655.00,0.0032
3654.00,0.0033
3653.00,0.0034
3652.00,0.0035
3651.00,0.0036
3650.00,0.0038
3649.00,0.0038
3648.00,0.0038
3647.00,0.0039
3646.00,0.0038
3645.00,0.0038
3644.00,0.0037
3643.00,0.0036
3642.00,0.0035
3641.00,0.0035
3640.00,0.0035
3639.00,0.0035
3638.00,0.0035
3637.00,0.0036
3636.00,0.0036
3635.00,0.0036
3634.00,0.0037
3633.00,0.0038
3632.00,0.0038
3631.00,0.0040
3630.00,0.0041
3629.00,0.0041
3628.00,0.0042
3627.00,0.0042
3626.00,0.0042
3625.00,0.0042
3624.00,0.0042
3623.00,0.0042
3622.00,0.0042
3621.00,0.0042
3620.00,0.0043
3619.00,0.0043
3618.00,0.0044
3617.00,0.0045
3616.00,0.0046
3615.00,0.0046
3614.00,0.0046
3613.00,0.0047
3612.00,0.0047
3611.00,0.0047
3610.00,0.0048
3609.00,0.0048
3608.00,0.0048
3607.00,0.0048
3606.00,0.0048
3605.00,0.0048
3604.00,0.0048
3603.00,0.0048
3602.00,0.0048
3601.00,0.0049
3600.00,0.0049
3599.00,0.0049
3598.00,0.0050
3597.00,0.0050
3596.00,0.0051
3595.00,0.0052
3594.00,0.0052
3593.00,0.0053
3592.00,0.0053
3591.00,0.0053
3590.00,0.0054
3589.00,0.0055
3588.00,0.0056
3587.00,0.0057
3586.00,0.0057
3585.00,0.0058
3584.00,0.0058
3583.00,0.0058
3582.00,0.0058
3581.00,0.0058
3580.00,0.0058
3579.00,0.0058
3578.00,0.0058
3577.00,0.0059
3576.00,0.0060
3575.00,0.0060
3574.00,0.0061
3573.00,0.0062
3572.00,0.0063
3571.00,0.0063
3570.00,0.0064
3569.00,0.0065
3568.00,0.0066
3567.00,0.0068
3566.00,0.0069
3565.00,0.0070
3564.00,0.0070
3563.00,0.0071
3562.00,0.0071
3561.00,0.0071
3560.00,0.0071
3559.00,0.0071
3558.00,0.0071
3557.00,0.0071
3556.00,0.0071
3555.00,0.0072
3554.00,0.0072
3553.00,0.0073
3552.00,0.0074
3551.00,0.0074
3550.00,0.0075
3549.00,0.0075
3548.00,0.0076
3547.00,0.0077
3546.00,0.0078
3545.00,0.0079
3544.00,0.0079
3543.00,0.0080
3542.00,0.0080
3541.00,0.0080
3540.00,0.0079
3539.00,0.0079
3538.00,0.0079
3537.00,0.0080
3536.00,0.0080
3535.00,0.0081
3534.00,0.0081
3533.00,0.0081
3532.00,0.0081
3531.00,0.0082
3530.00,0.0082
3529.00,0.0083
3528.00,0.0084
3527.00,0.0085
3526.00,0.0086
3525.00,0.0087
3524.00,0.0087
3523.00,0.0087
3522.00,0.0087
3521.00,0.0087
3520.00,0.0087
3519.00,0.0087
3518.00,0.0088
3517.00,0.0088
3516.00,0.0088
3515.00,0.0088
3514.00,0.0088
3513.00,0.0088
3512.00,0.0089
3511.00,0.0089
3510.00,0.0089
3509.00,0.0090
3508.00,0.0090
3507.00,0.0091
3506.00,0.0091
3505.00,0.0091
3504.00,0.0091
3503.00,0.0092
3502.00,0.0093
3501.00,0.0093
3500.00,0.0093
3499.00,0.0093
3498.00,0.0093
3497.00,0.0094
3496.00,0.0094
3495.00,0.0094
3494.00,0.0095
3493.00,0.0095
3492.00,0.0095
3491.00,0.0095
3490.00,0.0095
3489.00,0.0095
3488.00,0.0095
3487.00,0.0095
3486.00,0.0096
3485.00,0.0096
3484.00,0.0096
3483.00,0.0097
3482.00,0.0097
3481.00,0.0098
3480.00,0.0098
3479.00,0.0098
3478.00,0.0098
3477.00,0.0099
3476.00,0.0099
3475.00,0.0099
3474.00,0.0100
3473.00,0.0100
3472.00,0.0100
3471.00,0.0100
3470.00,0.0100
3469.00,0.0100
3468.00,0.0101
3467.00,0.0101
3466.00,0.0101
3465.00,0.0101
3464.00,0.0101
3463.00,0.0101
3462.00,0.0101
3461.00,0.0101
3460.00,0.0101
3459.00,0.0101
3458.00,0.0102
3457.00,0.0102
3456.00,0.0102
3455.00,0.0102
3454.00,0.0103
3453.00,0.0103
3452.00,0.0103
3451.00,0.0103
3450.00,0.0103
3449.00,0.0103
3448.00,0.0104
3447.00,0.0104
3446.00,0.0105
3445.00,0.0105
3444.00,0.0105
3443.00,0.0105
3442.00,0.0105
3441.00,0.0105
3440.00,0.0105
3439.00,0.0105
3438.00,0.0105
3437.00,0.0105
3436.00,0.0105
3435.00,0.0105
3434.00,0.0105
3433.00,0.0105
3432.00,0.0106
3431.00,0.0106
3430.00,0.0106
3429.00,0.0106
3428.00,0.0105
3427.00,0.0105
3426.00,0.0105
3425.00,0.0105
3424.00,0.0105
3423.00,0.0106
3422.00,0.0106
3421.00,0.0106
3420.00,0.0106
3419.00,0.0107
3418.00,0.0107
3417.00,0.0107
3416.00,0.0106
3415.00,0.0106
3414.00,0.0106
3413.00,0.0106
3412.00,0.0106
3411.00,0.0106
3410.00,0.0106
3409.00,0.0106
3408.00,0.0106
3407.00,0.0106
3406.00,0.0106
3405.00,0.0107
3404.00,0.0107
3403.00,0.0107
3402.00,0.0107
3401.00,0.0107
3400.00,0.0107
3399.00,0.0107
3398.00,0.0107
3397.00,0.0107
3396.00,0.0107
3395.00,0.0107
3394.00,0.0107
3393.00,0.0107
3392.00,0.0107
3391.00,0.0107
3390.00,0.0107
3389.00,0.0107
3388.00,0.0107
3387.00,0.0107
3386.00,0.0107
3385.00,0.0107
3384.00,0.0107
3383.00,0.0107
3382.00,0.0107
3381.00,0.0107
3380.00,0.0107
3379.00,0.0107
3378.00,0.0107
3377.00,0.0107
3376.00,0.0107
3375.00,0.0107
3374.00,0.0107
3373.00,0.0107
3372.00,0.0107
3371.00,0.0106
3370.00,0.0106
3369.00,0.0106
3368.00,0.0106
3367.00,0.0106
3366.00,0.0107
3365.00,0.0107
3364.00,0.0107
3363.00,0.0107
3362.00,0.0106
3361.00,0.0107
3360.00,0.0107
3359.00,0.0107
3358.00,0.0107
3357.00,0.0107
3356.00,0.0107
3355.00,0.0107
3354.00,0.0107
3353.00,0.0106
3352.00,0.0106
3351.00,0.0105
3350.00,0.0106
3349.00,0.0106
3348.00,0.0107
3347.00,0.0107
3346.00,0.0107
3345.00,0.0107
3344.00,0.0106
3343.00,0.0106
3342.00,0.0106
3341.00,0.0106
3340.00,0.0106
3339.00,0.0106
3338.00,0.0106
3337.00,0.0107
3336.00,0.0108
3335.00,0.0108
3334.00,0.0108
3333.00,0.0108
3332.00,0.0108
3331.00,0.0108
3330.00,0.0108
3329.00,0.0108
3328.00,0.0107
3327.00,0.0107
3326.00,0.0108
3325.00,0.0108
3324.00,0.0109
3323.00,0.0109
3322.00,0.0109
3321.00,0.0109
3320.00,0.0109
3319.00,0.0109
3318.00,0.0110
3317.00,0.0110
3316.00,0.0110
3315.00,0.0110
3314.00,0.0110
3313.00,0.0109
3312.00,0.0109
3311.00,0.0109
3310.00,0.0108
3309.00,0.0107
3308.00,0.0107
3307.00,0.0107
3306.00,0.0107
3305.00,0.0108
3304.00,0.0109
3303.00,0.0110
3302.00,0.0111
3301.00,0.0111
3300.00,0.0111
3299.00,0.0111
3298.00,0.0111
3297.00,0.0110
3296.00,0.0110
3295.00,0.0110
3294.00,0.0110
3293.00,0.0110
3292.00,0.0110
3291.00,0.0111
3290.00,0.0112
3289.00,0.0112
3288.00,0.0113
3287.00,0.0113
3286.00,0.0113
3285.00,0.0113
3284.00,0.0113
3283.00,0.0113
3282.00,0.0113
3281.00,0.0113
3280.00,0.0113
3279.00,0.0113
3278.00,0.0113
3277.00,0.0112
3276.00,0.0112
3275.00,0.0112
3274.00,0.0112
3273.00,0.0112
3272.00,0.0111
3271.00,0.0111
3270.00,0.0111
3269.00,0.0112
3268.00,0.0112
3267.00,0.0112
3266.00,0.0112
3265.00,0.0113
3264.00,0.0113
3263.00,0.0113
3262.00,0.0113
3261.00,0.0113
3260.00,0.0113
3259.00,0.0113
3258.00,0.0112
3257.00,0.0112
3256.00,0.0112
3255.00,0.0112
3254.00,0.0112
3253.00,0.0112
3252.00,0.0112
3251.00,0.0112
3250.00,0.0112
3249.00,0.0112
3248.00,0.0112
3247.00,0.0112
3246.00,0.0112
3245.00,0.0113
3244.00,0.0113
3243.00,0.0113
3242.00,0.0113
3241.00,0.0113
3240.00,0.0113
3239.00,0.0113
3238.00,0.0112
3237.00,0.0112
3236.00,0.0111
3235.00,0.0111
3234.00,0.0111
3233.00,0.0111
3232.00,0.0112
3231.00,0.0112
3230.00,0.0112
3229.00,0.0112
3228.00,0.0111
3227.00,0.0111
3226.00,0.0112
3225.00,0.0112
3224.00,0.0112
3223.00,0.0112
3222.00,0.0111
3221.00,0.0111
3220.00,0.0111
3219.00,0.0111
3218.00,0.0110
3217.00,0.0110
3216.00,0.0110
3215.00,0.0110
3214.00,0.0110
3213.00,0.0110
3212.00,0.0110
3211.00,0.0109
3210.00,0.0109
3209.00,0.0109
3208.00,0.0109
3207.00,0.0109
3206.00,0.0109
3205.00,0.0108
3204.00,0.0108
3203.00,0.0107
3202.00,0.0107
3201.00,0.0107
3200.00,0.0107
3199.00,0.0107
3198.00,0.0107
3197.00,0.0107
3196.00,0.0107
3195.00,0.0107
3194.00,0.0107
3193.00,0.0107
3192.00,0.0107
3191.00,0.0106
3190.00,0.0106
3189.00,0.0106
3188.00,0.0106
3187.00,0.0106
3186.00,0.0106
3185.00,0.0106
3184.00,0.0106
3183.00,0.0106
3182.00,0.0106
3181.00,0.0105
3180.00,0.0105
3179.00,0.0105
3178.00,0.0105
3177.00,0.0105
3176.00,0.0105
3175.00,0.0105
3174.00,0.0105
3173.00,0.0105
3172.00,0.0105
3171.00,0.0105
3170.00,0.0104
3169.00,0.0104
3168.00,0.0104
3167.00,0.0104
3166.00,0.0104
3165.00,0.0104
3164.00,0.0103
3163.00,0.0103
3162.00,0.0103
3161.00,0.0102
3160.00,0.0102
3159.00,0.0102
3158.00,0.0102
3157.00,0.0102
3156.00,0.0102
3155.00,0.0101
3154.00,0.0101
3153.00,0.0101
3152.00,0.0100
3151.00,0.0101
3150.00,0.0100
3149.00,0.0100
3148.00,0.0100
3147.00,0.0100
3146.00,0.0099
3145.00,0.0099
3144.00,0.0099
3143.00,0.0098
3142.00,0.0098
3141.00,0.0098
3140.00,0.0098
3139.00,0.0098
3138.00,0.0098
3137.00,0.0098
3136.00,0.0098
3135.00,0.0098
3134.00,0.0097
3133.00,0.0097
3132.00,0.0098
3131.00,0.0098
3130.00,0.0098
3129.00,0.0097
3128.00,0.0097
3127.00,0.0097
3126.00,0.0097
3125.00,0.0097
3124.00,0.0097
3123.00,0.0097
3122.00,0.0097
3121.00,0.0097
3120.00,0.0097
3119.00,0.0097
3118.00,0.0097
3117.00,0.0096
3116.00,0.0096
3115.00,0.0096
3114.00,0.0096
3113.00,0.0095
3112.00,0.0095
3111.00,0.0095
3110.00,0.0094
3109.00,0.0094
3108.00,0.0094
3107.00,0.0094
3106.00,0.0094
3105.00,0.0093
3104.00,0.0093
3103.00,0.0093
3102.00,0.0093
3101.00,0.0093
3100.00,0.0093
3099.00,0.0093
3098.00,0.0093
3097.00,0.0093
3096.00,0.0092
3095.00,0.0092
3094.00,0.0092
3093.00,0.0092
3092.00,0.0093
3091.00,0.0093
3090.00,0.0093
3089.00,0.0092
3088.00,0.0092
3087.00,0.0092
3086.00,0.0092
3085.00,0.0093
3084.00,0.0093
3083.00,0.0093
3082.00,0.0093
3081.00,0.0093
3080.00,0.0093
3079.00,0.0093
3078.00,0.0092
3077.00,0.0092
3076.00,0.0092
3075.00,0.0092
3074.00,0.0091
3073.00,0.0091
3072.00,0.0091
3071.00,0.0091
3070.00,0.0091
3069.00,0.0091
3068.00,0.0091
3067.00,0.0090
3066.00,0.0090
3065.00,0.0090
3064.00,0.0089
3063.00,0.0089
3062.00,0.0089
3061.00,0.0088
3060.00,0.0088
3059.00,0.0088
3058.00,0.0088
3057.00,0.0087
3056.00,0.0087
3055.00,0.0086
3054.00,0.0086
3053.00,0.0086
3052.00,0.0086
3051.00,0.0086
3050.00,0.0086
3049.00,0.0085
3048.00,0.0086
3047.00,0.0086
3046.00,0.0086
3045.00,0.0085
3044.00,0.0085
3043.00,0.0085
3042.00,0.0085
3041.00,0.0085
3040.00,0.0084
3039.00,0.0084
3038.00,0.0084
3037.00,0.0084
3036.00,0.0084
3035.00,0.0084
3034.00,0.0084
3033.00,0.0083
3032.00,0.0083
3031.00,0.0083
3030.00,0.0083
3029.00,0.0083
3028.00,0.0083
3027.00,0.0082
3026.00,0.0082
3025.00,0.0082
3024.00,0.0082
3023.00,0.0082
3022.00,0.0081
3021.00,0.0081
3020.00,0.0081
3019.00,0.0081
3018.00,0.0081
3017.00,0.0081
3016.00,0.0081
3015.00,0.0081
3014.00,0.0082
3013.00,0.0082
3012.00,0.0083
3011.00,0.0083
3010.00,0.0084
3009.00,0.0085
3008.00,0.0086
3007.00,0.0087
3006.00,0.0088
3005.00,0.0089
3004.00,0.0091
3003.00,0.0092
3002.00,0.0094
3001.00,0.0097
3000.00,0.0099
2999.00,0.0101
2998.00,0.0103
2997.00,0.0106
2996.00,0.0109
2995.00,0.0112
2994.00,0.0115
2993.00,0.0118
2992.00,0.0122
2991.00,0.0125
2990.00,0.0128
2989.00,0.0131
2988.00,0.0134
2987.00,0.0137
2986.00,0.0140
2985.00,0.0142
2984.00,0.0144
2983.00,0.0147
2982.00,0.0149
2981.00,0.0150
2980.00,0.0152
2979.00,0.0154
2978.00,0.0155
2977.00,0.0157
2976.00,0.0158
2975.00,0.0160
2974.00,0.0161
2973.00,0.0162
2972.00,0.0164
2971.00,0.0166
2970.00,0.0167
2969.00,0.0169
2968.00,0.0172
2967.00,0.0174
2966.00,0.0176
2965.00,0.0179
2964.00,0.0181
2963.00,0.0184
2962.00,0.0186
2961.00,0.0189
2960.00,0.0191
2959.00,0.0194
2958.00,0.0196
2957.00,0.0198
2956.00,0.0200
2955.00,0.0201
2954.00,0.0202
2953.00,0.0203
2952.00,0.0203
2951.00,0.0203
2950.00,0.0203
2949.00,0.0202
2948.00,0.0202
2947.00,0.0202
2946.00,0.0202
2945.00,0.0202
2944.00,0.0202
2943.00,0.0203
2942.00,0.0203
2941.00,0.0204
2940.00,0.0205
2939.00,0.0206
2938.00,0.0207
2937.00,0.0209
2936.00,0.0210
2935.00,0.0212
2934.00,0.0213
2933.00,0.0214
2932.00,0.0215
2931.00,0.0216
2930.00,0.0217
2929.00,0.0218
2928.00,0.0219
2927.00,0.0220
2926.00,0.0219
2925.00,0.0219
2924.00,0.0218
2923.00,0.0218
2922.00,0.0216
2921.00,0.0215
2920.00,0.0213
2919.00,0.0211
2918.00,0.0209
2917.00,0.0206
2916.00,0.0203
2915.00,0.0200
2914.00,0.0197
2913.00,0.0193
2912.00,0.0190
2911.00,0.0187
2910.00,0.0183
2909.00,0.0180
2908.00,0.0178
2907.00,0.0175
2906.00,0.0173
2905.00,0.0171
2904.00,0.0170
2903.00,0.0168
2902.00,0.0167
2901.00,0.0166
2900.00,0.0165
2899.00,0.0165
2898.00,0.0164
2897.00,0.0163
2896.00,0.0163
2895.00,0.0163
2894.00,0.0162
2893.00,0.0162
2892.00,0.0162
2891.00,0.0162
2890.00,0.0162
2889.00,0.0161
2888.00,0.0161
2887.00,0.0161
2886.00,0.0161
2885.00,0.0161
2884.00,0.0161
2883.00,0.0161
2882.00,0.0161
2881.00,0.0161
2880.00,0.0162
2879.00,0.0163
2878.00,0.0164
2877.00,0.0164
2876.00,0.0165
2875.00,0.0166
2874.00,0.0167
2873.00,0.0168
2872.00,0.0169
2871.00,0.0170
2870.00,0.0170
2869.00,0.0170
2868.00,0.0170
2867.00,0.0169
2866.00,0.0169
2865.00,0.0168
2864.00,0.0168
2863.00,0.0168
2862.00,0.0168
2861.00,0.0168
2860.00,0.0168
2859.00,0.0168
2858.00,0.0167
2857.00,0.0165
2856.00,0.0163
2855.00,0.0161
2854.00,0.0158
2853.00,0.0155
2852.00,0.0151
2851.00,0.0147
2850.00,0.0143
2849.00,0.0140
2848.00,0.0136
2847.00,0.0133
2846.00,0.0129
2845.00,0.0126
2844.00,0.0123
2843.00,0.0119
2842.00,0.0116
2841.00,0.0113
2840.00,0.0109
2839.00,0.0107
2838.00,0.0104
2837.00,0.0102
2836.00,0.0101
2835.00,0.0099
2834.00,0.0097
2833.00,0.0096
2832.00,0.0094
2831.00,0.0093
2830.00,0.0091
2829.00,0.0090
2828.00,0.0088
2827.00,0.0087
2826.00,0.0085
2825.00,0.0084
2824.00,0.0083
2823.00,0.0081
2822.00,0.0080
2821.00,0.0079
2820.00,0.0078
2819.00,0.0077
2818.00,0.0076
2817.00,0.0076
2816.00,0.0075
2815.00,0.0074
2814.00,0.0074
2813.00,0.0073
2812.00,0.0072
2811.00,0.0071
2810.00,0.0071
2809.00,0.0071
2808.00,0.0070
2807.00,0.0070
2806.00,0.0069
2805.00,0.0069
2804.00,0.0068
2803.00,0.0068
2802.00,0.0068
2801.00,0.0067
2800.00,0.0067
2799.00,0.0066
2798.00,0.0066
2797.00,0.0066
2796.00,0.0065
2795.00,0.0065
2794.00,0.0065
2793.00,0.0065
2792.00,0.0064
2791.00,0.0064
2790.00,0.0064
2789.00,0.0063
2788.00,0.0063
2787.00,0.0063
2786.00,0.0063
2785.00,0.0062
2784.00,0.0062
2783.00,0.0062
2782.00,0.0062
2781.00,0.0061
2780.00,0.0061
2779.00,0.0061
2778.00,0.0061
2777.00,0.0060
2776.00,0.0060
2775.00,0.0060
2774.00,0.0060
2773.00,0.0060
2772.00,0.0060
2771.00,0.0060
2770.00,0.0060
2769.00,0.0060
2768.00,0.0059
2767.00,0.0059
2766.00,0.0059
2765.00,0.0059
2764.00,0.0059
2763.00,0.0059
2762.00,0.0059
2761.00,0.0059
2760.00,0.0059
2759.00,0.0059
2758.00,0.0059
2757.00,0.0059
