Created as New Dataset,Sample 1046 By YargerLab Date Monday, August 04 2025
cm-1,A
4000.00,0.0022
3999.00,0.0022
3998.00,0.0022
3997.00,0.0022
3996.00,0.0022
3995.00,0.0023
3994.00,0.0023
3993.00,0.0023
3992.00,0.0023
3991.00,0.0022
3990.00,0.0022
3989.00,0.0022
3988.00,0.0023
3987.00,0.0023
3986.00,0.0023
3985.00,0.0023
3984.00,0.0023
3983.00,0.0023
3982.00,0.0023
3981.00,0.0023
3980.00,0.0023
3979.00,0.0023
3978.00,0.0022
3977.00,0.0022
3976.00,0.0022
3975.00,0.0022
3974.00,0.0022
3973.00,0.0022
3972.00,0.0022
3971.00,0.0022
3970.00,0.0022
3969.00,0.0022
3968.00,0.0022
3967.00,0.0022
3966.00,0.0022
3965.00,0.0022
3964.00,0.0022
3963.00,0.0022
3962.00,0.0022
3961.00,0.0022
3960.00,0.0022
3959.00,0.0022
3958.00,0.0022
3957.00,0.0022
3956.00,0.0022
3955.00,0.0022
3954.00,0.0022
3953.00,0.0022
3952.00,0.0022
3951.00,0.0022
3950.00,0.0022
3949.00,0.0023
3948.00,0.0023
3947.00,0.0023
3946.00,0.0023
3945.00,0.0023
3944.00,0.0023
3943.00,0.0023
3942.00,0.0023
3941.00,0.0022
3940.00,0.0022
3939.00,0.0022
3938.00,0.0022
3937.00,0.0023
3936.00,0.0023
3935.00,0.0023
3934.00,0.0022
3933.00,0.0022
3932.00,0.0022
3931.00,0.0022
3930.00,0.0022
3929.00,0.0022
3928.00,0.0022
3927.00,0.0023
3926.00,0.0023
3925.00,0.0023
3924.00,0.0023
3923.00,0.0023
3922.00,0.0023
3921.00,0.0023
3920.00,0.0023
3919.00,0.0022
3918.00,0.0022
3917.00,0.0022
3916.00,0.0022
3915.00,0.0022
3914.00,0.0022
3913.00,0.0022
3912.00,0.0022
3911.00,0.0023
3910.00,0.0023
3909.00,0.0023
3908.00,0.0023
3907.00,0.0024
3906.00,0.0024
3905.00,0.0024
3904.00,0.0024
3903.00,0.0024
3902.00,0.0024
3901.00,0.0024
3900.00,0.0024
3899.00,0.0023
3898.00,0.0023
3897.00,0.0023
3896.00,0.0023
3895.00,0.0023
3894.00,0.0023
3893.00,0.0023
3892.00,0.0023
3891.00,0.0023
3890.00,0.0023
3889.00,0.0024
3888.00,0.0024
3887.00,0.0024
3886.00,0.0024
3885.00,0.0024
3884.00,0.0024
3883.00,0.0024
3882.00,0.0024
3881.00,0.0024
3880.00,0.0023
3879.00,0.0023
3878.00,0.0023
3877.00,0.0023
3876.00,0.0023
3875.00,0.0023
3874.00,0.0024
3873.00,0.0024
3872.00,0.0024
3871.00,0.0024
3870.00,0.0024
3869.00,0.0024
3868.00,0.0024
3867.00,0.0024
3866.00,0.0024
3865.00,0.0024
3864.00,0.0024
3863.00,0.0024
3862.00,0.0024
3861.00,0.0023
3860.00,0.0023
3859.00,0.0023
3858.00,0.0024
3857.00,0.0024
3856.00,0.0025
3855.00,0.0026
3854.00,0.0026
3853.00,0.0026
3852.00,0.0026
3851.00,0.0026
3850.00,0.0026
3849.00,0.0025
3848.00,0.0025
3847.00,0.0024
3846.00,0.0024
3845.00,0.0024
3844.00,0.0024
3843.00,0.0024
3842.00,0.0024
3841.00,0.0025
3840.00,0.0025
3839.00,0.0025
3838.00,0.0025
3837.00,0.0025
3836.00,0.0025
3835.00,0.0025
3834.00,0.0025
3833.00,0.0024
3832.00,0.0024
3831.00,0.0024
3830.00,0.0024
3829.00,0.0024
3828.00,0.0023
3827.00,0.0023
3826.00,0.0023
3825.00,0.0024
3824.00,0.0024
3823.00,0.0024
3822.00,0.0024
3821.00,0.0025
3820.00,0.0025
3819.00,0.0025
3818.00,0.0025
3817.00,0.0025
3816.00,0.0025
3815.00,0.0025
3814.00,0.0024
3813.00,0.0024
3812.00,0.0023
3811.00,0.0024
3810.00,0.0024
3809.00,0.0024
3808.00,0.0024
3807.00,0.0024
3806.00,0.0024
3805.00,0.0024
3804.00,0.0024
3803.00,0.0025
3802.00,0.0025
3801.00,0.0025
3800.00,0.0025
3799.00,0.0025
3798.00,0.0025
3797.00,0.0024
3796.00,0.0024
3795.00,0.0024
3794.00,0.0023
3793.00,0.0023
3792.00,0.0023
3791.00,0.0023
3790.00,0.0023
3789.00,0.0023
3788.00,0.0023
3787.00,0.0023
3786.00,0.0023
3785.00,0.0023
3784.00,0.0023
3783.00,0.0023
3782.00,0.0024
3781.00,0.0024
3780.00,0.0024
3779.00,0.0024
3778.00,0.0024
3777.00,0.0023
3776.00,0.0023
3775.00,0.0023
3774.00,0.0023
3773.00,0.0023
3772.00,0.0023
3771.00,0.0023
3770.00,0.0023
3769.00,0.0023
3768.00,0.0023
3767.00,0.0023
3766.00,0.0023
3765.00,0.0024
3764.00,0.0024
3763.00,0.0024
3762.00,0.0024
3761.00,0.0024
3760.00,0.0025
3759.00,0.0025
3758.00,0.0025
3757.00,0.0025
3756.00,0.0025
3755.00,0.0025
3754.00,0.0026
3753.00,0.0026
3752.00,0.0026
3751.00,0.0027
3750.00,0.0027
3749.00,0.0027
3748.00,0.0027
3747.00,0.0027
3746.00,0.0027
3745.00,0.0026
3744.00,0.0026
3743.00,0.0026
3742.00,0.0025
3741.00,0.0025
3740.00,0.0025
3739.00,0.0025
3738.00,0.0025
3737.00,0.0026
3736.00,0.0026
3735.00,0.0026
3734.00,0.0026
3733.00,0.0026
3732.00,0.0026
3731.00,0.0026
3730.00,0.0025
3729.00,0.0025
3728.00,0.0025
3727.00,0.0024
3726.00,0.0024
3725.00,0.0024
3724.00,0.0024
3723.00,0.0024
3722.00,0.0024
3721.00,0.0024
3720.00,0.0024
3719.00,0.0024
3718.00,0.0024
3717.00,0.0024
3716.00,0.0024
3715.00,0.0024
3714.00,0.0024
3713.00,0.0025
3712.00,0.0025
3711.00,0.0025
3710.00,0.0025
3709.00,0.0025
3708.00,0.0024
3707.00,0.0024
3706.00,0.0023
3705.00,0.0023
3704.00,0.0023
3703.00,0.0023
3702.00,0.0023
3701.00,0.0023
3700.00,0.0023
3699.00,0.0023
3698.00,0.0023
3697.00,0.0023
3696.00,0.0023
3695.00,0.0023
3694.00,0.0024
3693.00,0.0024
3692.00,0.0024
3691.00,0.0025
3690.00,0.0025
3689.00,0.0025
3688.00,0.0026
3687.00,0.0027
3686.00,0.0027
3685.00,0.0027
3684.00,0.0026
3683.00,0.0026
3682.00,0.0026
3681.00,0.0027
3680.00,0.0027
3679.00,0.0028
3678.00,0.0028
3677.00,0.0029
3676.00,0.0029
3675.00,0.0029
3674.00,0.0029
3673.00,0.0029
3672.00,0.0029
3671.00,0.0029
3670.00,0.0029
3669.00,0.0029
3668.00,0.0029
3667.00,0.0028
3666.00,0.0028
3665.00,0.0028
3664.00,0.0028
3663.00,0.0028
3662.00,0.0028
3661.00,0.0028
3660.00,0.0029
3659.00,0.0029
3658.00,0.0030
3657.00,0.0030
3656.00,0.0030
3655.00,0.0031
3654.00,0.0031
3653.00,0.0032
3652.00,0.0033
3651.00,0.0034
3650.00,0.0034
3649.00,0.0035
3648.00,0.0035
3647.00,0.0036
3646.00,0.0036
3645.00,0.0035
3644.00,0.0035
3643.00,0.0034
3642.00,0.0034
3641.00,0.0034
3640.00,0.0035
3639.00,0.0035
3638.00,0.0036
3637.00,0.0036
3636.00,0.0036
3635.00,0.0036
3634.00,0.0037
3633.00,0.0038
3632.00,0.0039
3631.00,0.0040
3630.00,0.0040
3629.00,0.0040
3628.00,0.0041
3627.00,0.0041
3626.00,0.0042
3625.00,0.0042
3624.00,0.0042
3623.00,0.0043
3622.00,0.0043
3621.00,0.0043
3620.00,0.0044
3619.00,0.0044
3618.00,0.0045
3617.00,0.0045
3616.00,0.0046
3615.00,0.0047
3614.00,0.0047
3613.00,0.0048
3612.00,0.0048
3611.00,0.0049
3610.00,0.0049
3609.00,0.0049
3608.00,0.0050
3607.00,0.0050
3606.00,0.0050
3605.00,0.0051
3604.00,0.0051
3603.00,0.0052
3602.00,0.0052
3601.00,0.0053
3600.00,0.0053
3599.00,0.0054
3598.00,0.0055
3597.00,0.0056
3596.00,0.0056
3595.00,0.0057
3594.00,0.0057
3593.00,0.0058
3592.00,0.0059
3591.00,0.0059
3590.00,0.0060
3589.00,0.0060
3588.00,0.0061
3587.00,0.0061
3586.00,0.0062
3585.00,0.0063
3584.00,0.0064
3583.00,0.0064
3582.00,0.0065
3581.00,0.0066
3580.00,0.0066
3579.00,0.0067
3578.00,0.0067
3577.00,0.0068
3576.00,0.0069
3575.00,0.0070
3574.00,0.0071
3573.00,0.0071
3572.00,0.0072
3571.00,0.0073
3570.00,0.0074
3569.00,0.0075
3568.00,0.0076
3567.00,0.0077
3566.00,0.0078
3565.00,0.0079
3564.00,0.0079
3563.00,0.0080
3562.00,0.0080
3561.00,0.0081
3560.00,0.0081
3559.00,0.0082
3558.00,0.0083
3557.00,0.0083
3556.00,0.0084
3555.00,0.0085
3554.00,0.0085
3553.00,0.0086
3552.00,0.0087
3551.00,0.0088
3550.00,0.0088
3549.00,0.0089
3548.00,0.0090
3547.00,0.0090
3546.00,0.0091
3545.00,0.0092
3544.00,0.0092
3543.00,0.0093
3542.00,0.0093
3541.00,0.0094
3540.00,0.0094
3539.00,0.0095
3538.00,0.0095
3537.00,0.0096
3536.00,0.0096
3535.00,0.0097
3534.00,0.0098
3533.00,0.0098
3532.00,0.0099
3531.00,0.0099
3530.00,0.0100
3529.00,0.0100
3528.00,0.0101
3527.00,0.0101
3526.00,0.0102
3525.00,0.0103
3524.00,0.0103
3523.00,0.0104
3522.00,0.0104
3521.00,0.0104
3520.00,0.0105
3519.00,0.0105
3518.00,0.0105
3517.00,0.0106
3516.00,0.0106
3515.00,0.0107
3514.00,0.0107
3513.00,0.0108
3512.00,0.0108
3511.00,0.0108
3510.00,0.0108
3509.00,0.0108
3508.00,0.0109
3507.00,0.0110
3506.00,0.0110
3505.00,0.0111
3504.00,0.0111
3503.00,0.0112
3502.00,0.0112
3501.00,0.0113
3500.00,0.0113
3499.00,0.0113
3498.00,0.0114
3497.00,0.0114
3496.00,0.0114
3495.00,0.0115
3494.00,0.0115
3493.00,0.0115
3492.00,0.0115
3491.00,0.0116
3490.00,0.0116
3489.00,0.0116
3488.00,0.0116
3487.00,0.0117
3486.00,0.0117
3485.00,0.0117
3484.00,0.0118
3483.00,0.0118
3482.00,0.0118
3481.00,0.0119
3480.00,0.0119
3479.00,0.0119
3478.00,0.0119
3477.00,0.0120
3476.00,0.0120
3475.00,0.0121
3474.00,0.0121
3473.00,0.0122
3472.00,0.0122
3471.00,0.0122
3470.00,0.0123
3469.00,0.0123
3468.00,0.0123
3467.00,0.0123
3466.00,0.0123
3465.00,0.0124
3464.00,0.0124
3463.00,0.0124
3462.00,0.0124
3461.00,0.0125
3460.00,0.0125
3459.00,0.0125
3458.00,0.0125
3457.00,0.0125
3456.00,0.0126
3455.00,0.0126
3454.00,0.0126
3453.00,0.0126
3452.00,0.0126
3451.00,0.0126
3450.00,0.0126
3449.00,0.0127
3448.00,0.0127
3447.00,0.0127
3446.00,0.0127
3445.00,0.0127
3444.00,0.0127
3443.00,0.0127
3442.00,0.0127
3441.00,0.0127
3440.00,0.0127
3439.00,0.0127
3438.00,0.0128
3437.00,0.0128
3436.00,0.0128
3435.00,0.0128
3434.00,0.0128
3433.00,0.0128
3432.00,0.0128
3431.00,0.0128
3430.00,0.0128
3429.00,0.0128
3428.00,0.0128
3427.00,0.0128
3426.00,0.0128
3425.00,0.0128
3424.00,0.0127
3423.00,0.0127
3422.00,0.0127
3421.00,0.0127
3420.00,0.0128
3419.00,0.0128
3418.00,0.0128
3417.00,0.0128
3416.00,0.0128
3415.00,0.0127
3414.00,0.0127
3413.00,0.0127
3412.00,0.0127
3411.00,0.0127
3410.00,0.0127
3409.00,0.0126
3408.00,0.0126
3407.00,0.0126
3406.00,0.0126
3405.00,0.0126
3404.00,0.0126
3403.00,0.0126
3402.00,0.0126
3401.00,0.0126
3400.00,0.0125
3399.00,0.0125
3398.00,0.0125
3397.00,0.0125
3396.00,0.0125
3395.00,0.0125
3394.00,0.0125
3393.00,0.0125
3392.00,0.0125
3391.00,0.0124
3390.00,0.0124
3389.00,0.0124
3388.00,0.0124
3387.00,0.0124
3386.00,0.0124
3385.00,0.0124
3384.00,0.0124
3383.00,0.0124
3382.00,0.0123
3381.00,0.0123
3380.00,0.0123
3379.00,0.0123
3378.00,0.0123
3377.00,0.0122
3376.00,0.0122
3375.00,0.0122
3374.00,0.0122
3373.00,0.0121
3372.00,0.0121
3371.00,0.0120
3370.00,0.0119
3369.00,0.0119
3368.00,0.0119
3367.00,0.0119
3366.00,0.0119
3365.00,0.0120
3364.00,0.0120
3363.00,0.0120
3362.00,0.0120
3361.00,0.0120
3360.00,0.0120
3359.00,0.0120
3358.00,0.0120
3357.00,0.0120
3356.00,0.0120
3355.00,0.0120
3354.00,0.0119
3353.00,0.0118
3352.00,0.0118
3351.00,0.0117
3350.00,0.0117
3349.00,0.0117
3348.00,0.0118
3347.00,0.0118
3346.00,0.0118
3345.00,0.0117
3344.00,0.0117
3343.00,0.0116
3342.00,0.0116
3341.00,0.0115
3340.00,0.0115
3339.00,0.0114
3338.00,0.0114
3337.00,0.0114
3336.00,0.0115
3335.00,0.0116
3334.00,0.0116
3333.00,0.0116
3332.00,0.0116
3331.00,0.0116
3330.00,0.0116
3329.00,0.0116
3328.00,0.0115
3327.00,0.0114
3326.00,0.0114
3325.00,0.0114
3324.00,0.0114
3323.00,0.0114
3322.00,0.0115
3321.00,0.0115
3320.00,0.0114
3319.00,0.0114
3318.00,0.0114
3317.00,0.0114
3316.00,0.0114
3315.00,0.0114
3314.00,0.0114
3313.00,0.0113
3312.00,0.0113
3311.00,0.0112
3310.00,0.0110
3309.00,0.0109
3308.00,0.0108
3307.00,0.0107
3306.00,0.0107
3305.00,0.0108
3304.00,0.0110
3303.00,0.0111
3302.00,0.0112
3301.00,0.0113
3300.00,0.0112
3299.00,0.0112
3298.00,0.0111
3297.00,0.0110
3296.00,0.0110
3295.00,0.0110
3294.00,0.0109
3293.00,0.0109
3292.00,0.0109
3291.00,0.0109
3290.00,0.0110
3289.00,0.0111
3288.00,0.0111
3287.00,0.0111
3286.00,0.0111
3285.00,0.0110
3284.00,0.0110
3283.00,0.0110
3282.00,0.0110
3281.00,0.0110
3280.00,0.0110
3279.00,0.0110
3278.00,0.0109
3277.00,0.0109
3276.00,0.0108
3275.00,0.0108
3274.00,0.0107
3273.00,0.0106
3272.00,0.0106
3271.00,0.0105
3270.00,0.0105
3269.00,0.0106
3268.00,0.0106
3267.00,0.0106
3266.00,0.0107
3265.00,0.0106
3264.00,0.0106
3263.00,0.0106
3262.00,0.0106
3261.00,0.0106
3260.00,0.0106
3259.00,0.0105
3258.00,0.0105
3257.00,0.0105
3256.00,0.0104
3255.00,0.0104
3254.00,0.0104
3253.00,0.0104
3252.00,0.0104
3251.00,0.0104
3250.00,0.0103
3249.00,0.0103
3248.00,0.0102
3247.00,0.0102
3246.00,0.0102
3245.00,0.0102
3244.00,0.0102
3243.00,0.0101
3242.00,0.0101
3241.00,0.0101
3240.00,0.0101
3239.00,0.0101
3238.00,0.0101
3237.00,0.0101
3236.00,0.0100
3235.00,0.0099
3234.00,0.0099
3233.00,0.0099
3232.00,0.0099
3231.00,0.0099
3230.00,0.0099
3229.00,0.0099
3228.00,0.0099
3227.00,0.0099
3226.00,0.0098
3225.00,0.0098
3224.00,0.0098
3223.00,0.0098
3222.00,0.0097
3221.00,0.0097
3220.00,0.0097
3219.00,0.0096
3218.00,0.0096
3217.00,0.0096
3216.00,0.0096
3215.00,0.0096
3214.00,0.0095
3213.00,0.0095
3212.00,0.0095
3211.00,0.0094
3210.00,0.0094
3209.00,0.0093
3208.00,0.0093
3207.00,0.0093
3206.00,0.0093
3205.00,0.0092
3204.00,0.0092
3203.00,0.0092
3202.00,0.0092
3201.00,0.0091
3200.00,0.0091
3199.00,0.0091
3198.00,0.0091
3197.00,0.0091
3196.00,0.0090
3195.00,0.0090
3194.00,0.0090
3193.00,0.0090
3192.00,0.0090
3191.00,0.0090
3190.00,0.0090
3189.00,0.0089
3188.00,0.0089
3187.00,0.0089
3186.00,0.0089
3185.00,0.0088
3184.00,0.0088
3183.00,0.0088
3182.00,0.0088
3181.00,0.0088
3180.00,0.0088
3179.00,0.0088
3178.00,0.0088
3177.00,0.0088
3176.00,0.0088
3175.00,0.0088
3174.00,0.0087
3173.00,0.0087
3172.00,0.0087
3171.00,0.0087
3170.00,0.0087
3169.00,0.0086
3168.00,0.0086
3167.00,0.0086
3166.00,0.0086
3165.00,0.0085
3164.00,0.0085
3163.00,0.0085
3162.00,0.0085
3161.00,0.0084
3160.00,0.0084
3159.00,0.0084
3158.00,0.0083
3157.00,0.0083
3156.00,0.0083
3155.00,0.0083
3154.00,0.0082
3153.00,0.0082
3152.00,0.0082
3151.00,0.0082
3150.00,0.0082
3149.00,0.0082
3148.00,0.0081
3147.00,0.0081
3146.00,0.0081
3145.00,0.0081
3144.00,0.0081
3143.00,0.0081
3142.00,0.0080
3141.00,0.0080
3140.00,0.0080
3139.00,0.0080
3138.00,0.0079
3137.00,0.0079
3136.00,0.0079
3135.00,0.0079
3134.00,0.0079
3133.00,0.0079
3132.00,0.0079
3131.00,0.0079
3130.00,0.0079
3129.00,0.0079
3128.00,0.0079
3127.00,0.0078
3126.00,0.0078
3125.00,0.0078
3124.00,0.0078
3123.00,0.0078
3122.00,0.0078
3121.00,0.0077
3120.00,0.0077
3119.00,0.0077
3118.00,0.0077
3117.00,0.0076
3116.00,0.0076
3115.00,0.0076
3114.00,0.0076
3113.00,0.0076
3112.00,0.0076
3111.00,0.0076
3110.00,0.0075
3109.00,0.0075
3108.00,0.0075
3107.00,0.0075
3106.00,0.0075
3105.00,0.0075
3104.00,0.0075
3103.00,0.0075
3102.00,0.0075
3101.00,0.0074
3100.00,0.0074
3099.00,0.0073
3098.00,0.0073
3097.00,0.0073
3096.00,0.0073
3095.00,0.0073
3094.00,0.0073
3093.00,0.0073
3092.00,0.0073
3091.00,0.0073
3090.00,0.0073
3089.00,0.0074
3088.00,0.0073
3087.00,0.0073
3086.00,0.0073
3085.00,0.0073
3084.00,0.0073
3083.00,0.0073
3082.00,0.0073
3081.00,0.0073
3080.00,0.0073
3079.00,0.0073
3078.00,0.0073
3077.00,0.0073
3076.00,0.0073
3075.00,0.0073
3074.00,0.0073
3073.00,0.0073
3072.00,0.0073
3071.00,0.0072
3070.00,0.0072
3069.00,0.0072
3068.00,0.0071
3067.00,0.0071
3066.00,0.0071
3065.00,0.0071
3064.00,0.0071
3063.00,0.0071
3062.00,0.0070
3061.00,0.0070
3060.00,0.0070
3059.00,0.0070
3058.00,0.0070
3057.00,0.0070
3056.00,0.0070
3055.00,0.0069
3054.00,0.0069
3053.00,0.0069
3052.00,0.0069
3051.00,0.0069
3050.00,0.0069
3049.00,0.0069
3048.00,0.0069
3047.00,0.0068
3046.00,0.0068
3045.00,0.0068
3044.00,0.0068
3043.00,0.0068
3042.00,0.0068
3041.00,0.0068
3040.00,0.0068
3039.00,0.0068
3038.00,0.0068
3037.00,0.0068
3036.00,0.0068
3035.00,0.0068
3034.00,0.0068
3033.00,0.0068
3032.00,0.0067
3031.00,0.0067
3030.00,0.0067
3029.00,0.0067
3028.00,0.0067
3027.00,0.0067
3026.00,0.0067
3025.00,0.0067
3024.00,0.0067
3023.00,0.0067
3022.00,0.0067
3021.00,0.0067
3020.00,0.0067
3019.00,0.0067
3018.00,0.0067
3017.00,0.0067
3016.00,0.0068
3015.00,0.0068
3014.00,0.0069
3013.00,0.0069
3012.00,0.0070
3011.00,0.0071
3010.00,0.0072
3009.00,0.0073
3008.00,0.0074
3007.00,0.0075
3006.00,0.0076
3005.00,0.0078
3004.00,0.0079
3003.00,0.0081
3002.00,0.0082
3001.00,0.0084
3000.00,0.0086
2999.00,0.0088
2998.00,0.0091
2997.00,0.0093
2996.00,0.0096
2995.00,0.0099
2994.00,0.0102
2993.00,0.0105
2992.00,0.0108
2991.00,0.0111
2990.00,0.0115
2989.00,0.0118
2988.00,0.0121
2987.00,0.0124
2986.00,0.0127
2985.00,0.0130
2984.00,0.0132
2983.00,0.0134
2982.00,0.0135
2981.00,0.0137
2980.00,0.0140
2979.00,0.0143
2978.00,0.0145
2977.00,0.0148
2976.00,0.0150
2975.00,0.0152
2974.00,0.0154
2973.00,0.0155
2972.00,0.0157
2971.00,0.0159
2970.00,0.0160
2969.00,0.0162
2968.00,0.0164
2967.00,0.0166
2966.00,0.0168
2965.00,0.0171
2964.00,0.0173
2963.00,0.0175
2962.00,0.0176
2961.00,0.0178
2960.00,0.0179
2959.00,0.0181
2958.00,0.0182
2957.00,0.0183
2956.00,0.0185
2955.00,0.0186
2954.00,0.0186
2953.00,0.0187
2952.00,0.0187
2951.00,0.0187
2950.00,0.0187
2949.00,0.0186
2948.00,0.0186
2947.00,0.0186
2946.00,0.0185
2945.00,0.0185
2944.00,0.0186
2943.00,0.0186
2942.00,0.0186
2941.00,0.0186
2940.00,0.0187
2939.00,0.0187
2938.00,0.0188
2937.00,0.0189
2936.00,0.0190
2935.00,0.0191
2934.00,0.0191
2933.00,0.0192
2932.00,0.0193
2931.00,0.0194
2930.00,0.0195
2929.00,0.0196
2928.00,0.0197
2927.00,0.0197
2926.00,0.0198
2925.00,0.0198
2924.00,0.0197
2923.00,0.0196
2922.00,0.0194
2921.00,0.0193
2920.00,0.0190
2919.00,0.0187
2918.00,0.0184
2917.00,0.0181
2916.00,0.0178
2915.00,0.0176
2914.00,0.0174
2913.00,0.0172
2912.00,0.0170
2911.00,0.0168
2910.00,0.0166
2909.00,0.0164
2908.00,0.0162
2907.00,0.0160
2906.00,0.0158
2905.00,0.0157
2904.00,0.0155
2903.00,0.0154
2902.00,0.0153
2901.00,0.0153
2900.00,0.0152
2899.00,0.0152
2898.00,0.0151
2897.00,0.0151
2896.00,0.0151
2895.00,0.0151
2894.00,0.0151
2893.00,0.0151
2892.00,0.0151
2891.00,0.0151
2890.00,0.0151
2889.00,0.0151
2888.00,0.0151
2887.00,0.0151
2886.00,0.0151
2885.00,0.0151
2884.00,0.0151
2883.00,0.0151
2882.00,0.0151
2881.00,0.0151
2880.00,0.0152
2879.00,0.0152
2878.00,0.0153
2877.00,0.0153
2876.00,0.0154
2875.00,0.0154
2874.00,0.0154
2873.00,0.0155
2872.00,0.0155
2871.00,0.0156
2870.00,0.0156
2869.00,0.0155
2868.00,0.0155
2867.00,0.0154
2866.00,0.0154
2865.00,0.0153
2864.00,0.0153
2863.00,0.0152
2862.00,0.0152
2861.00,0.0151
2860.00,0.0150
2859.00,0.0150
2858.00,0.0149
2857.00,0.0148
2856.00,0.0146
2855.00,0.0144
2854.00,0.0141
2853.00,0.0138
2852.00,0.0134
2851.00,0.0130
2850.00,0.0126
2849.00,0.0122
2848.00,0.0118
2847.00,0.0116
2846.00,0.0113
2845.00,0.0111
2844.00,0.0109
2843.00,0.0106
2842.00,0.0103
2841.00,0.0100
2840.00,0.0098
2839.00,0.0095
2838.00,0.0093
2837.00,0.0092
2836.00,0.0090
2835.00,0.0089
2834.00,0.0087
2833.00,0.0085
2832.00,0.0084
2831.00,0.0082
2830.00,0.0081
2829.00,0.0080
2828.00,0.0078
2827.00,0.0077
2826.00,0.0075
2825.00,0.0074
2824.00,0.0072
2823.00,0.0071
2822.00,0.0070
2821.00,0.0069
2820.00,0.0068
2819.00,0.0067
2818.00,0.0066
2817.00,0.0065
2816.00,0.0065
2815.00,0.0064
2814.00,0.0063
2813.00,0.0063
2812.00,0.0062
2811.00,0.0062
2810.00,0.0061
2809.00,0.0061
2808.00,0.0060
2807.00,0.0060
2806.00,0.0059
2805.00,0.0059
2804.00,0.0059
2803.00,0.0058
2802.00,0.0058
2801.00,0.0058
2800.00,0.0057
2799.00,0.0057
2798.00,0.0056
2797.00,0.0056
2796.00,0.0056
2795.00,0.0056
2794.00,0.0055
2793.00,0.0055
2792.00,0.0055
2791.00,0.0054
2790.00,0.0054
2789.00,0.0054
2788.00,0.0054
2787.00,0.0054
2786.00,0.0054
2785.00,0.0053
2784.00,0.0053
2783.00,0.0053
2782.00,0.0052
2781.00,0.0052
2780.00,0.0052
2779.00,0.0052
2778.00,0.0052
2777.00,0.0052
2776.00,0.0052
2775.00,0.0051
2774.00,0.0051
2773.00,0.0051
2772.00,0.0051
2771.00,0.0051
2770.00,0.0050
2769.00,0.0050
2768.00,0.0050
2767.00,0.0050
2766.00,0.0050
2765.00,0.0050
2764.00,0.0050
2763.00,0.0050
2762.00,0.0050
2761.00,0.0050
2760.00,0.0050
2759.00,0.0050
2758.00,0.0050
2757.00,0.0050
