Created as New Dataset,Sample 974 By YargerLab Date Wednesday, July 30 2025
cm-1,A
4000.00,0.0007
3999.00,0.0007
3998.00,0.0007
3997.00,0.0007
3996.00,0.0007
3995.00,0.0007
3994.00,0.0007
3993.00,0.0007
3992.00,0.0007
3991.00,0.0007
3990.00,0.0007
3989.00,0.0007
3988.00,0.0007
3987.00,0.0008
3986.00,0.0008
3985.00,0.0008
3984.00,0.0008
3983.00,0.0007
3982.00,0.0007
3981.00,0.0007
3980.00,0.0007
3979.00,0.0007
3978.00,0.0007
3977.00,0.0007
3976.00,0.0007
3975.00,0.0007
3974.00,0.0007
3973.00,0.0007
3972.00,0.0006
3971.00,0.0006
3970.00,0.0006
3969.00,0.0006
3968.00,0.0007
3967.00,0.0007
3966.00,0.0007
3965.00,0.0007
3964.00,0.0007
3963.00,0.0007
3962.00,0.0007
3961.00,0.0007
3960.00,0.0007
3959.00,0.0007
3958.00,0.0007
3957.00,0.0007
3956.00,0.0007
3955.00,0.0007
3954.00,0.0007
3953.00,0.0007
3952.00,0.0007
3951.00,0.0007
3950.00,0.0007
3949.00,0.0007
3948.00,0.0007
3947.00,0.0007
3946.00,0.0007
3945.00,0.0007
3944.00,0.0007
3943.00,0.0007
3942.00,0.0007
3941.00,0.0007
3940.00,0.0007
3939.00,0.0007
3938.00,0.0007
3937.00,0.0007
3936.00,0.0007
3935.00,0.0007
3934.00,0.0007
3933.00,0.0007
3932.00,0.0006
3931.00,0.0006
3930.00,0.0006
3929.00,0.0006
3928.00,0.0007
3927.00,0.0007
3926.00,0.0007
3925.00,0.0007
3924.00,0.0007
3923.00,0.0007
3922.00,0.0007
3921.00,0.0007
3920.00,0.0007
3919.00,0.0007
3918.00,0.0007
3917.00,0.0007
3916.00,0.0007
3915.00,0.0007
3914.00,0.0007
3913.00,0.0007
3912.00,0.0007
3911.00,0.0007
3910.00,0.0007
3909.00,0.0006
3908.00,0.0006
3907.00,0.0006
3906.00,0.0007
3905.00,0.0007
3904.00,0.0007
3903.00,0.0007
3902.00,0.0007
3901.00,0.0006
3900.00,0.0006
3899.00,0.0006
3898.00,0.0006
3897.00,0.0006
3896.00,0.0006
3895.00,0.0006
3894.00,0.0006
3893.00,0.0006
3892.00,0.0006
3891.00,0.0007
3890.00,0.0007
3889.00,0.0007
3888.00,0.0007
3887.00,0.0006
3886.00,0.0006
3885.00,0.0006
3884.00,0.0007
3883.00,0.0006
3882.00,0.0006
3881.00,0.0006
3880.00,0.0006
3879.00,0.0007
3878.00,0.0007
3877.00,0.0007
3876.00,0.0007
3875.00,0.0007
3874.00,0.0007
3873.00,0.0007
3872.00,0.0007
3871.00,0.0007
3870.00,0.0007
3869.00,0.0007
3868.00,0.0007
3867.00,0.0006
3866.00,0.0006
3865.00,0.0006
3864.00,0.0006
3863.00,0.0006
3862.00,0.0006
3861.00,0.0007
3860.00,0.0007
3859.00,0.0007
3858.00,0.0007
3857.00,0.0006
3856.00,0.0006
3855.00,0.0006
3854.00,0.0006
3853.00,0.0006
3852.00,0.0006
3851.00,0.0006
3850.00,0.0006
3849.00,0.0006
3848.00,0.0006
3847.00,0.0007
3846.00,0.0007
3845.00,0.0007
3844.00,0.0007
3843.00,0.0007
3842.00,0.0007
3841.00,0.0007
3840.00,0.0007
3839.00,0.0007
3838.00,0.0007
3837.00,0.0007
3836.00,0.0006
3835.00,0.0006
3834.00,0.0006
3833.00,0.0006
3832.00,0.0006
3831.00,0.0006
3830.00,0.0007
3829.00,0.0007
3828.00,0.0007
3827.00,0.0007
3826.00,0.0007
3825.00,0.0007
3824.00,0.0007
3823.00,0.0007
3822.00,0.0007
3821.00,0.0007
3820.00,0.0007
3819.00,0.0007
3818.00,0.0006
3817.00,0.0006
3816.00,0.0006
3815.00,0.0007
3814.00,0.0007
3813.00,0.0007
3812.00,0.0006
3811.00,0.0006
3810.00,0.0006
3809.00,0.0006
3808.00,0.0006
3807.00,0.0007
3806.00,0.0007
3805.00,0.0007
3804.00,0.0006
3803.00,0.0006
3802.00,0.0006
3801.00,0.0006
3800.00,0.0006
3799.00,0.0006
3798.00,0.0006
3797.00,0.0006
3796.00,0.0006
3795.00,0.0007
3794.00,0.0007
3793.00,0.0007
3792.00,0.0007
3791.00,0.0007
3790.00,0.0008
3789.00,0.0008
3788.00,0.0008
3787.00,0.0008
3786.00,0.0007
3785.00,0.0007
3784.00,0.0007
3783.00,0.0007
3782.00,0.0007
3781.00,0.0007
3780.00,0.0007
3779.00,0.0007
3778.00,0.0007
3777.00,0.0007
3776.00,0.0007
3775.00,0.0007
3774.00,0.0007
3773.00,0.0007
3772.00,0.0007
3771.00,0.0007
3770.00,0.0008
3769.00,0.0008
3768.00,0.0007
3767.00,0.0007
3766.00,0.0007
3765.00,0.0007
3764.00,0.0007
3763.00,0.0007
3762.00,0.0007
3761.00,0.0007
3760.00,0.0007
3759.00,0.0007
3758.00,0.0007
3757.00,0.0007
3756.00,0.0007
3755.00,0.0007
3754.00,0.0007
3753.00,0.0007
3752.00,0.0007
3751.00,0.0007
3750.00,0.0007
3749.00,0.0007
3748.00,0.0007
3747.00,0.0006
3746.00,0.0006
3745.00,0.0006
3744.00,0.0006
3743.00,0.0007
3742.00,0.0007
3741.00,0.0007
3740.00,0.0007
3739.00,0.0007
3738.00,0.0007
3737.00,0.0007
3736.00,0.0007
3735.00,0.0006
3734.00,0.0006
3733.00,0.0006
3732.00,0.0006
3731.00,0.0007
3730.00,0.0007
3729.00,0.0007
3728.00,0.0007
3727.00,0.0007
3726.00,0.0007
3725.00,0.0007
3724.00,0.0007
3723.00,0.0007
3722.00,0.0007
3721.00,0.0007
3720.00,0.0007
3719.00,0.0006
3718.00,0.0006
3717.00,0.0006
3716.00,0.0006
3715.00,0.0007
3714.00,0.0007
3713.00,0.0007
3712.00,0.0007
3711.00,0.0007
3710.00,0.0007
3709.00,0.0007
3708.00,0.0007
3707.00,0.0006
3706.00,0.0007
3705.00,0.0007
3704.00,0.0006
3703.00,0.0006
3702.00,0.0006
3701.00,0.0006
3700.00,0.0006
3699.00,0.0006
3698.00,0.0006
3697.00,0.0006
3696.00,0.0006
3695.00,0.0006
3694.00,0.0006
3693.00,0.0007
3692.00,0.0007
3691.00,0.0007
3690.00,0.0007
3689.00,0.0007
3688.00,0.0007
3687.00,0.0007
3686.00,0.0007
3685.00,0.0007
3684.00,0.0007
3683.00,0.0007
3682.00,0.0007
3681.00,0.0007
3680.00,0.0008
3679.00,0.0008
3678.00,0.0008
3677.00,0.0008
3676.00,0.0008
3675.00,0.0008
3674.00,0.0009
3673.00,0.0008
3672.00,0.0008
3671.00,0.0008
3670.00,0.0008
3669.00,0.0008
3668.00,0.0008
3667.00,0.0008
3666.00,0.0008
3665.00,0.0008
3664.00,0.0009
3663.00,0.0009
3662.00,0.0010
3661.00,0.0010
3660.00,0.0010
3659.00,0.0010
3658.00,0.0009
3657.00,0.0009
3656.00,0.0010
3655.00,0.0010
3654.00,0.0010
3653.00,0.0011
3652.00,0.0011
3651.00,0.0011
3650.00,0.0012
3649.00,0.0012
3648.00,0.0011
3647.00,0.0011
3646.00,0.0011
3645.00,0.0011
3644.00,0.0012
3643.00,0.0012
3642.00,0.0013
3641.00,0.0013
3640.00,0.0013
3639.00,0.0014
3638.00,0.0014
3637.00,0.0014
3636.00,0.0014
3635.00,0.0014
3634.00,0.0015
3633.00,0.0015
3632.00,0.0015
3631.00,0.0014
3630.00,0.0014
3629.00,0.0014
3628.00,0.0015
3627.00,0.0015
3626.00,0.0015
3625.00,0.0015
3624.00,0.0016
3623.00,0.0016
3622.00,0.0016
3621.00,0.0016
3620.00,0.0016
3619.00,0.0016
3618.00,0.0016
3617.00,0.0017
3616.00,0.0017
3615.00,0.0017
3614.00,0.0018
3613.00,0.0018
3612.00,0.0019
3611.00,0.0019
3610.00,0.0019
3609.00,0.0020
3608.00,0.0020
3607.00,0.0021
3606.00,0.0021
3605.00,0.0021
3604.00,0.0022
3603.00,0.0022
3602.00,0.0022
3601.00,0.0022
3600.00,0.0023
3599.00,0.0023
3598.00,0.0023
3597.00,0.0023
3596.00,0.0024
3595.00,0.0024
3594.00,0.0024
3593.00,0.0025
3592.00,0.0025
3591.00,0.0025
3590.00,0.0026
3589.00,0.0026
3588.00,0.0027
3587.00,0.0027
3586.00,0.0028
3585.00,0.0028
3584.00,0.0028
3583.00,0.0029
3582.00,0.0029
3581.00,0.0030
3580.00,0.0030
3579.00,0.0030
3578.00,0.0031
3577.00,0.0031
3576.00,0.0031
3575.00,0.0032
3574.00,0.0032
3573.00,0.0033
3572.00,0.0033
3571.00,0.0034
3570.00,0.0035
3569.00,0.0035
3568.00,0.0035
3567.00,0.0036
3566.00,0.0036
3565.00,0.0036
3564.00,0.0037
3563.00,0.0037
3562.00,0.0037
3561.00,0.0037
3560.00,0.0038
3559.00,0.0038
3558.00,0.0038
3557.00,0.0039
3556.00,0.0039
3555.00,0.0040
3554.00,0.0040
3553.00,0.0041
3552.00,0.0041
3551.00,0.0042
3550.00,0.0042
3549.00,0.0042
3548.00,0.0043
3547.00,0.0043
3546.00,0.0043
3545.00,0.0044
3544.00,0.0044
3543.00,0.0044
3542.00,0.0044
3541.00,0.0044
3540.00,0.0045
3539.00,0.0045
3538.00,0.0045
3537.00,0.0046
3536.00,0.0046
3535.00,0.0047
3534.00,0.0047
3533.00,0.0047
3532.00,0.0047
3531.00,0.0047
3530.00,0.0047
3529.00,0.0048
3528.00,0.0048
3527.00,0.0048
3526.00,0.0049
3525.00,0.0049
3524.00,0.0049
3523.00,0.0050
3522.00,0.0050
3521.00,0.0050
3520.00,0.0050
3519.00,0.0050
3518.00,0.0050
3517.00,0.0051
3516.00,0.0051
3515.00,0.0051
3514.00,0.0052
3513.00,0.0052
3512.00,0.0052
3511.00,0.0052
3510.00,0.0052
3509.00,0.0052
3508.00,0.0053
3507.00,0.0053
3506.00,0.0053
3505.00,0.0053
3504.00,0.0054
3503.00,0.0054
3502.00,0.0054
3501.00,0.0055
3500.00,0.0055
3499.00,0.0055
3498.00,0.0055
3497.00,0.0055
3496.00,0.0055
3495.00,0.0055
3494.00,0.0056
3493.00,0.0056
3492.00,0.0056
3491.00,0.0056
3490.00,0.0057
3489.00,0.0057
3488.00,0.0057
3487.00,0.0057
3486.00,0.0057
3485.00,0.0057
3484.00,0.0057
3483.00,0.0057
3482.00,0.0057
3481.00,0.0057
3480.00,0.0058
3479.00,0.0058
3478.00,0.0059
3477.00,0.0059
3476.00,0.0059
3475.00,0.0059
3474.00,0.0059
3473.00,0.0059
3472.00,0.0059
3471.00,0.0060
3470.00,0.0060
3469.00,0.0060
3468.00,0.0060
3467.00,0.0060
3466.00,0.0060
3465.00,0.0060
3464.00,0.0060
3463.00,0.0060
3462.00,0.0061
3461.00,0.0061
3460.00,0.0061
3459.00,0.0061
3458.00,0.0061
3457.00,0.0061
3456.00,0.0061
3455.00,0.0061
3454.00,0.0061
3453.00,0.0061
3452.00,0.0061
3451.00,0.0062
3450.00,0.0062
3449.00,0.0062
3448.00,0.0062
3447.00,0.0062
3446.00,0.0062
3445.00,0.0062
3444.00,0.0062
3443.00,0.0061
3442.00,0.0061
3441.00,0.0062
3440.00,0.0062
3439.00,0.0062
3438.00,0.0062
3437.00,0.0062
3436.00,0.0062
3435.00,0.0062
3434.00,0.0062
3433.00,0.0062
3432.00,0.0062
3431.00,0.0062
3430.00,0.0062
3429.00,0.0062
3428.00,0.0061
3427.00,0.0061
3426.00,0.0061
3425.00,0.0061
3424.00,0.0061
3423.00,0.0061
3422.00,0.0061
3421.00,0.0061
3420.00,0.0061
3419.00,0.0061
3418.00,0.0061
3417.00,0.0061
3416.00,0.0061
3415.00,0.0061
3414.00,0.0061
3413.00,0.0061
3412.00,0.0061
3411.00,0.0061
3410.00,0.0061
3409.00,0.0060
3408.00,0.0060
3407.00,0.0060
3406.00,0.0060
3405.00,0.0060
3404.00,0.0060
3403.00,0.0060
3402.00,0.0060
3401.00,0.0060
3400.00,0.0059
3399.00,0.0059
3398.00,0.0060
3397.00,0.0060
3396.00,0.0059
3395.00,0.0059
3394.00,0.0059
3393.00,0.0059
3392.00,0.0059
3391.00,0.0059
3390.00,0.0059
3389.00,0.0059
3388.00,0.0059
3387.00,0.0060
3386.00,0.0060
3385.00,0.0060
3384.00,0.0060
3383.00,0.0059
3382.00,0.0059
3381.00,0.0059
3380.00,0.0059
3379.00,0.0059
3378.00,0.0058
3377.00,0.0058
3376.00,0.0058
3375.00,0.0058
3374.00,0.0058
3373.00,0.0058
3372.00,0.0058
3371.00,0.0058
3370.00,0.0057
3369.00,0.0057
3368.00,0.0057
3367.00,0.0057
3366.00,0.0057
3365.00,0.0057
3364.00,0.0057
3363.00,0.0057
3362.00,0.0057
3361.00,0.0057
3360.00,0.0057
3359.00,0.0057
3358.00,0.0057
3357.00,0.0057
3356.00,0.0057
3355.00,0.0057
3354.00,0.0057
3353.00,0.0057
3352.00,0.0056
3351.00,0.0056
3350.00,0.0056
3349.00,0.0056
3348.00,0.0056
3347.00,0.0056
3346.00,0.0056
3345.00,0.0056
3344.00,0.0056
3343.00,0.0056
3342.00,0.0056
3341.00,0.0056
3340.00,0.0056
3339.00,0.0056
3338.00,0.0055
3337.00,0.0055
3336.00,0.0056
3335.00,0.0056
3334.00,0.0056
3333.00,0.0056
3332.00,0.0056
3331.00,0.0056
3330.00,0.0056
3329.00,0.0055
3328.00,0.0055
3327.00,0.0055
3326.00,0.0055
3325.00,0.0055
3324.00,0.0055
3323.00,0.0055
3322.00,0.0055
3321.00,0.0055
3320.00,0.0055
3319.00,0.0055
3318.00,0.0055
3317.00,0.0055
3316.00,0.0055
3315.00,0.0054
3314.00,0.0054
3313.00,0.0054
3312.00,0.0054
3311.00,0.0054
3310.00,0.0054
3309.00,0.0053
3308.00,0.0053
3307.00,0.0053
3306.00,0.0052
3305.00,0.0053
3304.00,0.0053
3303.00,0.0053
3302.00,0.0053
3301.00,0.0054
3300.00,0.0053
3299.00,0.0053
3298.00,0.0053
3297.00,0.0053
3296.00,0.0052
3295.00,0.0053
3294.00,0.0053
3293.00,0.0053
3292.00,0.0053
3291.00,0.0053
3290.00,0.0053
3289.00,0.0053
3288.00,0.0053
3287.00,0.0053
3286.00,0.0053
3285.00,0.0053
3284.00,0.0053
3283.00,0.0053
3282.00,0.0053
3281.00,0.0053
3280.00,0.0053
3279.00,0.0053
3278.00,0.0052
3277.00,0.0052
3276.00,0.0052
3275.00,0.0052
3274.00,0.0052
3273.00,0.0052
3272.00,0.0052
3271.00,0.0051
3270.00,0.0051
3269.00,0.0051
3268.00,0.0051
3267.00,0.0051
3266.00,0.0051
3265.00,0.0051
3264.00,0.0051
3263.00,0.0051
3262.00,0.0051
3261.00,0.0051
3260.00,0.0051
3259.00,0.0051
3258.00,0.0051
3257.00,0.0051
3256.00,0.0051
3255.00,0.0051
3254.00,0.0051
3253.00,0.0051
3252.00,0.0051
3251.00,0.0051
3250.00,0.0050
3249.00,0.0050
3248.00,0.0049
3247.00,0.0049
3246.00,0.0049
3245.00,0.0049
3244.00,0.0049
3243.00,0.0049
3242.00,0.0049
3241.00,0.0049
3240.00,0.0049
3239.00,0.0049
3238.00,0.0049
3237.00,0.0049
3236.00,0.0049
3235.00,0.0048
3234.00,0.0048
3233.00,0.0048
3232.00,0.0048
3231.00,0.0048
3230.00,0.0048
3229.00,0.0048
3228.00,0.0048
3227.00,0.0048
3226.00,0.0048
3225.00,0.0048
3224.00,0.0048
3223.00,0.0048
3222.00,0.0047
3221.00,0.0047
3220.00,0.0047
3219.00,0.0047
3218.00,0.0047
3217.00,0.0047
3216.00,0.0047
3215.00,0.0047
3214.00,0.0047
3213.00,0.0047
3212.00,0.0046
3211.00,0.0046
3210.00,0.0046
3209.00,0.0046
3208.00,0.0046
3207.00,0.0045
3206.00,0.0045
3205.00,0.0045
3204.00,0.0045
3203.00,0.0045
3202.00,0.0045
3201.00,0.0045
3200.00,0.0045
3199.00,0.0045
3198.00,0.0045
3197.00,0.0045
3196.00,0.0045
3195.00,0.0045
3194.00,0.0045
3193.00,0.0044
3192.00,0.0044
3191.00,0.0044
3190.00,0.0044
3189.00,0.0044
3188.00,0.0044
3187.00,0.0044
3186.00,0.0044
3185.00,0.0044
3184.00,0.0044
3183.00,0.0043
3182.00,0.0043
3181.00,0.0043
3180.00,0.0043
3179.00,0.0042
3178.00,0.0042
3177.00,0.0042
3176.00,0.0042
3175.00,0.0042
3174.00,0.0042
3173.00,0.0043
3172.00,0.0043
3171.00,0.0043
3170.00,0.0043
3169.00,0.0043
3168.00,0.0042
3167.00,0.0042
3166.00,0.0042
3165.00,0.0042
3164.00,0.0042
3163.00,0.0042
3162.00,0.0042
3161.00,0.0042
3160.00,0.0041
3159.00,0.0041
3158.00,0.0041
3157.00,0.0041
3156.00,0.0041
3155.00,0.0041
3154.00,0.0041
3153.00,0.0041
3152.00,0.0041
3151.00,0.0040
3150.00,0.0040
3149.00,0.0040
3148.00,0.0040
3147.00,0.0040
3146.00,0.0040
3145.00,0.0040
3144.00,0.0040
3143.00,0.0040
3142.00,0.0040
3141.00,0.0040
3140.00,0.0040
3139.00,0.0040
3138.00,0.0040
3137.00,0.0040
3136.00,0.0040
3135.00,0.0039
3134.00,0.0039
3133.00,0.0039
3132.00,0.0039
3131.00,0.0038
3130.00,0.0038
3129.00,0.0038
3128.00,0.0039
3127.00,0.0039
3126.00,0.0039
3125.00,0.0039
3124.00,0.0038
3123.00,0.0038
3122.00,0.0038
3121.00,0.0038
3120.00,0.0038
3119.00,0.0038
3118.00,0.0038
3117.00,0.0038
3116.00,0.0038
3115.00,0.0038
3114.00,0.0038
3113.00,0.0038
3112.00,0.0038
3111.00,0.0038
3110.00,0.0037
3109.00,0.0037
3108.00,0.0037
3107.00,0.0037
3106.00,0.0037
3105.00,0.0037
3104.00,0.0037
3103.00,0.0037
3102.00,0.0036
3101.00,0.0036
3100.00,0.0036
3099.00,0.0036
3098.00,0.0036
3097.00,0.0036
3096.00,0.0036
3095.00,0.0036
3094.00,0.0036
3093.00,0.0036
3092.00,0.0036
3091.00,0.0036
3090.00,0.0036
3089.00,0.0036
3088.00,0.0036
3087.00,0.0036
3086.00,0.0036
3085.00,0.0036
3084.00,0.0036
3083.00,0.0036
3082.00,0.0036
3081.00,0.0036
3080.00,0.0036
3079.00,0.0036
3078.00,0.0036
3077.00,0.0036
3076.00,0.0036
3075.00,0.0036
3074.00,0.0036
3073.00,0.0036
3072.00,0.0036
3071.00,0.0036
3070.00,0.0036
3069.00,0.0035
3068.00,0.0035
3067.00,0.0035
3066.00,0.0034
3065.00,0.0034
3064.00,0.0034
3063.00,0.0034
3062.00,0.0034
3061.00,0.0034
3060.00,0.0034
3059.00,0.0034
3058.00,0.0034
3057.00,0.0034
3056.00,0.0034
3055.00,0.0034
3054.00,0.0034
3053.00,0.0034
3052.00,0.0034
3051.00,0.0034
3050.00,0.0034
3049.00,0.0034
3048.00,0.0034
3047.00,0.0034
3046.00,0.0034
3045.00,0.0034
3044.00,0.0033
3043.00,0.0033
3042.00,0.0033
3041.00,0.0033
3040.00,0.0033
3039.00,0.0033
3038.00,0.0033
3037.00,0.0033
3036.00,0.0033
3035.00,0.0033
3034.00,0.0033
3033.00,0.0033
3032.00,0.0033
3031.00,0.0033
3030.00,0.0033
3029.00,0.0033
3028.00,0.0033
3027.00,0.0033
3026.00,0.0033
3025.00,0.0033
3024.00,0.0033
3023.00,0.0033
3022.00,0.0033
3021.00,0.0034
3020.00,0.0034
3019.00,0.0034
3018.00,0.0034
3017.00,0.0035
3016.00,0.0035
3015.00,0.0035
3014.00,0.0035
3013.00,0.0035
3012.00,0.0036
3011.00,0.0036
3010.00,0.0037
3009.00,0.0038
3008.00,0.0038
3007.00,0.0039
3006.00,0.0040
3005.00,0.0041
3004.00,0.0042
3003.00,0.0043
3002.00,0.0045
3001.00,0.0046
3000.00,0.0047
2999.00,0.0049
2998.00,0.0051
2997.00,0.0052
2996.00,0.0054
2995.00,0.0056
2994.00,0.0058
2993.00,0.0059
2992.00,0.0061
2991.00,0.0064
2990.00,0.0066
2989.00,0.0068
2988.00,0.0070
2987.00,0.0072
2986.00,0.0074
2985.00,0.0076
2984.00,0.0078
2983.00,0.0079
2982.00,0.0081
2981.00,0.0082
2980.00,0.0083
2979.00,0.0085
2978.00,0.0086
2977.00,0.0087
2976.00,0.0088
2975.00,0.0088
2974.00,0.0089
2973.00,0.0090
2972.00,0.0091
2971.00,0.0092
2970.00,0.0093
2969.00,0.0094
2968.00,0.0095
2967.00,0.0097
2966.00,0.0098
2965.00,0.0099
2964.00,0.0101
2963.00,0.0102
2962.00,0.0103
2961.00,0.0104
2960.00,0.0106
2959.00,0.0107
2958.00,0.0108
2957.00,0.0109
2956.00,0.0110
2955.00,0.0111
2954.00,0.0112
2953.00,0.0112
2952.00,0.0113
2951.00,0.0113
2950.00,0.0113
2949.00,0.0113
2948.00,0.0112
2947.00,0.0112
2946.00,0.0112
2945.00,0.0112
2944.00,0.0111
2943.00,0.0111
2942.00,0.0111
2941.00,0.0110
2940.00,0.0110
2939.00,0.0111
2938.00,0.0111
2937.00,0.0111
2936.00,0.0112
2935.00,0.0113
2934.00,0.0114
2933.00,0.0114
2932.00,0.0115
2931.00,0.0116
2930.00,0.0117
2929.00,0.0118
2928.00,0.0118
2927.00,0.0118
2926.00,0.0119
2925.00,0.0118
2924.00,0.0118
2923.00,0.0118
2922.00,0.0117
2921.00,0.0116
2920.00,0.0116
2919.00,0.0115
2918.00,0.0114
2917.00,0.0113
2916.00,0.0112
2915.00,0.0110
2914.00,0.0108
2913.00,0.0107
2912.00,0.0105
2911.00,0.0103
2910.00,0.0101
2909.00,0.0099
2908.00,0.0098
2907.00,0.0096
2906.00,0.0095
2905.00,0.0094
2904.00,0.0093
2903.00,0.0092
2902.00,0.0092
2901.00,0.0091
2900.00,0.0091
2899.00,0.0091
2898.00,0.0091
2897.00,0.0091
2896.00,0.0091
2895.00,0.0091
2894.00,0.0091
2893.00,0.0091
2892.00,0.0091
2891.00,0.0091
2890.00,0.0090
2889.00,0.0090
2888.00,0.0090
2887.00,0.0090
2886.00,0.0090
2885.00,0.0089
2884.00,0.0089
2883.00,0.0089
2882.00,0.0089
2881.00,0.0090
2880.00,0.0090
2879.00,0.0090
2878.00,0.0090
2877.00,0.0090
2876.00,0.0090
2875.00,0.0091
2874.00,0.0091
2873.00,0.0091
2872.00,0.0091
2871.00,0.0091
2870.00,0.0091
2869.00,0.0091
2868.00,0.0090
2867.00,0.0090
2866.00,0.0089
2865.00,0.0089
2864.00,0.0088
2863.00,0.0088
2862.00,0.0088
2861.00,0.0088
2860.00,0.0087
2859.00,0.0087
2858.00,0.0086
2857.00,0.0085
2856.00,0.0084
2855.00,0.0083
2854.00,0.0081
2853.00,0.0079
2852.00,0.0077
2851.00,0.0075
2850.00,0.0073
2849.00,0.0070
2848.00,0.0068
2847.00,0.0066
2846.00,0.0064
2845.00,0.0063
2844.00,0.0061
2843.00,0.0059
2842.00,0.0057
2841.00,0.0056
2840.00,0.0055
2839.00,0.0053
2838.00,0.0052
2837.00,0.0051
2836.00,0.0049
2835.00,0.0048
2834.00,0.0047
2833.00,0.0046
2832.00,0.0045
2831.00,0.0045
2830.00,0.0044
2829.00,0.0043
2828.00,0.0042
2827.00,0.0041
2826.00,0.0040
2825.00,0.0039
2824.00,0.0039
2823.00,0.0038
2822.00,0.0037
2821.00,0.0036
2820.00,0.0036
2819.00,0.0035
2818.00,0.0035
2817.00,0.0034
2816.00,0.0034
2815.00,0.0034
2814.00,0.0033
2813.00,0.0033
2812.00,0.0032
2811.00,0.0031
2810.00,0.0031
2809.00,0.0030
2808.00,0.0030
2807.00,0.0030
2806.00,0.0029
2805.00,0.0029
2804.00,0.0029
2803.00,0.0028
2802.00,0.0028
2801.00,0.0027
2800.00,0.0027
2799.00,0.0027
2798.00,0.0027
2797.00,0.0026
2796.00,0.0026
2795.00,0.0026
2794.00,0.0026
2793.00,0.0026
2792.00,0.0025
2791.00,0.0025
2790.00,0.0025
2789.00,0.0024
2788.00,0.0024
2787.00,0.0024
2786.00,0.0024
2785.00,0.0024
2784.00,0.0024
2783.00,0.0024
2782.00,0.0024
2781.00,0.0024
2780.00,0.0023
2779.00,0.0023
2778.00,0.0023
2777.00,0.0023
2776.00,0.0022
2775.00,0.0022
2774.00,0.0022
2773.00,0.0022
2772.00,0.0022
2771.00,0.0022
2770.00,0.0022
2769.00,0.0022
2768.00,0.0022
2767.00,0.0022
2766.00,0.0021
2765.00,0.0021
2764.00,0.0021
2763.00,0.0021
2762.00,0.0021
2761.00,0.0021
2760.00,0.0021
2759.00,0.0021
2758.00,0.0021
2757.00,0.0021
