Created as New Dataset,Sample 002 By YargerLab Date Wednesday, August 06 2025
cm-1,A
4000.00,0.0021
3999.00,0.0021
3998.00,0.0021
3997.00,0.0021
3996.00,0.0021
3995.00,0.0021
3994.00,0.0021
3993.00,0.0021
3992.00,0.0021
3991.00,0.0021
3990.00,0.0021
3989.00,0.0021
3988.00,0.0021
3987.00,0.0022
3986.00,0.0022
3985.00,0.0022
3984.00,0.0022
3983.00,0.0022
3982.00,0.0021
3981.00,0.0021
3980.00,0.0021
3979.00,0.0021
3978.00,0.0021
3977.00,0.0021
3976.00,0.0021
3975.00,0.0022
3974.00,0.0022
3973.00,0.0022
3972.00,0.0022
3971.00,0.0022
3970.00,0.0022
3969.00,0.0022
3968.00,0.0022
3967.00,0.0022
3966.00,0.0021
3965.00,0.0021
3964.00,0.0021
3963.00,0.0021
3962.00,0.0021
3961.00,0.0022
3960.00,0.0022
3959.00,0.0022
3958.00,0.0022
3957.00,0.0022
3956.00,0.0022
3955.00,0.0022
3954.00,0.0022
3953.00,0.0021
3952.00,0.0021
3951.00,0.0021
3950.00,0.0021
3949.00,0.0021
3948.00,0.0021
3947.00,0.0022
3946.00,0.0022
3945.00,0.0022
3944.00,0.0022
3943.00,0.0022
3942.00,0.0022
3941.00,0.0022
3940.00,0.0022
3939.00,0.0022
3938.00,0.0021
3937.00,0.0021
3936.00,0.0021
3935.00,0.0021
3934.00,0.0022
3933.00,0.0022
3932.00,0.0022
3931.00,0.0022
3930.00,0.0022
3929.00,0.0022
3928.00,0.0022
3927.00,0.0022
3926.00,0.0022
3925.00,0.0022
3924.00,0.0022
3923.00,0.0022
3922.00,0.0021
3921.00,0.0021
3920.00,0.0021
3919.00,0.0022
3918.00,0.0022
3917.00,0.0022
3916.00,0.0022
3915.00,0.0022
3914.00,0.0022
3913.00,0.0022
3912.00,0.0022
3911.00,0.0022
3910.00,0.0022
3909.00,0.0022
3908.00,0.0022
3907.00,0.0022
3906.00,0.0021
3905.00,0.0021
3904.00,0.0021
3903.00,0.0021
3902.00,0.0021
3901.00,0.0021
3900.00,0.0021
3899.00,0.0021
3898.00,0.0021
3897.00,0.0021
3896.00,0.0021
3895.00,0.0021
3894.00,0.0021
3893.00,0.0022
3892.00,0.0022
3891.00,0.0021
3890.00,0.0021
3889.00,0.0021
3888.00,0.0021
3887.00,0.0021
3886.00,0.0021
3885.00,0.0020
3884.00,0.0020
3883.00,0.0020
3882.00,0.0021
3881.00,0.0021
3880.00,0.0021
3879.00,0.0021
3878.00,0.0021
3877.00,0.0021
3876.00,0.0021
3875.00,0.0021
3874.00,0.0020
3873.00,0.0020
3872.00,0.0020
3871.00,0.0020
3870.00,0.0020
3869.00,0.0020
3868.00,0.0020
3867.00,0.0020
3866.00,0.0020
3865.00,0.0020
3864.00,0.0020
3863.00,0.0020
3862.00,0.0021
3861.00,0.0021
3860.00,0.0021
3859.00,0.0020
3858.00,0.0020
3857.00,0.0020
3856.00,0.0020
3855.00,0.0020
3854.00,0.0020
3853.00,0.0020
3852.00,0.0020
3851.00,0.0021
3850.00,0.0021
3849.00,0.0021
3848.00,0.0021
3847.00,0.0021
3846.00,0.0021
3845.00,0.0021
3844.00,0.0021
3843.00,0.0021
3842.00,0.0021
3841.00,0.0021
3840.00,0.0021
3839.00,0.0021
3838.00,0.0021
3837.00,0.0020
3836.00,0.0020
3835.00,0.0020
3834.00,0.0021
3833.00,0.0021
3832.00,0.0021
3831.00,0.0021
3830.00,0.0021
3829.00,0.0021
3828.00,0.0021
3827.00,0.0020
3826.00,0.0020
3825.00,0.0020
3824.00,0.0020
3823.00,0.0020
3822.00,0.0020
3821.00,0.0020
3820.00,0.0020
3819.00,0.0020
3818.00,0.0020
3817.00,0.0020
3816.00,0.0021
3815.00,0.0021
3814.00,0.0021
3813.00,0.0021
3812.00,0.0021
3811.00,0.0021
3810.00,0.0021
3809.00,0.0021
3808.00,0.0021
3807.00,0.0020
3806.00,0.0020
3805.00,0.0020
3804.00,0.0020
3803.00,0.0021
3802.00,0.0021
3801.00,0.0021
3800.00,0.0020
3799.00,0.0021
3798.00,0.0021
3797.00,0.0021
3796.00,0.0021
3795.00,0.0021
3794.00,0.0021
3793.00,0.0021
3792.00,0.0021
3791.00,0.0021
3790.00,0.0021
3789.00,0.0021
3788.00,0.0021
3787.00,0.0021
3786.00,0.0021
3785.00,0.0021
3784.00,0.0021
3783.00,0.0021
3782.00,0.0021
3781.00,0.0021
3780.00,0.0021
3779.00,0.0021
3778.00,0.0021
3777.00,0.0021
3776.00,0.0021
3775.00,0.0021
3774.00,0.0021
3773.00,0.0021
3772.00,0.0021
3771.00,0.0021
3770.00,0.0021
3769.00,0.0021
3768.00,0.0021
3767.00,0.0021
3766.00,0.0021
3765.00,0.0021
3764.00,0.0021
3763.00,0.0021
3762.00,0.0021
3761.00,0.0021
3760.00,0.0021
3759.00,0.0021
3758.00,0.0021
3757.00,0.0021
3756.00,0.0021
3755.00,0.0021
3754.00,0.0021
3753.00,0.0020
3752.00,0.0020
3751.00,0.0020
3750.00,0.0020
3749.00,0.0020
3748.00,0.0020
3747.00,0.0020
3746.00,0.0020
3745.00,0.0020
3744.00,0.0019
3743.00,0.0019
3742.00,0.0020
3741.00,0.0020
3740.00,0.0020
3739.00,0.0020
3738.00,0.0020
3737.00,0.0020
3736.00,0.0020
3735.00,0.0019
3734.00,0.0019
3733.00,0.0019
3732.00,0.0018
3731.00,0.0018
3730.00,0.0018
3729.00,0.0018
3728.00,0.0019
3727.00,0.0019
3726.00,0.0019
3725.00,0.0019
3724.00,0.0019
3723.00,0.0019
3722.00,0.0019
3721.00,0.0019
3720.00,0.0019
3719.00,0.0019
3718.00,0.0019
3717.00,0.0019
3716.00,0.0019
3715.00,0.0019
3714.00,0.0019
3713.00,0.0019
3712.00,0.0019
3711.00,0.0019
3710.00,0.0019
3709.00,0.0019
3708.00,0.0019
3707.00,0.0019
3706.00,0.0019
3705.00,0.0019
3704.00,0.0019
3703.00,0.0019
3702.00,0.0019
3701.00,0.0019
3700.00,0.0019
3699.00,0.0019
3698.00,0.0019
3697.00,0.0019
3696.00,0.0018
3695.00,0.0018
3694.00,0.0018
3693.00,0.0018
3692.00,0.0019
3691.00,0.0019
3690.00,0.0019
3689.00,0.0019
3688.00,0.0019
3687.00,0.0019
3686.00,0.0019
3685.00,0.0019
3684.00,0.0019
3683.00,0.0019
3682.00,0.0019
3681.00,0.0018
3680.00,0.0018
3679.00,0.0018
3678.00,0.0018
3677.00,0.0018
3676.00,0.0017
3675.00,0.0017
3674.00,0.0016
3673.00,0.0017
3672.00,0.0017
3671.00,0.0017
3670.00,0.0017
3669.00,0.0017
3668.00,0.0018
3667.00,0.0018
3666.00,0.0018
3665.00,0.0018
3664.00,0.0018
3663.00,0.0019
3662.00,0.0019
3661.00,0.0019
3660.00,0.0019
3659.00,0.0019
3658.00,0.0019
3657.00,0.0018
3656.00,0.0018
3655.00,0.0018
3654.00,0.0018
3653.00,0.0018
3652.00,0.0018
3651.00,0.0018
3650.00,0.0017
3649.00,0.0017
3648.00,0.0017
3647.00,0.0018
3646.00,0.0018
3645.00,0.0018
3644.00,0.0018
3643.00,0.0018
3642.00,0.0018
3641.00,0.0018
3640.00,0.0018
3639.00,0.0018
3638.00,0.0018
3637.00,0.0018
3636.00,0.0018
3635.00,0.0018
3634.00,0.0018
3633.00,0.0018
3632.00,0.0018
3631.00,0.0018
3630.00,0.0018
3629.00,0.0018
3628.00,0.0018
3627.00,0.0018
3626.00,0.0018
3625.00,0.0018
3624.00,0.0018
3623.00,0.0018
3622.00,0.0018
3621.00,0.0018
3620.00,0.0018
3619.00,0.0017
3618.00,0.0017
3617.00,0.0017
3616.00,0.0017
3615.00,0.0017
3614.00,0.0017
3613.00,0.0018
3612.00,0.0018
3611.00,0.0018
3610.00,0.0018
3609.00,0.0018
3608.00,0.0018
3607.00,0.0017
3606.00,0.0017
3605.00,0.0017
3604.00,0.0017
3603.00,0.0017
3602.00,0.0017
3601.00,0.0017
3600.00,0.0017
3599.00,0.0017
3598.00,0.0017
3597.00,0.0018
3596.00,0.0018
3595.00,0.0018
3594.00,0.0018
3593.00,0.0018
3592.00,0.0018
3591.00,0.0018
3590.00,0.0018
3589.00,0.0018
3588.00,0.0017
3587.00,0.0017
3586.00,0.0017
3585.00,0.0017
3584.00,0.0017
3583.00,0.0018
3582.00,0.0018
3581.00,0.0018
3580.00,0.0018
3579.00,0.0018
3578.00,0.0018
3577.00,0.0018
3576.00,0.0018
3575.00,0.0018
3574.00,0.0018
3573.00,0.0018
3572.00,0.0018
3571.00,0.0018
3570.00,0.0018
3569.00,0.0018
3568.00,0.0018
3567.00,0.0018
3566.00,0.0018
3565.00,0.0018
3564.00,0.0018
3563.00,0.0019
3562.00,0.0019
3561.00,0.0019
3560.00,0.0019
3559.00,0.0020
3558.00,0.0019
3557.00,0.0019
3556.00,0.0019
3555.00,0.0019
3554.00,0.0019
3553.00,0.0020
3552.00,0.0020
3551.00,0.0020
3550.00,0.0020
3549.00,0.0020
3548.00,0.0021
3547.00,0.0021
3546.00,0.0021
3545.00,0.0021
3544.00,0.0021
3543.00,0.0021
3542.00,0.0021
3541.00,0.0021
3540.00,0.0022
3539.00,0.0022
3538.00,0.0022
3537.00,0.0022
3536.00,0.0022
3535.00,0.0022
3534.00,0.0022
3533.00,0.0023
3532.00,0.0023
3531.00,0.0023
3530.00,0.0023
3529.00,0.0023
3528.00,0.0023
3527.00,0.0023
3526.00,0.0024
3525.00,0.0024
3524.00,0.0024
3523.00,0.0024
3522.00,0.0024
3521.00,0.0024
3520.00,0.0024
3519.00,0.0024
3518.00,0.0025
3517.00,0.0025
3516.00,0.0024
3515.00,0.0024
3514.00,0.0025
3513.00,0.0025
3512.00,0.0025
3511.00,0.0026
3510.00,0.0026
3509.00,0.0026
3508.00,0.0026
3507.00,0.0026
3506.00,0.0027
3505.00,0.0027
3504.00,0.0027
3503.00,0.0027
3502.00,0.0027
3501.00,0.0027
3500.00,0.0028
3499.00,0.0028
3498.00,0.0028
3497.00,0.0028
3496.00,0.0029
3495.00,0.0029
3494.00,0.0029
3493.00,0.0029
3492.00,0.0029
3491.00,0.0029
3490.00,0.0029
3489.00,0.0030
3488.00,0.0030
3487.00,0.0030
3486.00,0.0030
3485.00,0.0031
3484.00,0.0031
3483.00,0.0031
3482.00,0.0032
3481.00,0.0032
3480.00,0.0033
3479.00,0.0033
3478.00,0.0033
3477.00,0.0034
3476.00,0.0034
3475.00,0.0034
3474.00,0.0034
3473.00,0.0035
3472.00,0.0035
3471.00,0.0036
3470.00,0.0036
3469.00,0.0037
3468.00,0.0037
3467.00,0.0038
3466.00,0.0038
3465.00,0.0039
3464.00,0.0039
3463.00,0.0040
3462.00,0.0040
3461.00,0.0040
3460.00,0.0040
3459.00,0.0041
3458.00,0.0041
3457.00,0.0042
3456.00,0.0043
3455.00,0.0043
3454.00,0.0044
3453.00,0.0045
3452.00,0.0045
3451.00,0.0046
3450.00,0.0046
3449.00,0.0046
3448.00,0.0047
3447.00,0.0047
3446.00,0.0048
3445.00,0.0049
3444.00,0.0049
3443.00,0.0050
3442.00,0.0051
3441.00,0.0051
3440.00,0.0052
3439.00,0.0053
3438.00,0.0054
3437.00,0.0054
3436.00,0.0055
3435.00,0.0055
3434.00,0.0056
3433.00,0.0057
3432.00,0.0058
3431.00,0.0058
3430.00,0.0059
3429.00,0.0060
3428.00,0.0061
3427.00,0.0062
3426.00,0.0063
3425.00,0.0064
3424.00,0.0065
3423.00,0.0066
3422.00,0.0067
3421.00,0.0068
3420.00,0.0069
3419.00,0.0070
3418.00,0.0071
3417.00,0.0071
3416.00,0.0072
3415.00,0.0073
3414.00,0.0074
3413.00,0.0074
3412.00,0.0075
3411.00,0.0077
3410.00,0.0078
3409.00,0.0079
3408.00,0.0079
3407.00,0.0080
3406.00,0.0081
3405.00,0.0081
3404.00,0.0082
3403.00,0.0082
3402.00,0.0082
3401.00,0.0083
3400.00,0.0083
3399.00,0.0083
3398.00,0.0083
3397.00,0.0083
3396.00,0.0083
3395.00,0.0083
3394.00,0.0083
3393.00,0.0083
3392.00,0.0083
3391.00,0.0083
3390.00,0.0082
3389.00,0.0082
3388.00,0.0082
3387.00,0.0082
3386.00,0.0081
3385.00,0.0081
3384.00,0.0080
3383.00,0.0080
3382.00,0.0079
3381.00,0.0078
3380.00,0.0077
3379.00,0.0077
3378.00,0.0076
3377.00,0.0075
3376.00,0.0075
3375.00,0.0074
3374.00,0.0074
3373.00,0.0073
3372.00,0.0072
3371.00,0.0072
3370.00,0.0071
3369.00,0.0071
3368.00,0.0071
3367.00,0.0070
3366.00,0.0070
3365.00,0.0070
3364.00,0.0069
3363.00,0.0069
3362.00,0.0068
3361.00,0.0068
3360.00,0.0067
3359.00,0.0067
3358.00,0.0067
3357.00,0.0067
3356.00,0.0066
3355.00,0.0066
3354.00,0.0065
3353.00,0.0065
3352.00,0.0064
3351.00,0.0064
3350.00,0.0064
3349.00,0.0064
3348.00,0.0064
3347.00,0.0063
3346.00,0.0063
3345.00,0.0063
3344.00,0.0062
3343.00,0.0062
3342.00,0.0062
3341.00,0.0062
3340.00,0.0061
3339.00,0.0061
3338.00,0.0061
3337.00,0.0061
3336.00,0.0062
3335.00,0.0062
3334.00,0.0062
3333.00,0.0062
3332.00,0.0062
3331.00,0.0062
3330.00,0.0062
3329.00,0.0062
3328.00,0.0062
3327.00,0.0062
3326.00,0.0061
3325.00,0.0061
3324.00,0.0061
3323.00,0.0061
3322.00,0.0062
3321.00,0.0062
3320.00,0.0062
3319.00,0.0062
3318.00,0.0062
3317.00,0.0062
3316.00,0.0062
3315.00,0.0062
3314.00,0.0062
3313.00,0.0062
3312.00,0.0063
3311.00,0.0063
3310.00,0.0063
3309.00,0.0063
3308.00,0.0063
3307.00,0.0064
3306.00,0.0064
3305.00,0.0064
3304.00,0.0065
3303.00,0.0065
3302.00,0.0065
3301.00,0.0065
3300.00,0.0066
3299.00,0.0066
3298.00,0.0066
3297.00,0.0066
3296.00,0.0067
3295.00,0.0067
3294.00,0.0067
3293.00,0.0068
3292.00,0.0068
3291.00,0.0068
3290.00,0.0069
3289.00,0.0069
3288.00,0.0069
3287.00,0.0070
3286.00,0.0070
3285.00,0.0071
3284.00,0.0071
3283.00,0.0072
3282.00,0.0072
3281.00,0.0072
3280.00,0.0073
3279.00,0.0073
3278.00,0.0073
3277.00,0.0074
3276.00,0.0074
3275.00,0.0074
3274.00,0.0074
3273.00,0.0075
3272.00,0.0075
3271.00,0.0075
3270.00,0.0076
3269.00,0.0077
3268.00,0.0077
3267.00,0.0078
3266.00,0.0078
3265.00,0.0079
3264.00,0.0079
3263.00,0.0080
3262.00,0.0080
3261.00,0.0080
3260.00,0.0081
3259.00,0.0081
3258.00,0.0081
3257.00,0.0082
3256.00,0.0082
3255.00,0.0083
3254.00,0.0083
3253.00,0.0084
3252.00,0.0084
3251.00,0.0084
3250.00,0.0085
3249.00,0.0085
3248.00,0.0085
3247.00,0.0085
3246.00,0.0086
3245.00,0.0086
3244.00,0.0087
3243.00,0.0087
3242.00,0.0088
3241.00,0.0088
3240.00,0.0088
3239.00,0.0089
3238.00,0.0089
3237.00,0.0089
3236.00,0.0089
3235.00,0.0089
3234.00,0.0089
3233.00,0.0089
3232.00,0.0089
3231.00,0.0089
3230.00,0.0089
3229.00,0.0090
3228.00,0.0090
3227.00,0.0090
3226.00,0.0090
3225.00,0.0090
3224.00,0.0090
3223.00,0.0090
3222.00,0.0090
3221.00,0.0090
3220.00,0.0090
3219.00,0.0090
3218.00,0.0089
3217.00,0.0089
3216.00,0.0088
3215.00,0.0088
3214.00,0.0088
3213.00,0.0088
3212.00,0.0088
3211.00,0.0088
3210.00,0.0087
3209.00,0.0087
3208.00,0.0087
3207.00,0.0086
3206.00,0.0086
3205.00,0.0086
3204.00,0.0085
3203.00,0.0085
3202.00,0.0084
3201.00,0.0084
3200.00,0.0084
3199.00,0.0083
3198.00,0.0083
3197.00,0.0082
3196.00,0.0082
3195.00,0.0081
3194.00,0.0081
3193.00,0.0080
3192.00,0.0080
3191.00,0.0079
3190.00,0.0078
3189.00,0.0078
3188.00,0.0077
3187.00,0.0077
3186.00,0.0077
3185.00,0.0077
3184.00,0.0076
3183.00,0.0075
3182.00,0.0075
3181.00,0.0074
3180.00,0.0074
3179.00,0.0074
3178.00,0.0073
3177.00,0.0073
3176.00,0.0073
3175.00,0.0072
3174.00,0.0072
3173.00,0.0071
3172.00,0.0071
3171.00,0.0070
3170.00,0.0070
3169.00,0.0069
3168.00,0.0068
3167.00,0.0067
3166.00,0.0067
3165.00,0.0066
3164.00,0.0066
3163.00,0.0065
3162.00,0.0064
3161.00,0.0064
3160.00,0.0063
3159.00,0.0062
3158.00,0.0062
3157.00,0.0061
3156.00,0.0060
3155.00,0.0060
3154.00,0.0059
3153.00,0.0058
3152.00,0.0058
3151.00,0.0057
3150.00,0.0057
3149.00,0.0057
3148.00,0.0057
3147.00,0.0056
3146.00,0.0056
3145.00,0.0055
3144.00,0.0054
3143.00,0.0054
3142.00,0.0053
3141.00,0.0053
3140.00,0.0053
3139.00,0.0052
3138.00,0.0052
3137.00,0.0052
3136.00,0.0051
3135.00,0.0051
3134.00,0.0051
3133.00,0.0050
3132.00,0.0050
3131.00,0.0049
3130.00,0.0049
3129.00,0.0048
3128.00,0.0048
3127.00,0.0048
3126.00,0.0048
3125.00,0.0048
3124.00,0.0047
3123.00,0.0047
3122.00,0.0047
3121.00,0.0047
3120.00,0.0047
3119.00,0.0046
3118.00,0.0046
3117.00,0.0045
3116.00,0.0045
3115.00,0.0044
3114.00,0.0044
3113.00,0.0043
3112.00,0.0043
3111.00,0.0043
3110.00,0.0042
3109.00,0.0042
3108.00,0.0042
3107.00,0.0042
3106.00,0.0041
3105.00,0.0041
3104.00,0.0041
3103.00,0.0041
3102.00,0.0041
3101.00,0.0040
3100.00,0.0040
3099.00,0.0040
3098.00,0.0040
3097.00,0.0040
3096.00,0.0040
3095.00,0.0040
3094.00,0.0039
3093.00,0.0039
3092.00,0.0040
3091.00,0.0040
3090.00,0.0040
3089.00,0.0040
3088.00,0.0040
3087.00,0.0041
3086.00,0.0041
3085.00,0.0040
3084.00,0.0040
3083.00,0.0040
3082.00,0.0040
3081.00,0.0040
3080.00,0.0040
3079.00,0.0041
3078.00,0.0040
3077.00,0.0040
3076.00,0.0040
3075.00,0.0039
3074.00,0.0039
3073.00,0.0039
3072.00,0.0039
3071.00,0.0039
3070.00,0.0039
3069.00,0.0039
3068.00,0.0039
3067.00,0.0039
3066.00,0.0039
3065.00,0.0038
3064.00,0.0038
3063.00,0.0038
3062.00,0.0038
3061.00,0.0038
3060.00,0.0038
3059.00,0.0039
3058.00,0.0039
3057.00,0.0039
3056.00,0.0039
3055.00,0.0039
3054.00,0.0039
3053.00,0.0039
3052.00,0.0039
3051.00,0.0039
3050.00,0.0039
3049.00,0.0039
3048.00,0.0039
3047.00,0.0039
3046.00,0.0039
3045.00,0.0039
3044.00,0.0039
3043.00,0.0039
3042.00,0.0039
3041.00,0.0039
3040.00,0.0039
3039.00,0.0040
3038.00,0.0040
3037.00,0.0040
3036.00,0.0041
3035.00,0.0041
3034.00,0.0041
3033.00,0.0041
3032.00,0.0041
3031.00,0.0041
3030.00,0.0041
3029.00,0.0041
3028.00,0.0040
3027.00,0.0040
3026.00,0.0040
3025.00,0.0039
3024.00,0.0039
3023.00,0.0038
3022.00,0.0038
3021.00,0.0038
3020.00,0.0037
3019.00,0.0037
3018.00,0.0036
3017.00,0.0036
3016.00,0.0036
3015.00,0.0036
3014.00,0.0036
3013.00,0.0036
3012.00,0.0036
3011.00,0.0036
3010.00,0.0036
3009.00,0.0037
3008.00,0.0037
3007.00,0.0038
3006.00,0.0039
3005.00,0.0039
3004.00,0.0040
3003.00,0.0041
3002.00,0.0042
3001.00,0.0043
3000.00,0.0044
2999.00,0.0046
2998.00,0.0047
2997.00,0.0049
2996.00,0.0051
2995.00,0.0053
2994.00,0.0054
2993.00,0.0055
2992.00,0.0056
2991.00,0.0057
2990.00,0.0058
2989.00,0.0059
2988.00,0.0060
2987.00,0.0061
2986.00,0.0063
2985.00,0.0065
2984.00,0.0067
2983.00,0.0070
2982.00,0.0074
2981.00,0.0077
2980.00,0.0080
2979.00,0.0082
2978.00,0.0084
2977.00,0.0086
2976.00,0.0087
2975.00,0.0089
2974.00,0.0092
2973.00,0.0096
2972.00,0.0100
2971.00,0.0104
2970.00,0.0107
2969.00,0.0110
2968.00,0.0112
2967.00,0.0114
2966.00,0.0116
2965.00,0.0118
2964.00,0.0120
2963.00,0.0123
2962.00,0.0125
2961.00,0.0126
2960.00,0.0127
2959.00,0.0126
2958.00,0.0124
2957.00,0.0121
2956.00,0.0118
2955.00,0.0114
2954.00,0.0110
2953.00,0.0107
2952.00,0.0104
2951.00,0.0101
2950.00,0.0099
2949.00,0.0098
2948.00,0.0098
2947.00,0.0099
2946.00,0.0100
2945.00,0.0102
2944.00,0.0104
2943.00,0.0107
2942.00,0.0110
2941.00,0.0113
2940.00,0.0118
2939.00,0.0123
2938.00,0.0128
2937.00,0.0135
2936.00,0.0142
2935.00,0.0150
2934.00,0.0159
2933.00,0.0167
2932.00,0.0176
2931.00,0.0185
2930.00,0.0192
2929.00,0.0199
2928.00,0.0204
2927.00,0.0207
2926.00,0.0208
2925.00,0.0207
2924.00,0.0205
2923.00,0.0201
2922.00,0.0197
2921.00,0.0191
2920.00,0.0186
2919.00,0.0180
2918.00,0.0174
2917.00,0.0168
2916.00,0.0162
2915.00,0.0156
2914.00,0.0150
2913.00,0.0146
2912.00,0.0141
2911.00,0.0137
2910.00,0.0133
2909.00,0.0129
2908.00,0.0125
2907.00,0.0122
2906.00,0.0118
2905.00,0.0116
2904.00,0.0113
2903.00,0.0110
2902.00,0.0108
2901.00,0.0105
2900.00,0.0103
2899.00,0.0101
2898.00,0.0098
2897.00,0.0096
2896.00,0.0094
2895.00,0.0093
2894.00,0.0091
2893.00,0.0089
2892.00,0.0088
2891.00,0.0087
2890.00,0.0086
2889.00,0.0085
2888.00,0.0084
2887.00,0.0083
2886.00,0.0082
2885.00,0.0081
2884.00,0.0081
2883.00,0.0081
2882.00,0.0081
2881.00,0.0081
2880.00,0.0083
2879.00,0.0084
2878.00,0.0087
2877.00,0.0090
2876.00,0.0093
2875.00,0.0095
2874.00,0.0098
2873.00,0.0100
2872.00,0.0101
2871.00,0.0101
2870.00,0.0101
2869.00,0.0100
2868.00,0.0100
2867.00,0.0100
2866.00,0.0101
2865.00,0.0104
2864.00,0.0107
2863.00,0.0112
2862.00,0.0118
2861.00,0.0124
2860.00,0.0131
2859.00,0.0137
2858.00,0.0143
2857.00,0.0147
2856.00,0.0150
2855.00,0.0152
2854.00,0.0152
2853.00,0.0151
2852.00,0.0149
2851.00,0.0146
2850.00,0.0141
2849.00,0.0134
2848.00,0.0127
2847.00,0.0119
2846.00,0.0112
2845.00,0.0105
2844.00,0.0099
2843.00,0.0093
2842.00,0.0087
2841.00,0.0083
2840.00,0.0079
2839.00,0.0075
2838.00,0.0072
2837.00,0.0069
2836.00,0.0067
2835.00,0.0065
2834.00,0.0063
2833.00,0.0062
2832.00,0.0060
2831.00,0.0059
2830.00,0.0058
2829.00,0.0057
2828.00,0.0056
2827.00,0.0054
2826.00,0.0053
2825.00,0.0052
2824.00,0.0051
2823.00,0.0050
2822.00,0.0049
2821.00,0.0049
2820.00,0.0048
2819.00,0.0047
2818.00,0.0047
2817.00,0.0046
2816.00,0.0046
2815.00,0.0046
2814.00,0.0045
2813.00,0.0045
2812.00,0.0045
2811.00,0.0044
2810.00,0.0044
2809.00,0.0044
2808.00,0.0044
2807.00,0.0043
2806.00,0.0043
2805.00,0.0042
2804.00,0.0042
2803.00,0.0042
2802.00,0.0042
2801.00,0.0042
2800.00,0.0041
2799.00,0.0041
2798.00,0.0041
2797.00,0.0041
2796.00,0.0041
2795.00,0.0040
2794.00,0.0040
2793.00,0.0040
2792.00,0.0039
2791.00,0.0039
2790.00,0.0039
2789.00,0.0038
2788.00,0.0038
2787.00,0.0038
2786.00,0.0037
2785.00,0.0037
2784.00,0.0037
2783.00,0.0037
2782.00,0.0037
2781.00,0.0036
2780.00,0.0036
2779.00,0.0036
2778.00,0.0036
2777.00,0.0036
2776.00,0.0036
2775.00,0.0036
2774.00,0.0036
2773.00,0.0036
2772.00,0.0036
2771.00,0.0036
2770.00,0.0036
2769.00,0.0036
2768.00,0.0036
2767.00,0.0035
2766.00,0.0035
2765.00,0.0035
2764.00,0.0035
2763.00,0.0035
2762.00,0.0035
2761.00,0.0035
2760.00,0.0035
2759.00,0.0035
2758.00,0.0035
2757.00,0.0035
