Created as New Dataset,Sample 912 By YargerLab Date Thursday, July 24 2025
cm-1,A
4000.00,0.0047
3999.00,0.0048
3998.00,0.0048
3997.00,0.0048
3996.00,0.0048
3995.00,0.0048
3994.00,0.0048
3993.00,0.0048
3992.00,0.0048
3991.00,0.0048
3990.00,0.0048
3989.00,0.0048
3988.00,0.0047
3987.00,0.0047
3986.00,0.0047
3985.00,0.0047
3984.00,0.0047
3983.00,0.0047
3982.00,0.0047
3981.00,0.0047
3980.00,0.0047
3979.00,0.0047
3978.00,0.0047
3977.00,0.0047
3976.00,0.0047
3975.00,0.0047
3974.00,0.0047
3973.00,0.0047
3972.00,0.0047
3971.00,0.0047
3970.00,0.0047
3969.00,0.0047
3968.00,0.0047
3967.00,0.0047
3966.00,0.0047
3965.00,0.0047
3964.00,0.0047
3963.00,0.0047
3962.00,0.0047
3961.00,0.0047
3960.00,0.0047
3959.00,0.0047
3958.00,0.0047
3957.00,0.0047
3956.00,0.0047
3955.00,0.0047
3954.00,0.0047
3953.00,0.0047
3952.00,0.0047
3951.00,0.0047
3950.00,0.0047
3949.00,0.0047
3948.00,0.0047
3947.00,0.0047
3946.00,0.0047
3945.00,0.0047
3944.00,0.0047
3943.00,0.0047
3942.00,0.0047
3941.00,0.0047
3940.00,0.0047
3939.00,0.0047
3938.00,0.0047
3937.00,0.0047
3936.00,0.0047
3935.00,0.0047
3934.00,0.0047
3933.00,0.0047
3932.00,0.0047
3931.00,0.0047
3930.00,0.0047
3929.00,0.0047
3928.00,0.0047
3927.00,0.0047
3926.00,0.0047
3925.00,0.0047
3924.00,0.0047
3923.00,0.0047
3922.00,0.0047
3921.00,0.0047
3920.00,0.0047
3919.00,0.0047
3918.00,0.0047
3917.00,0.0047
3916.00,0.0047
3915.00,0.0047
3914.00,0.0047
3913.00,0.0047
3912.00,0.0047
3911.00,0.0048
3910.00,0.0048
3909.00,0.0048
3908.00,0.0048
3907.00,0.0048
3906.00,0.0048
3905.00,0.0048
3904.00,0.0048
3903.00,0.0047
3902.00,0.0047
3901.00,0.0047
3900.00,0.0047
3899.00,0.0047
3898.00,0.0047
3897.00,0.0047
3896.00,0.0047
3895.00,0.0047
3894.00,0.0047
3893.00,0.0047
3892.00,0.0047
3891.00,0.0047
3890.00,0.0048
3889.00,0.0048
3888.00,0.0048
3887.00,0.0048
3886.00,0.0047
3885.00,0.0047
3884.00,0.0047
3883.00,0.0047
3882.00,0.0047
3881.00,0.0047
3880.00,0.0047
3879.00,0.0047
3878.00,0.0047
3877.00,0.0047
3876.00,0.0047
3875.00,0.0047
3874.00,0.0046
3873.00,0.0047
3872.00,0.0047
3871.00,0.0047
3870.00,0.0047
3869.00,0.0047
3868.00,0.0047
3867.00,0.0047
3866.00,0.0047
3865.00,0.0047
3864.00,0.0047
3863.00,0.0047
3862.00,0.0047
3861.00,0.0047
3860.00,0.0047
3859.00,0.0047
3858.00,0.0047
3857.00,0.0048
3856.00,0.0048
3855.00,0.0048
3854.00,0.0048
3853.00,0.0047
3852.00,0.0047
3851.00,0.0047
3850.00,0.0047
3849.00,0.0047
3848.00,0.0047
3847.00,0.0047
3846.00,0.0047
3845.00,0.0047
3844.00,0.0047
3843.00,0.0047
3842.00,0.0047
3841.00,0.0047
3840.00,0.0047
3839.00,0.0047
3838.00,0.0047
3837.00,0.0047
3836.00,0.0047
3835.00,0.0047
3834.00,0.0047
3833.00,0.0047
3832.00,0.0047
3831.00,0.0048
3830.00,0.0048
3829.00,0.0047
3828.00,0.0047
3827.00,0.0047
3826.00,0.0047
3825.00,0.0047
3824.00,0.0047
3823.00,0.0047
3822.00,0.0047
3821.00,0.0047
3820.00,0.0047
3819.00,0.0048
3818.00,0.0047
3817.00,0.0047
3816.00,0.0047
3815.00,0.0047
3814.00,0.0047
3813.00,0.0047
3812.00,0.0047
3811.00,0.0047
3810.00,0.0047
3809.00,0.0047
3808.00,0.0047
3807.00,0.0047
3806.00,0.0047
3805.00,0.0047
3804.00,0.0047
3803.00,0.0047
3802.00,0.0047
3801.00,0.0047
3800.00,0.0047
3799.00,0.0047
3798.00,0.0047
3797.00,0.0047
3796.00,0.0048
3795.00,0.0048
3794.00,0.0048
3793.00,0.0048
3792.00,0.0048
3791.00,0.0048
3790.00,0.0048
3789.00,0.0048
3788.00,0.0048
3787.00,0.0048
3786.00,0.0048
3785.00,0.0048
3784.00,0.0048
3783.00,0.0048
3782.00,0.0048
3781.00,0.0048
3780.00,0.0048
3779.00,0.0048
3778.00,0.0048
3777.00,0.0048
3776.00,0.0048
3775.00,0.0048
3774.00,0.0048
3773.00,0.0048
3772.00,0.0048
3771.00,0.0048
3770.00,0.0049
3769.00,0.0049
3768.00,0.0049
3767.00,0.0049
3766.00,0.0049
3765.00,0.0049
3764.00,0.0048
3763.00,0.0048
3762.00,0.0048
3761.00,0.0047
3760.00,0.0047
3759.00,0.0047
3758.00,0.0047
3757.00,0.0048
3756.00,0.0048
3755.00,0.0048
3754.00,0.0048
3753.00,0.0048
3752.00,0.0048
3751.00,0.0048
3750.00,0.0048
3749.00,0.0048
3748.00,0.0048
3747.00,0.0047
3746.00,0.0047
3745.00,0.0047
3744.00,0.0048
3743.00,0.0048
3742.00,0.0048
3741.00,0.0048
3740.00,0.0047
3739.00,0.0047
3738.00,0.0047
3737.00,0.0046
3736.00,0.0046
3735.00,0.0046
3734.00,0.0046
3733.00,0.0046
3732.00,0.0046
3731.00,0.0046
3730.00,0.0047
3729.00,0.0047
3728.00,0.0047
3727.00,0.0047
3726.00,0.0047
3725.00,0.0047
3724.00,0.0047
3723.00,0.0047
3722.00,0.0047
3721.00,0.0047
3720.00,0.0047
3719.00,0.0047
3718.00,0.0047
3717.00,0.0048
3716.00,0.0048
3715.00,0.0048
3714.00,0.0047
3713.00,0.0047
3712.00,0.0047
3711.00,0.0047
3710.00,0.0047
3709.00,0.0047
3708.00,0.0047
3707.00,0.0046
3706.00,0.0046
3705.00,0.0046
3704.00,0.0046
3703.00,0.0046
3702.00,0.0046
3701.00,0.0046
3700.00,0.0046
3699.00,0.0046
3698.00,0.0046
3697.00,0.0046
3696.00,0.0046
3695.00,0.0046
3694.00,0.0046
3693.00,0.0046
3692.00,0.0046
3691.00,0.0046
3690.00,0.0046
3689.00,0.0046
3688.00,0.0047
3687.00,0.0047
3686.00,0.0047
3685.00,0.0047
3684.00,0.0047
3683.00,0.0047
3682.00,0.0047
3681.00,0.0048
3680.00,0.0048
3679.00,0.0048
3678.00,0.0047
3677.00,0.0047
3676.00,0.0047
3675.00,0.0047
3674.00,0.0048
3673.00,0.0048
3672.00,0.0048
3671.00,0.0048
3670.00,0.0048
3669.00,0.0048
3668.00,0.0048
3667.00,0.0048
3666.00,0.0049
3665.00,0.0049
3664.00,0.0049
3663.00,0.0049
3662.00,0.0049
3661.00,0.0049
3660.00,0.0050
3659.00,0.0050
3658.00,0.0050
3657.00,0.0050
3656.00,0.0050
3655.00,0.0050
3654.00,0.0050
3653.00,0.0050
3652.00,0.0050
3651.00,0.0051
3650.00,0.0051
3649.00,0.0051
3648.00,0.0051
3647.00,0.0052
3646.00,0.0052
3645.00,0.0052
3644.00,0.0053
3643.00,0.0053
3642.00,0.0053
3641.00,0.0054
3640.00,0.0054
3639.00,0.0055
3638.00,0.0055
3637.00,0.0055
3636.00,0.0055
3635.00,0.0055
3634.00,0.0056
3633.00,0.0056
3632.00,0.0056
3631.00,0.0057
3630.00,0.0057
3629.00,0.0057
3628.00,0.0058
3627.00,0.0058
3626.00,0.0059
3625.00,0.0059
3624.00,0.0060
3623.00,0.0060
3622.00,0.0061
3621.00,0.0061
3620.00,0.0062
3619.00,0.0063
3618.00,0.0064
3617.00,0.0064
3616.00,0.0065
3615.00,0.0065
3614.00,0.0066
3613.00,0.0066
3612.00,0.0066
3611.00,0.0067
3610.00,0.0067
3609.00,0.0067
3608.00,0.0068
3607.00,0.0069
3606.00,0.0070
3605.00,0.0070
3604.00,0.0071
3603.00,0.0071
3602.00,0.0072
3601.00,0.0072
3600.00,0.0073
3599.00,0.0073
3598.00,0.0074
3597.00,0.0075
3596.00,0.0075
3595.00,0.0076
3594.00,0.0076
3593.00,0.0077
3592.00,0.0078
3591.00,0.0079
3590.00,0.0080
3589.00,0.0081
3588.00,0.0081
3587.00,0.0082
3586.00,0.0083
3585.00,0.0083
3584.00,0.0084
3583.00,0.0085
3582.00,0.0086
3581.00,0.0087
3580.00,0.0088
3579.00,0.0089
3578.00,0.0090
3577.00,0.0090
3576.00,0.0091
3575.00,0.0092
3574.00,0.0093
3573.00,0.0094
3572.00,0.0095
3571.00,0.0096
3570.00,0.0097
3569.00,0.0098
3568.00,0.0098
3567.00,0.0099
3566.00,0.0100
3565.00,0.0101
3564.00,0.0101
3563.00,0.0102
3562.00,0.0103
3561.00,0.0104
3560.00,0.0105
3559.00,0.0106
3558.00,0.0107
3557.00,0.0108
3556.00,0.0109
3555.00,0.0109
3554.00,0.0110
3553.00,0.0111
3552.00,0.0112
3551.00,0.0112
3550.00,0.0113
3549.00,0.0113
3548.00,0.0114
3547.00,0.0115
3546.00,0.0116
3545.00,0.0117
3544.00,0.0117
3543.00,0.0118
3542.00,0.0118
3541.00,0.0119
3540.00,0.0119
3539.00,0.0120
3538.00,0.0120
3537.00,0.0121
3536.00,0.0121
3535.00,0.0121
3534.00,0.0122
3533.00,0.0122
3532.00,0.0123
3531.00,0.0123
3530.00,0.0123
3529.00,0.0124
3528.00,0.0124
3527.00,0.0125
3526.00,0.0125
3525.00,0.0126
3524.00,0.0126
3523.00,0.0126
3522.00,0.0126
3521.00,0.0126
3520.00,0.0126
3519.00,0.0127
3518.00,0.0127
3517.00,0.0127
3516.00,0.0128
3515.00,0.0128
3514.00,0.0128
3513.00,0.0129
3512.00,0.0129
3511.00,0.0129
3510.00,0.0129
3509.00,0.0130
3508.00,0.0130
3507.00,0.0130
3506.00,0.0131
3505.00,0.0131
3504.00,0.0131
3503.00,0.0131
3502.00,0.0131
3501.00,0.0131
3500.00,0.0131
3499.00,0.0131
3498.00,0.0132
3497.00,0.0132
3496.00,0.0132
3495.00,0.0131
3494.00,0.0131
3493.00,0.0131
3492.00,0.0132
3491.00,0.0132
3490.00,0.0133
3489.00,0.0133
3488.00,0.0133
3487.00,0.0133
3486.00,0.0133
3485.00,0.0133
3484.00,0.0133
3483.00,0.0133
3482.00,0.0133
3481.00,0.0133
3480.00,0.0134
3479.00,0.0134
3478.00,0.0134
3477.00,0.0134
3476.00,0.0134
3475.00,0.0134
3474.00,0.0134
3473.00,0.0134
3472.00,0.0135
3471.00,0.0135
3470.00,0.0135
3469.00,0.0135
3468.00,0.0135
3467.00,0.0135
3466.00,0.0135
3465.00,0.0135
3464.00,0.0135
3463.00,0.0135
3462.00,0.0135
3461.00,0.0135
3460.00,0.0136
3459.00,0.0135
3458.00,0.0135
3457.00,0.0135
3456.00,0.0135
3455.00,0.0135
3454.00,0.0135
3453.00,0.0136
3452.00,0.0136
3451.00,0.0136
3450.00,0.0136
3449.00,0.0136
3448.00,0.0136
3447.00,0.0136
3446.00,0.0136
3445.00,0.0136
3444.00,0.0135
3443.00,0.0135
3442.00,0.0135
3441.00,0.0135
3440.00,0.0135
3439.00,0.0136
3438.00,0.0136
3437.00,0.0136
3436.00,0.0136
3435.00,0.0136
3434.00,0.0136
3433.00,0.0135
3432.00,0.0135
3431.00,0.0135
3430.00,0.0135
3429.00,0.0134
3428.00,0.0134
3427.00,0.0134
3426.00,0.0134
3425.00,0.0134
3424.00,0.0133
3423.00,0.0133
3422.00,0.0133
3421.00,0.0133
3420.00,0.0133
3419.00,0.0133
3418.00,0.0132
3417.00,0.0132
3416.00,0.0132
3415.00,0.0131
3414.00,0.0131
3413.00,0.0131
3412.00,0.0131
3411.00,0.0131
3410.00,0.0131
3409.00,0.0130
3408.00,0.0130
3407.00,0.0129
3406.00,0.0129
3405.00,0.0129
3404.00,0.0128
3403.00,0.0128
3402.00,0.0128
3401.00,0.0127
3400.00,0.0127
3399.00,0.0127
3398.00,0.0127
3397.00,0.0127
3396.00,0.0127
3395.00,0.0126
3394.00,0.0126
3393.00,0.0125
3392.00,0.0125
3391.00,0.0125
3390.00,0.0124
3389.00,0.0124
3388.00,0.0124
3387.00,0.0124
3386.00,0.0123
3385.00,0.0123
3384.00,0.0123
3383.00,0.0122
3382.00,0.0122
3381.00,0.0122
3380.00,0.0122
3379.00,0.0121
3378.00,0.0121
3377.00,0.0121
3376.00,0.0121
3375.00,0.0120
3374.00,0.0120
3373.00,0.0119
3372.00,0.0118
3371.00,0.0117
3370.00,0.0116
3369.00,0.0116
3368.00,0.0116
3367.00,0.0117
3366.00,0.0117
3365.00,0.0118
3364.00,0.0118
3363.00,0.0118
3362.00,0.0117
3361.00,0.0117
3360.00,0.0117
3359.00,0.0116
3358.00,0.0116
3357.00,0.0116
3356.00,0.0116
3355.00,0.0116
3354.00,0.0115
3353.00,0.0115
3352.00,0.0114
3351.00,0.0114
3350.00,0.0114
3349.00,0.0114
3348.00,0.0114
3347.00,0.0114
3346.00,0.0114
3345.00,0.0113
3344.00,0.0113
3343.00,0.0112
3342.00,0.0112
3341.00,0.0111
3340.00,0.0111
3339.00,0.0111
3338.00,0.0111
3337.00,0.0111
3336.00,0.0112
3335.00,0.0112
3334.00,0.0112
3333.00,0.0112
3332.00,0.0112
3331.00,0.0112
3330.00,0.0111
3329.00,0.0111
3328.00,0.0110
3327.00,0.0109
3326.00,0.0109
3325.00,0.0109
3324.00,0.0109
3323.00,0.0110
3322.00,0.0110
3321.00,0.0110
3320.00,0.0110
3319.00,0.0109
3318.00,0.0109
3317.00,0.0108
3316.00,0.0108
3315.00,0.0107
3314.00,0.0107
3313.00,0.0106
3312.00,0.0106
3311.00,0.0105
3310.00,0.0104
3309.00,0.0102
3308.00,0.0101
3307.00,0.0100
3306.00,0.0100
3305.00,0.0100
3304.00,0.0102
3303.00,0.0103
3302.00,0.0104
3301.00,0.0104
3300.00,0.0103
3299.00,0.0103
3298.00,0.0102
3297.00,0.0101
3296.00,0.0100
3295.00,0.0099
3294.00,0.0099
3293.00,0.0099
3292.00,0.0099
3291.00,0.0099
3290.00,0.0100
3289.00,0.0100
3288.00,0.0100
3287.00,0.0100
3286.00,0.0100
3285.00,0.0099
3284.00,0.0099
3283.00,0.0099
3282.00,0.0099
3281.00,0.0098
3280.00,0.0098
3279.00,0.0097
3278.00,0.0096
3277.00,0.0096
3276.00,0.0095
3275.00,0.0095
3274.00,0.0094
3273.00,0.0094
3272.00,0.0093
3271.00,0.0092
3270.00,0.0092
3269.00,0.0092
3268.00,0.0093
3267.00,0.0093
3266.00,0.0093
3265.00,0.0093
3264.00,0.0092
3263.00,0.0092
3262.00,0.0092
3261.00,0.0091
3260.00,0.0091
3259.00,0.0090
3258.00,0.0089
3257.00,0.0089
3256.00,0.0089
3255.00,0.0088
3254.00,0.0088
3253.00,0.0088
3252.00,0.0088
3251.00,0.0087
3250.00,0.0087
3249.00,0.0086
3248.00,0.0086
3247.00,0.0086
3246.00,0.0085
3245.00,0.0085
3244.00,0.0085
3243.00,0.0085
3242.00,0.0085
3241.00,0.0084
3240.00,0.0084
3239.00,0.0083
3238.00,0.0083
3237.00,0.0083
3236.00,0.0082
3235.00,0.0082
3234.00,0.0081
3233.00,0.0081
3232.00,0.0081
3231.00,0.0080
3230.00,0.0080
3229.00,0.0080
3228.00,0.0080
3227.00,0.0080
3226.00,0.0079
3225.00,0.0079
3224.00,0.0079
3223.00,0.0079
3222.00,0.0078
3221.00,0.0078
3220.00,0.0077
3219.00,0.0077
3218.00,0.0077
3217.00,0.0077
3216.00,0.0077
3215.00,0.0076
3214.00,0.0076
3213.00,0.0076
3212.00,0.0076
3211.00,0.0076
3210.00,0.0075
3209.00,0.0075
3208.00,0.0075
3207.00,0.0074
3206.00,0.0074
3205.00,0.0074
3204.00,0.0073
3203.00,0.0073
3202.00,0.0073
3201.00,0.0073
3200.00,0.0073
3199.00,0.0072
3198.00,0.0072
3197.00,0.0072
3196.00,0.0071
3195.00,0.0071
3194.00,0.0071
3193.00,0.0071
3192.00,0.0071
3191.00,0.0071
3190.00,0.0071
3189.00,0.0070
3188.00,0.0070
3187.00,0.0070
3186.00,0.0070
3185.00,0.0070
3184.00,0.0070
3183.00,0.0069
3182.00,0.0069
3181.00,0.0069
3180.00,0.0069
3179.00,0.0068
3178.00,0.0068
3177.00,0.0068
3176.00,0.0068
3175.00,0.0068
3174.00,0.0068
3173.00,0.0068
3172.00,0.0068
3171.00,0.0068
3170.00,0.0068
3169.00,0.0068
3168.00,0.0067
3167.00,0.0067
3166.00,0.0067
3165.00,0.0067
3164.00,0.0066
3163.00,0.0066
3162.00,0.0066
3161.00,0.0066
3160.00,0.0066
3159.00,0.0066
3158.00,0.0066
3157.00,0.0066
3156.00,0.0065
3155.00,0.0065
3154.00,0.0065
3153.00,0.0064
3152.00,0.0064
3151.00,0.0064
3150.00,0.0064
3149.00,0.0065
3148.00,0.0065
3147.00,0.0064
3146.00,0.0064
3145.00,0.0064
3144.00,0.0064
3143.00,0.0064
3142.00,0.0064
3141.00,0.0064
3140.00,0.0063
3139.00,0.0063
3138.00,0.0063
3137.00,0.0063
3136.00,0.0063
3135.00,0.0064
3134.00,0.0063
3133.00,0.0063
3132.00,0.0063
3131.00,0.0063
3130.00,0.0063
3129.00,0.0063
3128.00,0.0062
3127.00,0.0062
3126.00,0.0062
3125.00,0.0062
3124.00,0.0062
3123.00,0.0062
3122.00,0.0062
3121.00,0.0062
3120.00,0.0062
3119.00,0.0062
3118.00,0.0062
3117.00,0.0062
3116.00,0.0062
3115.00,0.0062
3114.00,0.0062
3113.00,0.0062
3112.00,0.0062
3111.00,0.0062
3110.00,0.0062
3109.00,0.0062
3108.00,0.0062
3107.00,0.0062
3106.00,0.0061
3105.00,0.0061
3104.00,0.0061
3103.00,0.0061
3102.00,0.0061
3101.00,0.0061
3100.00,0.0061
3099.00,0.0061
3098.00,0.0061
3097.00,0.0061
3096.00,0.0060
3095.00,0.0060
3094.00,0.0060
3093.00,0.0060
3092.00,0.0060
3091.00,0.0060
3090.00,0.0060
3089.00,0.0060
3088.00,0.0060
3087.00,0.0060
3086.00,0.0059
3085.00,0.0059
3084.00,0.0059
3083.00,0.0059
3082.00,0.0059
3081.00,0.0059
3080.00,0.0059
3079.00,0.0059
3078.00,0.0059
3077.00,0.0059
3076.00,0.0059
3075.00,0.0059
3074.00,0.0059
3073.00,0.0058
3072.00,0.0058
3071.00,0.0058
3070.00,0.0058
3069.00,0.0058
3068.00,0.0059
3067.00,0.0059
3066.00,0.0059
3065.00,0.0059
3064.00,0.0059
3063.00,0.0059
3062.00,0.0058
3061.00,0.0058
3060.00,0.0058
3059.00,0.0058
3058.00,0.0058
3057.00,0.0058
3056.00,0.0058
3055.00,0.0058
3054.00,0.0058
3053.00,0.0058
3052.00,0.0058
3051.00,0.0058
3050.00,0.0058
3049.00,0.0058
3048.00,0.0058
3047.00,0.0058
3046.00,0.0058
3045.00,0.0058
3044.00,0.0058
3043.00,0.0058
3042.00,0.0058
3041.00,0.0058
3040.00,0.0058
3039.00,0.0059
3038.00,0.0058
3037.00,0.0058
3036.00,0.0058
3035.00,0.0058
3034.00,0.0058
3033.00,0.0059
3032.00,0.0059
3031.00,0.0059
3030.00,0.0059
3029.00,0.0059
3028.00,0.0060
3027.00,0.0060
3026.00,0.0060
3025.00,0.0060
3024.00,0.0061
3023.00,0.0061
3022.00,0.0061
3021.00,0.0062
3020.00,0.0062
3019.00,0.0062
3018.00,0.0063
3017.00,0.0063
3016.00,0.0063
3015.00,0.0064
3014.00,0.0064
3013.00,0.0065
3012.00,0.0066
3011.00,0.0067
3010.00,0.0068
3009.00,0.0069
3008.00,0.0070
3007.00,0.0071
3006.00,0.0072
3005.00,0.0073
3004.00,0.0074
3003.00,0.0076
3002.00,0.0077
3001.00,0.0079
3000.00,0.0081
2999.00,0.0083
2998.00,0.0085
2997.00,0.0087
2996.00,0.0089
2995.00,0.0092
2994.00,0.0094
2993.00,0.0097
2992.00,0.0100
2991.00,0.0102
2990.00,0.0105
2989.00,0.0108
2988.00,0.0111
2987.00,0.0113
2986.00,0.0115
2985.00,0.0117
2984.00,0.0119
2983.00,0.0120
2982.00,0.0121
2981.00,0.0123
2980.00,0.0126
2979.00,0.0128
2978.00,0.0131
2977.00,0.0133
2976.00,0.0135
2975.00,0.0137
2974.00,0.0139
2973.00,0.0140
2972.00,0.0142
2971.00,0.0143
2970.00,0.0145
2969.00,0.0147
2968.00,0.0149
2967.00,0.0150
2966.00,0.0152
2965.00,0.0153
2964.00,0.0154
2963.00,0.0155
2962.00,0.0157
2961.00,0.0158
2960.00,0.0159
2959.00,0.0161
2958.00,0.0162
2957.00,0.0163
2956.00,0.0164
2955.00,0.0166
2954.00,0.0167
2953.00,0.0168
2952.00,0.0169
2951.00,0.0170
2950.00,0.0171
2949.00,0.0171
2948.00,0.0171
2947.00,0.0170
2946.00,0.0170
2945.00,0.0169
2944.00,0.0167
2943.00,0.0166
2942.00,0.0164
2941.00,0.0162
2940.00,0.0160
2939.00,0.0159
2938.00,0.0157
2937.00,0.0156
2936.00,0.0155
2935.00,0.0154
2934.00,0.0153
2933.00,0.0152
2932.00,0.0151
2931.00,0.0150
2930.00,0.0150
2929.00,0.0150
2928.00,0.0150
2927.00,0.0151
2926.00,0.0151
2925.00,0.0151
2924.00,0.0152
2923.00,0.0152
2922.00,0.0152
2921.00,0.0152
2920.00,0.0151
2919.00,0.0151
2918.00,0.0150
2917.00,0.0150
2916.00,0.0150
2915.00,0.0150
2914.00,0.0150
2913.00,0.0150
2912.00,0.0150
2911.00,0.0150
2910.00,0.0149
2909.00,0.0148
2908.00,0.0147
2907.00,0.0146
2906.00,0.0146
2905.00,0.0145
2904.00,0.0144
2903.00,0.0144
2902.00,0.0144
2901.00,0.0144
2900.00,0.0144
2899.00,0.0144
2898.00,0.0144
2897.00,0.0145
2896.00,0.0145
2895.00,0.0146
2894.00,0.0147
2893.00,0.0148
2892.00,0.0149
2891.00,0.0149
2890.00,0.0150
2889.00,0.0151
2888.00,0.0151
2887.00,0.0151
2886.00,0.0152
2885.00,0.0152
2884.00,0.0152
2883.00,0.0152
2882.00,0.0153
2881.00,0.0153
2880.00,0.0153
2879.00,0.0153
2878.00,0.0153
2877.00,0.0152
2876.00,0.0151
2875.00,0.0150
2874.00,0.0149
2873.00,0.0148
2872.00,0.0148
2871.00,0.0147
2870.00,0.0146
2869.00,0.0146
2868.00,0.0145
2867.00,0.0144
2866.00,0.0143
2865.00,0.0142
2864.00,0.0141
2863.00,0.0139
2862.00,0.0138
2861.00,0.0136
2860.00,0.0134
2859.00,0.0132
2858.00,0.0130
2857.00,0.0128
2856.00,0.0126
2855.00,0.0124
2854.00,0.0122
2853.00,0.0120
2852.00,0.0118
2851.00,0.0116
2850.00,0.0114
2849.00,0.0113
2848.00,0.0112
2847.00,0.0111
2846.00,0.0111
2845.00,0.0111
2844.00,0.0110
2843.00,0.0109
2842.00,0.0108
2841.00,0.0107
2840.00,0.0106
2839.00,0.0105
2838.00,0.0103
2837.00,0.0102
2836.00,0.0102
2835.00,0.0101
2834.00,0.0100
2833.00,0.0099
2832.00,0.0097
2831.00,0.0096
2830.00,0.0095
2829.00,0.0094
2828.00,0.0092
2827.00,0.0091
2826.00,0.0089
2825.00,0.0088
2824.00,0.0087
2823.00,0.0086
2822.00,0.0085
2821.00,0.0084
2820.00,0.0083
2819.00,0.0082
2818.00,0.0081
2817.00,0.0080
2816.00,0.0080
2815.00,0.0079
2814.00,0.0078
2813.00,0.0078
2812.00,0.0077
2811.00,0.0077
2810.00,0.0076
2809.00,0.0076
2808.00,0.0075
2807.00,0.0075
2806.00,0.0075
2805.00,0.0074
2804.00,0.0074
2803.00,0.0074
2802.00,0.0073
2801.00,0.0073
2800.00,0.0073
2799.00,0.0073
2798.00,0.0073
2797.00,0.0072
2796.00,0.0072
2795.00,0.0072
2794.00,0.0072
2793.00,0.0071
2792.00,0.0071
2791.00,0.0071
2790.00,0.0071
2789.00,0.0071
2788.00,0.0071
2787.00,0.0070
2786.00,0.0070
2785.00,0.0070
2784.00,0.0070
2783.00,0.0070
2782.00,0.0070
2781.00,0.0070
2780.00,0.0069
2779.00,0.0069
2778.00,0.0069
2777.00,0.0069
2776.00,0.0069
2775.00,0.0068
2774.00,0.0068
2773.00,0.0068
2772.00,0.0068
2771.00,0.0068
2770.00,0.0067
2769.00,0.0067
2768.00,0.0067
2767.00,0.0067
2766.00,0.0067
2765.00,0.0067
2764.00,0.0067
2763.00,0.0067
2762.00,0.0067
2761.00,0.0067
2760.00,0.0066
2759.00,0.0066
2758.00,0.0066
2757.00,0.0066
