Created as New Dataset,Sample 777 By YargerLab Date Monday, July 07 2025
cm-1,A
4000.00,0.0062
3999.00,0.0062
3998.00,0.0062
3997.00,0.0062
3996.00,0.0062
3995.00,0.0062
3994.00,0.0061
3993.00,0.0061
3992.00,0.0061
3991.00,0.0061
3990.00,0.0061
3989.00,0.0061
3988.00,0.0061
3987.00,0.0061
3986.00,0.0062
3985.00,0.0062
3984.00,0.0062
3983.00,0.0062
3982.00,0.0062
3981.00,0.0062
3980.00,0.0062
3979.00,0.0062
3978.00,0.0062
3977.00,0.0062
3976.00,0.0062
3975.00,0.0062
3974.00,0.0062
3973.00,0.0062
3972.00,0.0062
3971.00,0.0062
3970.00,0.0062
3969.00,0.0063
3968.00,0.0063
3967.00,0.0063
3966.00,0.0063
3965.00,0.0064
3964.00,0.0064
3963.00,0.0064
3962.00,0.0064
3961.00,0.0064
3960.00,0.0064
3959.00,0.0063
3958.00,0.0063
3957.00,0.0063
3956.00,0.0063
3955.00,0.0063
3954.00,0.0064
3953.00,0.0064
3952.00,0.0064
3951.00,0.0063
3950.00,0.0063
3949.00,0.0063
3948.00,0.0064
3947.00,0.0064
3946.00,0.0064
3945.00,0.0064
3944.00,0.0064
3943.00,0.0063
3942.00,0.0063
3941.00,0.0063
3940.00,0.0063
3939.00,0.0064
3938.00,0.0064
3937.00,0.0064
3936.00,0.0064
3935.00,0.0064
3934.00,0.0064
3933.00,0.0064
3932.00,0.0064
3931.00,0.0064
3930.00,0.0064
3929.00,0.0064
3928.00,0.0064
3927.00,0.0064
3926.00,0.0064
3925.00,0.0064
3924.00,0.0064
3923.00,0.0064
3922.00,0.0065
3921.00,0.0065
3920.00,0.0065
3919.00,0.0065
3918.00,0.0065
3917.00,0.0065
3916.00,0.0065
3915.00,0.0064
3914.00,0.0064
3913.00,0.0063
3912.00,0.0063
3911.00,0.0063
3910.00,0.0063
3909.00,0.0064
3908.00,0.0064
3907.00,0.0064
3906.00,0.0064
3905.00,0.0064
3904.00,0.0065
3903.00,0.0065
3902.00,0.0065
3901.00,0.0065
3900.00,0.0064
3899.00,0.0063
3898.00,0.0063
3897.00,0.0063
3896.00,0.0062
3895.00,0.0062
3894.00,0.0062
3893.00,0.0062
3892.00,0.0062
3891.00,0.0062
3890.00,0.0063
3889.00,0.0063
3888.00,0.0063
3887.00,0.0063
3886.00,0.0062
3885.00,0.0062
3884.00,0.0062
3883.00,0.0062
3882.00,0.0062
3881.00,0.0061
3880.00,0.0061
3879.00,0.0062
3878.00,0.0063
3877.00,0.0063
3876.00,0.0062
3875.00,0.0062
3874.00,0.0062
3873.00,0.0063
3872.00,0.0063
3871.00,0.0062
3870.00,0.0062
3869.00,0.0062
3868.00,0.0063
3867.00,0.0063
3866.00,0.0062
3865.00,0.0062
3864.00,0.0062
3863.00,0.0062
3862.00,0.0062
3861.00,0.0061
3860.00,0.0061
3859.00,0.0062
3858.00,0.0062
3857.00,0.0063
3856.00,0.0063
3855.00,0.0064
3854.00,0.0063
3853.00,0.0063
3852.00,0.0064
3851.00,0.0063
3850.00,0.0062
3849.00,0.0061
3848.00,0.0061
3847.00,0.0061
3846.00,0.0061
3845.00,0.0061
3844.00,0.0061
3843.00,0.0061
3842.00,0.0062
3841.00,0.0062
3840.00,0.0062
3839.00,0.0062
3838.00,0.0062
3837.00,0.0061
3836.00,0.0061
3835.00,0.0061
3834.00,0.0060
3833.00,0.0060
3832.00,0.0059
3831.00,0.0060
3830.00,0.0060
3829.00,0.0060
3828.00,0.0060
3827.00,0.0060
3826.00,0.0061
3825.00,0.0061
3824.00,0.0062
3823.00,0.0061
3822.00,0.0061
3821.00,0.0061
3820.00,0.0062
3819.00,0.0062
3818.00,0.0061
3817.00,0.0060
3816.00,0.0059
3815.00,0.0060
3814.00,0.0060
3813.00,0.0060
3812.00,0.0060
3811.00,0.0060
3810.00,0.0060
3809.00,0.0060
3808.00,0.0059
3807.00,0.0059
3806.00,0.0060
3805.00,0.0061
3804.00,0.0061
3803.00,0.0060
3802.00,0.0060
3801.00,0.0060
3800.00,0.0060
3799.00,0.0060
3798.00,0.0060
3797.00,0.0059
3796.00,0.0059
3795.00,0.0059
3794.00,0.0059
3793.00,0.0059
3792.00,0.0059
3791.00,0.0059
3790.00,0.0059
3789.00,0.0059
3788.00,0.0059
3787.00,0.0059
3786.00,0.0059
3785.00,0.0059
3784.00,0.0059
3783.00,0.0059
3782.00,0.0059
3781.00,0.0059
3780.00,0.0059
3779.00,0.0059
3778.00,0.0059
3777.00,0.0059
3776.00,0.0059
3775.00,0.0059
3774.00,0.0059
3773.00,0.0060
3772.00,0.0060
3771.00,0.0060
3770.00,0.0060
3769.00,0.0060
3768.00,0.0060
3767.00,0.0060
3766.00,0.0059
3765.00,0.0059
3764.00,0.0060
3763.00,0.0060
3762.00,0.0060
3761.00,0.0060
3760.00,0.0059
3759.00,0.0059
3758.00,0.0059
3757.00,0.0059
3756.00,0.0059
3755.00,0.0060
3754.00,0.0060
3753.00,0.0060
3752.00,0.0061
3751.00,0.0060
3750.00,0.0061
3749.00,0.0061
3748.00,0.0061
3747.00,0.0061
3746.00,0.0060
3745.00,0.0059
3744.00,0.0058
3743.00,0.0059
3742.00,0.0059
3741.00,0.0059
3740.00,0.0058
3739.00,0.0058
3738.00,0.0059
3737.00,0.0059
3736.00,0.0059
3735.00,0.0058
3734.00,0.0058
3733.00,0.0057
3732.00,0.0057
3731.00,0.0057
3730.00,0.0057
3729.00,0.0057
3728.00,0.0057
3727.00,0.0057
3726.00,0.0057
3725.00,0.0057
3724.00,0.0057
3723.00,0.0056
3722.00,0.0056
3721.00,0.0056
3720.00,0.0056
3719.00,0.0056
3718.00,0.0056
3717.00,0.0056
3716.00,0.0056
3715.00,0.0057
3714.00,0.0057
3713.00,0.0057
3712.00,0.0057
3711.00,0.0057
3710.00,0.0057
3709.00,0.0057
3708.00,0.0056
3707.00,0.0056
3706.00,0.0056
3705.00,0.0056
3704.00,0.0056
3703.00,0.0055
3702.00,0.0055
3701.00,0.0055
3700.00,0.0055
3699.00,0.0055
3698.00,0.0055
3697.00,0.0055
3696.00,0.0056
3695.00,0.0056
3694.00,0.0057
3693.00,0.0057
3692.00,0.0057
3691.00,0.0057
3690.00,0.0056
3689.00,0.0056
3688.00,0.0056
3687.00,0.0056
3686.00,0.0056
3685.00,0.0055
3684.00,0.0055
3683.00,0.0055
3682.00,0.0055
3681.00,0.0055
3680.00,0.0056
3679.00,0.0057
3678.00,0.0057
3677.00,0.0057
3676.00,0.0056
3675.00,0.0057
3674.00,0.0057
3673.00,0.0058
3672.00,0.0057
3671.00,0.0056
3670.00,0.0055
3669.00,0.0055
3668.00,0.0056
3667.00,0.0055
3666.00,0.0055
3665.00,0.0054
3664.00,0.0054
3663.00,0.0054
3662.00,0.0054
3661.00,0.0054
3660.00,0.0054
3659.00,0.0054
3658.00,0.0055
3657.00,0.0055
3656.00,0.0055
3655.00,0.0056
3654.00,0.0056
3653.00,0.0056
3652.00,0.0056
3651.00,0.0057
3650.00,0.0056
3649.00,0.0056
3648.00,0.0055
3647.00,0.0054
3646.00,0.0054
3645.00,0.0053
3644.00,0.0053
3643.00,0.0053
3642.00,0.0053
3641.00,0.0054
3640.00,0.0054
3639.00,0.0054
3638.00,0.0054
3637.00,0.0054
3636.00,0.0054
3635.00,0.0054
3634.00,0.0054
3633.00,0.0055
3632.00,0.0056
3631.00,0.0056
3630.00,0.0055
3629.00,0.0055
3628.00,0.0055
3627.00,0.0055
3626.00,0.0055
3625.00,0.0054
3624.00,0.0054
3623.00,0.0054
3622.00,0.0055
3621.00,0.0055
3620.00,0.0055
3619.00,0.0055
3618.00,0.0055
3617.00,0.0056
3616.00,0.0056
3615.00,0.0056
3614.00,0.0056
3613.00,0.0056
3612.00,0.0056
3611.00,0.0057
3610.00,0.0057
3609.00,0.0057
3608.00,0.0057
3607.00,0.0057
3606.00,0.0057
3605.00,0.0056
3604.00,0.0056
3603.00,0.0056
3602.00,0.0056
3601.00,0.0056
3600.00,0.0056
3599.00,0.0056
3598.00,0.0056
3597.00,0.0056
3596.00,0.0056
3595.00,0.0056
3594.00,0.0057
3593.00,0.0057
3592.00,0.0057
3591.00,0.0058
3590.00,0.0058
3589.00,0.0058
3588.00,0.0058
3587.00,0.0059
3586.00,0.0059
3585.00,0.0059
3584.00,0.0059
3583.00,0.0059
3582.00,0.0059
3581.00,0.0060
3580.00,0.0060
3579.00,0.0061
3578.00,0.0061
3577.00,0.0061
3576.00,0.0062
3575.00,0.0062
3574.00,0.0062
3573.00,0.0063
3572.00,0.0064
3571.00,0.0065
3570.00,0.0066
3569.00,0.0067
3568.00,0.0068
3567.00,0.0068
3566.00,0.0069
3565.00,0.0069
3564.00,0.0069
3563.00,0.0070
3562.00,0.0071
3561.00,0.0072
3560.00,0.0073
3559.00,0.0075
3558.00,0.0076
3557.00,0.0077
3556.00,0.0078
3555.00,0.0079
3554.00,0.0081
3553.00,0.0082
3552.00,0.0085
3551.00,0.0087
3550.00,0.0089
3549.00,0.0091
3548.00,0.0094
3547.00,0.0097
3546.00,0.0100
3545.00,0.0104
3544.00,0.0108
3543.00,0.0112
3542.00,0.0117
3541.00,0.0122
3540.00,0.0127
3539.00,0.0133
3538.00,0.0140
3537.00,0.0148
3536.00,0.0158
3535.00,0.0168
3534.00,0.0180
3533.00,0.0194
3532.00,0.0211
3531.00,0.0231
3530.00,0.0254
3529.00,0.0281
3528.00,0.0311
3527.00,0.0343
3526.00,0.0376
3525.00,0.0408
3524.00,0.0438
3523.00,0.0463
3522.00,0.0483
3521.00,0.0495
3520.00,0.0501
3519.00,0.0499
3518.00,0.0492
3517.00,0.0480
3516.00,0.0464
3515.00,0.0444
3514.00,0.0423
3513.00,0.0401
3512.00,0.0380
3511.00,0.0359
3510.00,0.0339
3509.00,0.0321
3508.00,0.0306
3507.00,0.0292
3506.00,0.0280
3505.00,0.0270
3504.00,0.0262
3503.00,0.0255
3502.00,0.0250
3501.00,0.0245
3500.00,0.0242
3499.00,0.0239
3498.00,0.0237
3497.00,0.0235
3496.00,0.0234
3495.00,0.0234
3494.00,0.0234
3493.00,0.0234
3492.00,0.0235
3491.00,0.0236
3490.00,0.0237
3489.00,0.0239
3488.00,0.0241
3487.00,0.0244
3486.00,0.0246
3485.00,0.0249
3484.00,0.0251
3483.00,0.0255
3482.00,0.0258
3481.00,0.0262
3480.00,0.0266
3479.00,0.0270
3478.00,0.0274
3477.00,0.0278
3476.00,0.0283
3475.00,0.0287
3474.00,0.0292
3473.00,0.0298
3472.00,0.0303
3471.00,0.0308
3470.00,0.0314
3469.00,0.0320
3468.00,0.0327
3467.00,0.0333
3466.00,0.0340
3465.00,0.0346
3464.00,0.0353
3463.00,0.0359
3462.00,0.0366
3461.00,0.0373
3460.00,0.0380
3459.00,0.0387
3458.00,0.0394
3457.00,0.0401
3456.00,0.0408
3455.00,0.0415
3454.00,0.0421
3453.00,0.0428
3452.00,0.0435
3451.00,0.0441
3450.00,0.0447
3449.00,0.0454
3448.00,0.0461
3447.00,0.0468
3446.00,0.0475
3445.00,0.0481
3444.00,0.0487
3443.00,0.0493
3442.00,0.0500
3441.00,0.0506
3440.00,0.0512
3439.00,0.0519
3438.00,0.0525
3437.00,0.0531
3436.00,0.0537
3435.00,0.0543
3434.00,0.0549
3433.00,0.0554
3432.00,0.0560
3431.00,0.0566
3430.00,0.0572
3429.00,0.0578
3428.00,0.0584
3427.00,0.0590
3426.00,0.0596
3425.00,0.0603
3424.00,0.0610
3423.00,0.0617
3422.00,0.0626
3421.00,0.0636
3420.00,0.0646
3419.00,0.0657
3418.00,0.0667
3417.00,0.0678
3416.00,0.0689
3415.00,0.0700
3414.00,0.0710
3413.00,0.0721
3412.00,0.0730
3411.00,0.0737
3410.00,0.0744
3409.00,0.0748
3408.00,0.0750
3407.00,0.0750
3406.00,0.0747
3405.00,0.0741
3404.00,0.0733
3403.00,0.0723
3402.00,0.0710
3401.00,0.0694
3400.00,0.0676
3399.00,0.0657
3398.00,0.0636
3397.00,0.0615
3396.00,0.0594
3395.00,0.0573
3394.00,0.0553
3393.00,0.0533
3392.00,0.0514
3391.00,0.0495
3390.00,0.0478
3389.00,0.0461
3388.00,0.0445
3387.00,0.0430
3386.00,0.0417
3385.00,0.0404
3384.00,0.0393
3383.00,0.0382
3382.00,0.0372
3381.00,0.0362
3380.00,0.0353
3379.00,0.0344
3378.00,0.0335
3377.00,0.0328
3376.00,0.0320
3375.00,0.0313
3374.00,0.0306
3373.00,0.0300
3372.00,0.0293
3371.00,0.0287
3370.00,0.0281
3369.00,0.0276
3368.00,0.0270
3367.00,0.0265
3366.00,0.0259
3365.00,0.0254
3364.00,0.0249
3363.00,0.0244
3362.00,0.0240
3361.00,0.0235
3360.00,0.0231
3359.00,0.0226
3358.00,0.0222
3357.00,0.0218
3356.00,0.0214
3355.00,0.0211
3354.00,0.0207
3353.00,0.0204
3352.00,0.0201
3351.00,0.0198
3350.00,0.0195
3349.00,0.0192
3348.00,0.0189
3347.00,0.0186
3346.00,0.0183
3345.00,0.0181
3344.00,0.0178
3343.00,0.0176
3342.00,0.0174
3341.00,0.0172
3340.00,0.0170
3339.00,0.0168
3338.00,0.0166
3337.00,0.0163
3336.00,0.0161
3335.00,0.0159
3334.00,0.0157
3333.00,0.0155
3332.00,0.0154
3331.00,0.0152
3330.00,0.0151
3329.00,0.0149
3328.00,0.0148
3327.00,0.0146
3326.00,0.0145
3325.00,0.0143
3324.00,0.0142
3323.00,0.0141
3322.00,0.0139
3321.00,0.0138
3320.00,0.0136
3319.00,0.0135
3318.00,0.0134
3317.00,0.0132
3316.00,0.0131
3315.00,0.0130
3314.00,0.0129
3313.00,0.0128
3312.00,0.0127
3311.00,0.0126
3310.00,0.0125
3309.00,0.0124
3308.00,0.0123
3307.00,0.0122
3306.00,0.0121
3305.00,0.0120
3304.00,0.0119
3303.00,0.0118
3302.00,0.0117
3301.00,0.0116
3300.00,0.0115
3299.00,0.0114
3298.00,0.0113
3297.00,0.0112
3296.00,0.0111
3295.00,0.0111
3294.00,0.0110
3293.00,0.0109
3292.00,0.0108
3291.00,0.0108
3290.00,0.0107
3289.00,0.0106
3288.00,0.0106
3287.00,0.0105
3286.00,0.0105
3285.00,0.0104
3284.00,0.0103
3283.00,0.0102
3282.00,0.0101
3281.00,0.0100
3280.00,0.0100
3279.00,0.0099
3278.00,0.0099
3277.00,0.0098
3276.00,0.0098
3275.00,0.0097
3274.00,0.0096
3273.00,0.0095
3272.00,0.0095
3271.00,0.0094
3270.00,0.0094
3269.00,0.0095
3268.00,0.0095
3267.00,0.0095
3266.00,0.0095
3265.00,0.0095
3264.00,0.0095
3263.00,0.0095
3262.00,0.0094
3261.00,0.0094
3260.00,0.0094
3259.00,0.0093
3258.00,0.0093
3257.00,0.0092
3256.00,0.0091
3255.00,0.0091
3254.00,0.0091
3253.00,0.0092
3252.00,0.0092
3251.00,0.0091
3250.00,0.0091
3249.00,0.0090
3248.00,0.0089
3247.00,0.0089
3246.00,0.0089
3245.00,0.0090
3244.00,0.0090
3243.00,0.0090
3242.00,0.0090
3241.00,0.0089
3240.00,0.0089
3239.00,0.0088
3238.00,0.0087
3237.00,0.0086
3236.00,0.0085
3235.00,0.0084
3234.00,0.0084
3233.00,0.0084
3232.00,0.0084
3231.00,0.0084
3230.00,0.0084
3229.00,0.0084
3228.00,0.0083
3227.00,0.0083
3226.00,0.0083
3225.00,0.0083
3224.00,0.0083
3223.00,0.0083
3222.00,0.0082
3221.00,0.0082
3220.00,0.0082
3219.00,0.0082
3218.00,0.0082
3217.00,0.0082
3216.00,0.0082
3215.00,0.0082
3214.00,0.0082
3213.00,0.0081
3212.00,0.0081
3211.00,0.0081
3210.00,0.0081
3209.00,0.0081
3208.00,0.0081
3207.00,0.0081
3206.00,0.0081
3205.00,0.0081
3204.00,0.0081
3203.00,0.0080
3202.00,0.0080
3201.00,0.0080
3200.00,0.0080
3199.00,0.0080
3198.00,0.0080
3197.00,0.0079
3196.00,0.0079
3195.00,0.0079
3194.00,0.0079
3193.00,0.0079
3192.00,0.0078
3191.00,0.0078
3190.00,0.0078
3189.00,0.0078
3188.00,0.0078
3187.00,0.0078
3186.00,0.0079
3185.00,0.0079
3184.00,0.0079
3183.00,0.0079
3182.00,0.0079
3181.00,0.0079
3180.00,0.0079
3179.00,0.0079
3178.00,0.0080
3177.00,0.0080
3176.00,0.0080
3175.00,0.0080
3174.00,0.0081
3173.00,0.0081
3172.00,0.0081
3171.00,0.0081
3170.00,0.0082
3169.00,0.0082
3168.00,0.0082
3167.00,0.0082
3166.00,0.0082
3165.00,0.0082
3164.00,0.0082
3163.00,0.0082
3162.00,0.0082
3161.00,0.0082
3160.00,0.0082
3159.00,0.0081
3158.00,0.0081
3157.00,0.0080
3156.00,0.0079
3155.00,0.0078
3154.00,0.0077
3153.00,0.0077
3152.00,0.0077
3151.00,0.0077
3150.00,0.0078
3149.00,0.0078
3148.00,0.0078
3147.00,0.0078
3146.00,0.0078
3145.00,0.0078
3144.00,0.0078
3143.00,0.0077
3142.00,0.0077
3141.00,0.0076
3140.00,0.0076
3139.00,0.0076
3138.00,0.0076
3137.00,0.0076
3136.00,0.0076
3135.00,0.0076
3134.00,0.0076
3133.00,0.0076
3132.00,0.0076
3131.00,0.0076
3130.00,0.0076
3129.00,0.0076
3128.00,0.0076
3127.00,0.0076
3126.00,0.0076
3125.00,0.0076
3124.00,0.0076
3123.00,0.0075
3122.00,0.0075
3121.00,0.0075
3120.00,0.0075
3119.00,0.0075
3118.00,0.0074
3117.00,0.0074
3116.00,0.0074
3115.00,0.0074
3114.00,0.0074
3113.00,0.0074
3112.00,0.0075
3111.00,0.0075
3110.00,0.0075
3109.00,0.0075
3108.00,0.0075
3107.00,0.0075
3106.00,0.0075
3105.00,0.0075
3104.00,0.0075
3103.00,0.0076
3102.00,0.0076
3101.00,0.0076
3100.00,0.0076
3099.00,0.0076
3098.00,0.0077
3097.00,0.0077
3096.00,0.0077
3095.00,0.0078
3094.00,0.0078
3093.00,0.0078
3092.00,0.0079
3091.00,0.0080
3090.00,0.0080
3089.00,0.0081
3088.00,0.0082
3087.00,0.0084
3086.00,0.0086
3085.00,0.0089
3084.00,0.0092
3083.00,0.0097
3082.00,0.0103
3081.00,0.0112
3080.00,0.0122
3079.00,0.0133
3078.00,0.0146
3077.00,0.0157
3076.00,0.0166
3075.00,0.0169
3074.00,0.0167
3073.00,0.0161
3072.00,0.0150
3071.00,0.0139
3070.00,0.0128
3069.00,0.0118
3068.00,0.0110
3067.00,0.0104
3066.00,0.0100
3065.00,0.0096
3064.00,0.0094
3063.00,0.0092
3062.00,0.0090
3061.00,0.0088
3060.00,0.0087
3059.00,0.0086
3058.00,0.0086
3057.00,0.0085
3056.00,0.0085
3055.00,0.0085
3054.00,0.0085
3053.00,0.0085
3052.00,0.0085
3051.00,0.0085
3050.00,0.0086
3049.00,0.0086
3048.00,0.0087
3047.00,0.0088
3046.00,0.0090
3045.00,0.0091
3044.00,0.0092
3043.00,0.0094
3042.00,0.0095
3041.00,0.0097
3040.00,0.0098
3039.00,0.0100
3038.00,0.0101
3037.00,0.0103
3036.00,0.0105
3035.00,0.0106
3034.00,0.0108
3033.00,0.0108
3032.00,0.0108
3031.00,0.0108
3030.00,0.0106
3029.00,0.0105
3028.00,0.0103
3027.00,0.0101
3026.00,0.0099
3025.00,0.0098
3024.00,0.0096
3023.00,0.0095
3022.00,0.0095
3021.00,0.0094
3020.00,0.0094
3019.00,0.0094
3018.00,0.0094
3017.00,0.0095
3016.00,0.0095
3015.00,0.0096
3014.00,0.0096
3013.00,0.0097
3012.00,0.0099
3011.00,0.0100
3010.00,0.0101
3009.00,0.0102
3008.00,0.0104
3007.00,0.0105
3006.00,0.0106
3005.00,0.0107
3004.00,0.0108
3003.00,0.0110
3002.00,0.0111
3001.00,0.0113
3000.00,0.0115
2999.00,0.0116
2998.00,0.0118
2997.00,0.0120
2996.00,0.0122
2995.00,0.0125
2994.00,0.0128
2993.00,0.0131
2992.00,0.0135
2991.00,0.0139
2990.00,0.0143
2989.00,0.0147
2988.00,0.0150
2987.00,0.0152
2986.00,0.0155
2985.00,0.0158
2984.00,0.0162
2983.00,0.0167
2982.00,0.0174
2981.00,0.0182
2980.00,0.0191
2979.00,0.0203
2978.00,0.0216
2977.00,0.0232
2976.00,0.0250
2975.00,0.0269
2974.00,0.0291
2973.00,0.0314
2972.00,0.0339
2971.00,0.0363
2970.00,0.0387
2969.00,0.0409
2968.00,0.0428
2967.00,0.0442
2966.00,0.0451
2965.00,0.0455
2964.00,0.0455
2963.00,0.0453
2962.00,0.0449
2961.00,0.0443
2960.00,0.0435
2959.00,0.0426
2958.00,0.0415
2957.00,0.0403
2956.00,0.0390
2955.00,0.0378
2954.00,0.0368
2953.00,0.0359
2952.00,0.0353
2951.00,0.0351
2950.00,0.0352
2949.00,0.0358
2948.00,0.0369
2947.00,0.0384
2946.00,0.0404
2945.00,0.0425
2944.00,0.0446
2943.00,0.0467
2942.00,0.0487
2941.00,0.0505
2940.00,0.0523
2939.00,0.0541
2938.00,0.0561
2937.00,0.0582
2936.00,0.0605
2935.00,0.0629
2934.00,0.0654
2933.00,0.0680
2932.00,0.0706
2931.00,0.0733
2930.00,0.0759
2929.00,0.0783
2928.00,0.0806
2927.00,0.0824
2926.00,0.0836
2925.00,0.0842
2924.00,0.0842
2923.00,0.0838
2922.00,0.0831
2921.00,0.0823
2920.00,0.0816
2919.00,0.0809
2918.00,0.0802
2917.00,0.0795
2916.00,0.0786
2915.00,0.0774
2914.00,0.0759
2913.00,0.0740
2912.00,0.0719
2911.00,0.0695
2910.00,0.0670
2909.00,0.0646
2908.00,0.0622
2907.00,0.0599
2906.00,0.0578
2905.00,0.0560
2904.00,0.0543
2903.00,0.0529
2902.00,0.0517
2901.00,0.0504
2900.00,0.0492
2899.00,0.0478
2898.00,0.0464
2897.00,0.0449
2896.00,0.0433
2895.00,0.0419
2894.00,0.0406
2893.00,0.0394
2892.00,0.0385
2891.00,0.0377
2890.00,0.0371
2889.00,0.0366
2888.00,0.0362
2887.00,0.0359
2886.00,0.0357
2885.00,0.0356
2884.00,0.0355
2883.00,0.0355
2882.00,0.0355
2881.00,0.0357
2880.00,0.0359
2879.00,0.0363
2878.00,0.0368
2877.00,0.0374
2876.00,0.0380
2875.00,0.0387
2874.00,0.0394
2873.00,0.0400
2872.00,0.0403
2871.00,0.0404
2870.00,0.0401
2869.00,0.0397
2868.00,0.0393
2867.00,0.0391
2866.00,0.0392
2865.00,0.0399
2864.00,0.0411
2863.00,0.0430
2862.00,0.0456
2861.00,0.0488
2860.00,0.0524
2859.00,0.0562
2858.00,0.0596
2857.00,0.0621
2856.00,0.0632
2855.00,0.0626
2854.00,0.0606
2853.00,0.0574
2852.00,0.0536
2851.00,0.0496
2850.00,0.0456
2849.00,0.0419
2848.00,0.0385
2847.00,0.0354
2846.00,0.0328
2845.00,0.0305
2844.00,0.0285
2843.00,0.0270
2842.00,0.0257
2841.00,0.0247
2840.00,0.0240
2839.00,0.0236
2838.00,0.0236
2837.00,0.0239
2836.00,0.0246
2835.00,0.0259
2834.00,0.0276
2833.00,0.0296
2832.00,0.0318
2831.00,0.0337
2830.00,0.0348
2829.00,0.0348
2828.00,0.0337
2827.00,0.0316
2826.00,0.0291
2825.00,0.0264
2824.00,0.0240
2823.00,0.0219
2822.00,0.0203
2821.00,0.0190
2820.00,0.0179
2819.00,0.0171
2818.00,0.0164
2817.00,0.0158
2816.00,0.0153
2815.00,0.0149
2814.00,0.0145
2813.00,0.0142
2812.00,0.0139
2811.00,0.0136
2810.00,0.0134
2809.00,0.0132
2808.00,0.0130
2807.00,0.0128
2806.00,0.0127
2805.00,0.0125
2804.00,0.0123
2803.00,0.0121
2802.00,0.0120
2801.00,0.0118
2800.00,0.0117
2799.00,0.0115
2798.00,0.0114
2797.00,0.0113
2796.00,0.0111
2795.00,0.0110
2794.00,0.0109
2793.00,0.0109
2792.00,0.0108
2791.00,0.0107
2790.00,0.0106
2789.00,0.0105
2788.00,0.0105
2787.00,0.0104
2786.00,0.0103
2785.00,0.0102
2784.00,0.0102
2783.00,0.0101
2782.00,0.0100
2781.00,0.0099
2780.00,0.0098
2779.00,0.0097
2778.00,0.0097
2777.00,0.0096
2776.00,0.0096
2775.00,0.0095
2774.00,0.0095
2773.00,0.0094
2772.00,0.0094
2771.00,0.0094
2770.00,0.0093
2769.00,0.0093
2768.00,0.0092
2767.00,0.0092
2766.00,0.0091
2765.00,0.0091
2764.00,0.0090
2763.00,0.0090
2762.00,0.0090
2761.00,0.0089
2760.00,0.0089
2759.00,0.0089
2758.00,0.0088
2757.00,0.0088
