Created as New Dataset,Sample 043 By YargerLab Date Tuesday, August 12 2025
cm-1,A
4000.00,0.0097
3999.00,0.0097
3998.00,0.0097
3997.00,0.0097
3996.00,0.0097
3995.00,0.0097
3994.00,0.0097
3993.00,0.0097
3992.00,0.0097
3991.00,0.0097
3990.00,0.0097
3989.00,0.0097
3988.00,0.0097
3987.00,0.0097
3986.00,0.0097
3985.00,0.0097
3984.00,0.0097
3983.00,0.0097
3982.00,0.0097
3981.00,0.0097
3980.00,0.0097
3979.00,0.0098
3978.00,0.0098
3977.00,0.0098
3976.00,0.0098
3975.00,0.0098
3974.00,0.0098
3973.00,0.0098
3972.00,0.0098
3971.00,0.0098
3970.00,0.0098
3969.00,0.0098
3968.00,0.0098
3967.00,0.0098
3966.00,0.0098
3965.00,0.0098
3964.00,0.0097
3963.00,0.0097
3962.00,0.0097
3961.00,0.0097
3960.00,0.0097
3959.00,0.0097
3958.00,0.0097
3957.00,0.0097
3956.00,0.0097
3955.00,0.0096
3954.00,0.0096
3953.00,0.0096
3952.00,0.0096
3951.00,0.0096
3950.00,0.0096
3949.00,0.0096
3948.00,0.0096
3947.00,0.0096
3946.00,0.0096
3945.00,0.0096
3944.00,0.0096
3943.00,0.0096
3942.00,0.0096
3941.00,0.0096
3940.00,0.0096
3939.00,0.0096
3938.00,0.0096
3937.00,0.0096
3936.00,0.0096
3935.00,0.0096
3934.00,0.0096
3933.00,0.0096
3932.00,0.0096
3931.00,0.0096
3930.00,0.0096
3929.00,0.0096
3928.00,0.0096
3927.00,0.0096
3926.00,0.0096
3925.00,0.0096
3924.00,0.0096
3923.00,0.0096
3922.00,0.0096
3921.00,0.0096
3920.00,0.0096
3919.00,0.0096
3918.00,0.0096
3917.00,0.0097
3916.00,0.0097
3915.00,0.0097
3914.00,0.0096
3913.00,0.0096
3912.00,0.0096
3911.00,0.0097
3910.00,0.0096
3909.00,0.0096
3908.00,0.0096
3907.00,0.0096
3906.00,0.0096
3905.00,0.0095
3904.00,0.0095
3903.00,0.0095
3902.00,0.0095
3901.00,0.0095
3900.00,0.0095
3899.00,0.0095
3898.00,0.0095
3897.00,0.0095
3896.00,0.0096
3895.00,0.0096
3894.00,0.0095
3893.00,0.0095
3892.00,0.0095
3891.00,0.0095
3890.00,0.0095
3889.00,0.0094
3888.00,0.0094
3887.00,0.0095
3886.00,0.0095
3885.00,0.0094
3884.00,0.0094
3883.00,0.0094
3882.00,0.0094
3881.00,0.0095
3880.00,0.0095
3879.00,0.0095
3878.00,0.0095
3877.00,0.0095
3876.00,0.0095
3875.00,0.0095
3874.00,0.0095
3873.00,0.0094
3872.00,0.0094
3871.00,0.0094
3870.00,0.0094
3869.00,0.0094
3868.00,0.0094
3867.00,0.0094
3866.00,0.0094
3865.00,0.0095
3864.00,0.0095
3863.00,0.0095
3862.00,0.0095
3861.00,0.0095
3860.00,0.0095
3859.00,0.0095
3858.00,0.0094
3857.00,0.0093
3856.00,0.0093
3855.00,0.0093
3854.00,0.0093
3853.00,0.0094
3852.00,0.0094
3851.00,0.0094
3850.00,0.0094
3849.00,0.0095
3848.00,0.0095
3847.00,0.0095
3846.00,0.0095
3845.00,0.0095
3844.00,0.0095
3843.00,0.0094
3842.00,0.0094
3841.00,0.0093
3840.00,0.0093
3839.00,0.0093
3838.00,0.0093
3837.00,0.0093
3836.00,0.0093
3835.00,0.0094
3834.00,0.0094
3833.00,0.0094
3832.00,0.0095
3831.00,0.0094
3830.00,0.0094
3829.00,0.0094
3828.00,0.0094
3827.00,0.0094
3826.00,0.0094
3825.00,0.0093
3824.00,0.0093
3823.00,0.0093
3822.00,0.0093
3821.00,0.0093
3820.00,0.0093
3819.00,0.0093
3818.00,0.0093
3817.00,0.0094
3816.00,0.0094
3815.00,0.0094
3814.00,0.0093
3813.00,0.0094
3812.00,0.0094
3811.00,0.0094
3810.00,0.0094
3809.00,0.0093
3808.00,0.0094
3807.00,0.0094
3806.00,0.0093
3805.00,0.0092
3804.00,0.0092
3803.00,0.0092
3802.00,0.0093
3801.00,0.0093
3800.00,0.0093
3799.00,0.0093
3798.00,0.0094
3797.00,0.0095
3796.00,0.0094
3795.00,0.0094
3794.00,0.0094
3793.00,0.0094
3792.00,0.0094
3791.00,0.0094
3790.00,0.0094
3789.00,0.0094
3788.00,0.0094
3787.00,0.0094
3786.00,0.0094
3785.00,0.0094
3784.00,0.0093
3783.00,0.0093
3782.00,0.0093
3781.00,0.0093
3780.00,0.0093
3779.00,0.0093
3778.00,0.0093
3777.00,0.0093
3776.00,0.0094
3775.00,0.0094
3774.00,0.0093
3773.00,0.0093
3772.00,0.0093
3771.00,0.0093
3770.00,0.0093
3769.00,0.0093
3768.00,0.0093
3767.00,0.0094
3766.00,0.0094
3765.00,0.0093
3764.00,0.0093
3763.00,0.0092
3762.00,0.0092
3761.00,0.0093
3760.00,0.0093
3759.00,0.0093
3758.00,0.0093
3757.00,0.0092
3756.00,0.0092
3755.00,0.0092
3754.00,0.0092
3753.00,0.0092
3752.00,0.0092
3751.00,0.0092
3750.00,0.0092
3749.00,0.0092
3748.00,0.0092
3747.00,0.0092
3746.00,0.0092
3745.00,0.0093
3744.00,0.0093
3743.00,0.0092
3742.00,0.0092
3741.00,0.0092
3740.00,0.0092
3739.00,0.0092
3738.00,0.0091
3737.00,0.0091
3736.00,0.0091
3735.00,0.0091
3734.00,0.0091
3733.00,0.0092
3732.00,0.0092
3731.00,0.0092
3730.00,0.0092
3729.00,0.0092
3728.00,0.0092
3727.00,0.0091
3726.00,0.0091
3725.00,0.0090
3724.00,0.0090
3723.00,0.0090
3722.00,0.0090
3721.00,0.0090
3720.00,0.0090
3719.00,0.0090
3718.00,0.0091
3717.00,0.0091
3716.00,0.0091
3715.00,0.0091
3714.00,0.0091
3713.00,0.0091
3712.00,0.0091
3711.00,0.0091
3710.00,0.0091
3709.00,0.0091
3708.00,0.0090
3707.00,0.0090
3706.00,0.0090
3705.00,0.0090
3704.00,0.0090
3703.00,0.0090
3702.00,0.0090
3701.00,0.0090
3700.00,0.0090
3699.00,0.0090
3698.00,0.0090
3697.00,0.0090
3696.00,0.0090
3695.00,0.0090
3694.00,0.0090
3693.00,0.0090
3692.00,0.0090
3691.00,0.0090
3690.00,0.0091
3689.00,0.0091
3688.00,0.0091
3687.00,0.0091
3686.00,0.0091
3685.00,0.0092
3684.00,0.0092
3683.00,0.0092
3682.00,0.0092
3681.00,0.0092
3680.00,0.0092
3679.00,0.0091
3678.00,0.0091
3677.00,0.0091
3676.00,0.0091
3675.00,0.0092
3674.00,0.0091
3673.00,0.0092
3672.00,0.0092
3671.00,0.0093
3670.00,0.0093
3669.00,0.0093
3668.00,0.0093
3667.00,0.0093
3666.00,0.0093
3665.00,0.0093
3664.00,0.0093
3663.00,0.0093
3662.00,0.0093
3661.00,0.0093
3660.00,0.0093
3659.00,0.0093
3658.00,0.0093
3657.00,0.0093
3656.00,0.0093
3655.00,0.0093
3654.00,0.0093
3653.00,0.0093
3652.00,0.0093
3651.00,0.0093
3650.00,0.0093
3649.00,0.0092
3648.00,0.0093
3647.00,0.0093
3646.00,0.0094
3645.00,0.0094
3644.00,0.0095
3643.00,0.0095
3642.00,0.0096
3641.00,0.0096
3640.00,0.0096
3639.00,0.0096
3638.00,0.0096
3637.00,0.0096
3636.00,0.0096
3635.00,0.0096
3634.00,0.0096
3633.00,0.0096
3632.00,0.0096
3631.00,0.0096
3630.00,0.0096
3629.00,0.0096
3628.00,0.0096
3627.00,0.0096
3626.00,0.0097
3625.00,0.0098
3624.00,0.0098
3623.00,0.0098
3622.00,0.0098
3621.00,0.0098
3620.00,0.0099
3619.00,0.0099
3618.00,0.0100
3617.00,0.0100
3616.00,0.0100
3615.00,0.0101
3614.00,0.0102
3613.00,0.0102
3612.00,0.0102
3611.00,0.0102
3610.00,0.0102
3609.00,0.0102
3608.00,0.0102
3607.00,0.0103
3606.00,0.0103
3605.00,0.0104
3604.00,0.0104
3603.00,0.0104
3602.00,0.0104
3601.00,0.0105
3600.00,0.0105
3599.00,0.0106
3598.00,0.0106
3597.00,0.0106
3596.00,0.0106
3595.00,0.0106
3594.00,0.0106
3593.00,0.0107
3592.00,0.0107
3591.00,0.0107
3590.00,0.0108
3589.00,0.0109
3588.00,0.0110
3587.00,0.0110
3586.00,0.0110
3585.00,0.0111
3584.00,0.0111
3583.00,0.0112
3582.00,0.0112
3581.00,0.0113
3580.00,0.0113
3579.00,0.0114
3578.00,0.0114
3577.00,0.0114
3576.00,0.0115
3575.00,0.0115
3574.00,0.0116
3573.00,0.0116
3572.00,0.0117
3571.00,0.0117
3570.00,0.0117
3569.00,0.0118
3568.00,0.0119
3567.00,0.0119
3566.00,0.0119
3565.00,0.0120
3564.00,0.0120
3563.00,0.0121
3562.00,0.0122
3561.00,0.0123
3560.00,0.0124
3559.00,0.0124
3558.00,0.0125
3557.00,0.0125
3556.00,0.0126
3555.00,0.0126
3554.00,0.0127
3553.00,0.0127
3552.00,0.0128
3551.00,0.0128
3550.00,0.0129
3549.00,0.0129
3548.00,0.0130
3547.00,0.0131
3546.00,0.0131
3545.00,0.0132
3544.00,0.0132
3543.00,0.0133
3542.00,0.0134
3541.00,0.0134
3540.00,0.0135
3539.00,0.0136
3538.00,0.0136
3537.00,0.0137
3536.00,0.0138
3535.00,0.0138
3534.00,0.0139
3533.00,0.0139
3532.00,0.0140
3531.00,0.0141
3530.00,0.0141
3529.00,0.0142
3528.00,0.0142
3527.00,0.0143
3526.00,0.0144
3525.00,0.0144
3524.00,0.0145
3523.00,0.0146
3522.00,0.0146
3521.00,0.0147
3520.00,0.0148
3519.00,0.0149
3518.00,0.0150
3517.00,0.0150
3516.00,0.0151
3515.00,0.0152
3514.00,0.0153
3513.00,0.0153
3512.00,0.0154
3511.00,0.0154
3510.00,0.0155
3509.00,0.0156
3508.00,0.0156
3507.00,0.0157
3506.00,0.0158
3505.00,0.0159
3504.00,0.0160
3503.00,0.0160
3502.00,0.0161
3501.00,0.0162
3500.00,0.0163
3499.00,0.0164
3498.00,0.0166
3497.00,0.0167
3496.00,0.0168
3495.00,0.0169
3494.00,0.0170
3493.00,0.0171
3492.00,0.0172
3491.00,0.0173
3490.00,0.0174
3489.00,0.0176
3488.00,0.0177
3487.00,0.0178
3486.00,0.0180
3485.00,0.0181
3484.00,0.0182
3483.00,0.0184
3482.00,0.0185
3481.00,0.0187
3480.00,0.0188
3479.00,0.0190
3478.00,0.0191
3477.00,0.0193
3476.00,0.0194
3475.00,0.0196
3474.00,0.0198
3473.00,0.0200
3472.00,0.0202
3471.00,0.0204
3470.00,0.0206
3469.00,0.0208
3468.00,0.0210
3467.00,0.0211
3466.00,0.0213
3465.00,0.0215
3464.00,0.0217
3463.00,0.0219
3462.00,0.0221
3461.00,0.0222
3460.00,0.0224
3459.00,0.0226
3458.00,0.0228
3457.00,0.0230
3456.00,0.0232
3455.00,0.0234
3454.00,0.0237
3453.00,0.0239
3452.00,0.0241
3451.00,0.0243
3450.00,0.0246
3449.00,0.0248
3448.00,0.0250
3447.00,0.0253
3446.00,0.0255
3445.00,0.0257
3444.00,0.0260
3443.00,0.0262
3442.00,0.0265
3441.00,0.0267
3440.00,0.0270
3439.00,0.0273
3438.00,0.0276
3437.00,0.0280
3436.00,0.0283
3435.00,0.0286
3434.00,0.0289
3433.00,0.0292
3432.00,0.0295
3431.00,0.0299
3430.00,0.0302
3429.00,0.0306
3428.00,0.0309
3427.00,0.0313
3426.00,0.0316
3425.00,0.0320
3424.00,0.0324
3423.00,0.0328
3422.00,0.0331
3421.00,0.0335
3420.00,0.0339
3419.00,0.0343
3418.00,0.0346
3417.00,0.0350
3416.00,0.0353
3415.00,0.0357
3414.00,0.0360
3413.00,0.0364
3412.00,0.0367
3411.00,0.0370
3410.00,0.0372
3409.00,0.0375
3408.00,0.0377
3407.00,0.0379
3406.00,0.0381
3405.00,0.0382
3404.00,0.0384
3403.00,0.0385
3402.00,0.0386
3401.00,0.0387
3400.00,0.0387
3399.00,0.0386
3398.00,0.0386
3397.00,0.0385
3396.00,0.0384
3395.00,0.0383
3394.00,0.0382
3393.00,0.0381
3392.00,0.0380
3391.00,0.0378
3390.00,0.0376
3389.00,0.0374
3388.00,0.0371
3387.00,0.0369
3386.00,0.0367
3385.00,0.0365
3384.00,0.0362
3383.00,0.0360
3382.00,0.0358
3381.00,0.0355
3380.00,0.0352
3379.00,0.0350
3378.00,0.0347
3377.00,0.0345
3376.00,0.0343
3375.00,0.0340
3374.00,0.0338
3373.00,0.0336
3372.00,0.0333
3371.00,0.0331
3370.00,0.0329
3369.00,0.0327
3368.00,0.0325
3367.00,0.0323
3366.00,0.0321
3365.00,0.0319
3364.00,0.0317
3363.00,0.0315
3362.00,0.0314
3361.00,0.0312
3360.00,0.0310
3359.00,0.0308
3358.00,0.0307
3357.00,0.0306
3356.00,0.0304
3355.00,0.0302
3354.00,0.0301
3353.00,0.0300
3352.00,0.0299
3351.00,0.0298
3350.00,0.0297
3349.00,0.0296
3348.00,0.0295
3347.00,0.0294
3346.00,0.0293
3345.00,0.0292
3344.00,0.0291
3343.00,0.0291
3342.00,0.0290
3341.00,0.0289
3340.00,0.0289
3339.00,0.0288
3338.00,0.0288
3337.00,0.0288
3336.00,0.0287
3335.00,0.0287
3334.00,0.0287
3333.00,0.0287
3332.00,0.0287
3331.00,0.0287
3330.00,0.0287
3329.00,0.0287
3328.00,0.0287
3327.00,0.0287
3326.00,0.0287
3325.00,0.0288
3324.00,0.0288
3323.00,0.0289
3322.00,0.0289
3321.00,0.0290
3320.00,0.0291
3319.00,0.0291
3318.00,0.0292
3317.00,0.0292
3316.00,0.0293
3315.00,0.0294
3314.00,0.0294
3313.00,0.0295
3312.00,0.0296
3311.00,0.0297
3310.00,0.0298
3309.00,0.0298
3308.00,0.0299
3307.00,0.0300
3306.00,0.0300
3305.00,0.0302
3304.00,0.0303
3303.00,0.0304
3302.00,0.0306
3301.00,0.0307
3300.00,0.0308
3299.00,0.0309
3298.00,0.0311
3297.00,0.0312
3296.00,0.0313
3295.00,0.0314
3294.00,0.0316
3293.00,0.0317
3292.00,0.0318
3291.00,0.0320
3290.00,0.0322
3289.00,0.0323
3288.00,0.0325
3287.00,0.0326
3286.00,0.0328
3285.00,0.0329
3284.00,0.0330
3283.00,0.0331
3282.00,0.0333
3281.00,0.0334
3280.00,0.0335
3279.00,0.0337
3278.00,0.0338
3277.00,0.0339
3276.00,0.0340
3275.00,0.0342
3274.00,0.0343
3273.00,0.0345
3272.00,0.0346
3271.00,0.0348
3270.00,0.0349
3269.00,0.0351
3268.00,0.0352
3267.00,0.0353
3266.00,0.0355
3265.00,0.0356
3264.00,0.0357
3263.00,0.0359
3262.00,0.0360
3261.00,0.0361
3260.00,0.0363
3259.00,0.0364
3258.00,0.0366
3257.00,0.0367
3256.00,0.0369
3255.00,0.0370
3254.00,0.0372
3253.00,0.0373
3252.00,0.0375
3251.00,0.0376
3250.00,0.0376
3249.00,0.0377
3248.00,0.0378
3247.00,0.0379
3246.00,0.0380
3245.00,0.0381
3244.00,0.0382
3243.00,0.0383
3242.00,0.0384
3241.00,0.0385
3240.00,0.0385
3239.00,0.0385
3238.00,0.0385
3237.00,0.0385
3236.00,0.0385
3235.00,0.0385
3234.00,0.0385
3233.00,0.0385
3232.00,0.0385
3231.00,0.0385
3230.00,0.0385
3229.00,0.0385
3228.00,0.0384
3227.00,0.0384
3226.00,0.0383
3225.00,0.0383
3224.00,0.0383
3223.00,0.0382
3222.00,0.0382
3221.00,0.0381
3220.00,0.0379
3219.00,0.0378
3218.00,0.0377
3217.00,0.0376
3216.00,0.0374
3215.00,0.0373
3214.00,0.0371
3213.00,0.0370
3212.00,0.0368
3211.00,0.0367
3210.00,0.0365
3209.00,0.0364
3208.00,0.0362
3207.00,0.0360
3206.00,0.0358
3205.00,0.0356
3204.00,0.0354
3203.00,0.0352
3202.00,0.0350
3201.00,0.0347
3200.00,0.0345
3199.00,0.0343
3198.00,0.0340
3197.00,0.0338
3196.00,0.0336
3195.00,0.0334
3194.00,0.0332
3193.00,0.0329
3192.00,0.0327
3191.00,0.0324
3190.00,0.0322
3189.00,0.0320
3188.00,0.0318
3187.00,0.0316
3186.00,0.0314
3185.00,0.0311
3184.00,0.0309
3183.00,0.0307
3182.00,0.0304
3181.00,0.0302
3180.00,0.0300
3179.00,0.0298
3178.00,0.0295
3177.00,0.0293
3176.00,0.0291
3175.00,0.0289
3174.00,0.0286
3173.00,0.0284
3172.00,0.0282
3171.00,0.0279
3170.00,0.0277
3169.00,0.0274
3168.00,0.0272
3167.00,0.0270
3166.00,0.0267
3165.00,0.0265
3164.00,0.0263
3163.00,0.0260
3162.00,0.0258
3161.00,0.0255
3160.00,0.0253
3159.00,0.0251
3158.00,0.0249
3157.00,0.0247
3156.00,0.0244
3155.00,0.0242
3154.00,0.0239
3153.00,0.0237
3152.00,0.0235
3151.00,0.0233
3150.00,0.0232
3149.00,0.0230
3148.00,0.0229
3147.00,0.0227
3146.00,0.0225
3145.00,0.0223
3144.00,0.0221
3143.00,0.0219
3142.00,0.0217
3141.00,0.0215
3140.00,0.0213
3139.00,0.0212
3138.00,0.0210
3137.00,0.0209
3136.00,0.0207
3135.00,0.0206
3134.00,0.0205
3133.00,0.0203
3132.00,0.0201
3131.00,0.0200
3130.00,0.0198
3129.00,0.0197
3128.00,0.0196
3127.00,0.0195
3126.00,0.0194
3125.00,0.0193
3124.00,0.0192
3123.00,0.0191
3122.00,0.0190
3121.00,0.0189
3120.00,0.0189
3119.00,0.0188
3118.00,0.0187
3117.00,0.0185
3116.00,0.0184
3115.00,0.0182
3114.00,0.0181
3113.00,0.0179
3112.00,0.0178
3111.00,0.0177
3110.00,0.0175
3109.00,0.0174
3108.00,0.0173
3107.00,0.0172
3106.00,0.0170
3105.00,0.0169
3104.00,0.0168
3103.00,0.0167
3102.00,0.0166
3101.00,0.0165
3100.00,0.0164
3099.00,0.0164
3098.00,0.0163
3097.00,0.0163
3096.00,0.0163
3095.00,0.0162
3094.00,0.0162
3093.00,0.0162
3092.00,0.0162
3091.00,0.0163
3090.00,0.0164
3089.00,0.0164
3088.00,0.0164
3087.00,0.0164
3086.00,0.0165
3085.00,0.0165
3084.00,0.0165
3083.00,0.0165
3082.00,0.0164
3081.00,0.0164
3080.00,0.0163
3079.00,0.0163
3078.00,0.0162
3077.00,0.0161
3076.00,0.0160
3075.00,0.0160
3074.00,0.0159
3073.00,0.0159
3072.00,0.0158
3071.00,0.0158
3070.00,0.0157
3069.00,0.0157
3068.00,0.0157
3067.00,0.0157
3066.00,0.0157
3065.00,0.0157
3064.00,0.0157
3063.00,0.0157
3062.00,0.0157
3061.00,0.0157
3060.00,0.0158
3059.00,0.0158
3058.00,0.0158
3057.00,0.0159
3056.00,0.0159
3055.00,0.0159
3054.00,0.0159
3053.00,0.0160
3052.00,0.0160
3051.00,0.0159
3050.00,0.0159
3049.00,0.0158
3048.00,0.0158
3047.00,0.0157
3046.00,0.0157
3045.00,0.0157
3044.00,0.0156
3043.00,0.0156
3042.00,0.0157
3041.00,0.0157
3040.00,0.0158
3039.00,0.0160
3038.00,0.0162
3037.00,0.0163
3036.00,0.0165
3035.00,0.0167
3034.00,0.0168
3033.00,0.0169
3032.00,0.0169
3031.00,0.0169
3030.00,0.0168
3029.00,0.0166
3028.00,0.0165
3027.00,0.0163
3026.00,0.0161
3025.00,0.0159
3024.00,0.0158
3023.00,0.0156
3022.00,0.0154
3021.00,0.0153
3020.00,0.0152
3019.00,0.0151
3018.00,0.0150
3017.00,0.0149
3016.00,0.0149
3015.00,0.0149
3014.00,0.0149
3013.00,0.0149
3012.00,0.0149
3011.00,0.0150
3010.00,0.0151
3009.00,0.0152
3008.00,0.0154
3007.00,0.0156
3006.00,0.0159
3005.00,0.0162
3004.00,0.0165
3003.00,0.0169
3002.00,0.0173
3001.00,0.0178
3000.00,0.0183
2999.00,0.0189
2998.00,0.0195
2997.00,0.0202
2996.00,0.0209
2995.00,0.0217
2994.00,0.0223
2993.00,0.0229
2992.00,0.0234
2991.00,0.0238
2990.00,0.0241
2989.00,0.0244
2988.00,0.0248
2987.00,0.0253
2986.00,0.0259
2985.00,0.0267
2984.00,0.0277
2983.00,0.0289
2982.00,0.0303
2981.00,0.0317
2980.00,0.0330
2979.00,0.0339
2978.00,0.0345
2977.00,0.0349
2976.00,0.0352
2975.00,0.0358
2974.00,0.0368
2973.00,0.0383
2972.00,0.0400
2971.00,0.0417
2970.00,0.0431
2969.00,0.0441
2968.00,0.0448
2967.00,0.0453
2966.00,0.0459
2965.00,0.0466
2964.00,0.0475
2963.00,0.0485
2962.00,0.0494
2961.00,0.0501
2960.00,0.0504
2959.00,0.0503
2958.00,0.0496
2957.00,0.0485
2956.00,0.0470
2955.00,0.0453
2954.00,0.0436
2953.00,0.0420
2952.00,0.0407
2951.00,0.0395
2950.00,0.0387
2949.00,0.0382
2948.00,0.0380
2947.00,0.0381
2946.00,0.0385
2945.00,0.0391
2944.00,0.0399
2943.00,0.0409
2942.00,0.0421
2941.00,0.0433
2940.00,0.0448
2939.00,0.0465
2938.00,0.0486
2937.00,0.0510
2936.00,0.0537
2935.00,0.0568
2934.00,0.0601
2933.00,0.0635
2932.00,0.0669
2931.00,0.0703
2930.00,0.0733
2929.00,0.0759
2928.00,0.0779
2927.00,0.0790
2926.00,0.0794
2925.00,0.0789
2924.00,0.0778
2923.00,0.0763
2922.00,0.0744
2921.00,0.0723
2920.00,0.0701
2919.00,0.0677
2918.00,0.0654
2917.00,0.0630
2916.00,0.0606
2915.00,0.0584
2914.00,0.0563
2913.00,0.0543
2912.00,0.0525
2911.00,0.0509
2910.00,0.0494
2909.00,0.0480
2908.00,0.0467
2907.00,0.0455
2906.00,0.0444
2905.00,0.0433
2904.00,0.0423
2903.00,0.0414
2902.00,0.0405
2901.00,0.0396
2900.00,0.0387
2899.00,0.0379
2898.00,0.0372
2897.00,0.0364
2896.00,0.0358
2895.00,0.0352
2894.00,0.0346
2893.00,0.0341
2892.00,0.0336
2891.00,0.0331
2890.00,0.0327
2889.00,0.0322
2888.00,0.0318
2887.00,0.0315
2886.00,0.0311
2885.00,0.0309
2884.00,0.0307
2883.00,0.0306
2882.00,0.0307
2881.00,0.0309
2880.00,0.0314
2879.00,0.0320
2878.00,0.0328
2877.00,0.0338
2876.00,0.0350
2875.00,0.0360
2874.00,0.0370
2873.00,0.0377
2872.00,0.0380
2871.00,0.0381
2870.00,0.0380
2869.00,0.0377
2868.00,0.0374
2867.00,0.0373
2866.00,0.0376
2865.00,0.0383
2864.00,0.0394
2863.00,0.0411
2862.00,0.0433
2861.00,0.0458
2860.00,0.0485
2859.00,0.0512
2858.00,0.0535
2857.00,0.0553
2856.00,0.0564
2855.00,0.0570
2854.00,0.0570
2853.00,0.0565
2852.00,0.0555
2851.00,0.0540
2850.00,0.0519
2849.00,0.0494
2848.00,0.0465
2847.00,0.0435
2846.00,0.0407
2845.00,0.0380
2844.00,0.0356
2843.00,0.0334
2842.00,0.0315
2841.00,0.0298
2840.00,0.0284
2839.00,0.0272
2838.00,0.0261
2837.00,0.0252
2836.00,0.0245
2835.00,0.0238
2834.00,0.0232
2833.00,0.0226
2832.00,0.0221
2831.00,0.0216
2830.00,0.0212
2829.00,0.0208
2828.00,0.0204
2827.00,0.0200
2826.00,0.0197
2825.00,0.0194
2824.00,0.0191
2823.00,0.0188
2822.00,0.0186
2821.00,0.0183
2820.00,0.0181
2819.00,0.0179
2818.00,0.0177
2817.00,0.0175
2816.00,0.0174
2815.00,0.0172
2814.00,0.0171
2813.00,0.0169
2812.00,0.0168
2811.00,0.0167
2810.00,0.0165
2809.00,0.0164
2808.00,0.0163
2807.00,0.0162
2806.00,0.0162
2805.00,0.0161
2804.00,0.0160
2803.00,0.0159
2802.00,0.0158
2801.00,0.0157
2800.00,0.0156
2799.00,0.0155
2798.00,0.0154
2797.00,0.0153
2796.00,0.0152
2795.00,0.0151
2794.00,0.0150
2793.00,0.0149
2792.00,0.0149
2791.00,0.0148
2790.00,0.0147
2789.00,0.0146
2788.00,0.0145
2787.00,0.0145
2786.00,0.0144
2785.00,0.0144
2784.00,0.0143
2783.00,0.0143
2782.00,0.0142
2781.00,0.0142
2780.00,0.0141
2779.00,0.0141
2778.00,0.0140
2777.00,0.0139
2776.00,0.0139
2775.00,0.0138
2774.00,0.0138
2773.00,0.0137
2772.00,0.0137
2771.00,0.0137
2770.00,0.0137
2769.00,0.0137
2768.00,0.0137
2767.00,0.0136
2766.00,0.0136
2765.00,0.0136
2764.00,0.0136
2763.00,0.0136
2762.00,0.0136
2761.00,0.0135
2760.00,0.0135
2759.00,0.0136
2758.00,0.0136
2757.00,0.0136
