Created as New Dataset,Sample 1005 By YargerLab Date Thursday, July 31 2025
cm-1,A
4000.00,0.0060
3999.00,0.0060
3998.00,0.0060
3997.00,0.0060
3996.00,0.0060
3995.00,0.0060
3994.00,0.0060
3993.00,0.0060
3992.00,0.0059
3991.00,0.0059
3990.00,0.0059
3989.00,0.0059
3988.00,0.0059
3987.00,0.0059
3986.00,0.0059
3985.00,0.0059
3984.00,0.0059
3983.00,0.0059
3982.00,0.0059
3981.00,0.0059
3980.00,0.0059
3979.00,0.0059
3978.00,0.0059
3977.00,0.0059
3976.00,0.0059
3975.00,0.0059
3974.00,0.0059
3973.00,0.0059
3972.00,0.0059
3971.00,0.0059
3970.00,0.0059
3969.00,0.0059
3968.00,0.0059
3967.00,0.0059
3966.00,0.0059
3965.00,0.0059
3964.00,0.0059
3963.00,0.0059
3962.00,0.0059
3961.00,0.0059
3960.00,0.0058
3959.00,0.0058
3958.00,0.0058
3957.00,0.0058
3956.00,0.0059
3955.00,0.0059
3954.00,0.0059
3953.00,0.0059
3952.00,0.0059
3951.00,0.0059
3950.00,0.0059
3949.00,0.0059
3948.00,0.0059
3947.00,0.0059
3946.00,0.0059
3945.00,0.0059
3944.00,0.0059
3943.00,0.0059
3942.00,0.0059
3941.00,0.0059
3940.00,0.0059
3939.00,0.0059
3938.00,0.0059
3937.00,0.0059
3936.00,0.0058
3935.00,0.0058
3934.00,0.0058
3933.00,0.0059
3932.00,0.0059
3931.00,0.0059
3930.00,0.0059
3929.00,0.0059
3928.00,0.0059
3927.00,0.0058
3926.00,0.0058
3925.00,0.0058
3924.00,0.0058
3923.00,0.0058
3922.00,0.0058
3921.00,0.0058
3920.00,0.0058
3919.00,0.0058
3918.00,0.0059
3917.00,0.0059
3916.00,0.0059
3915.00,0.0059
3914.00,0.0059
3913.00,0.0059
3912.00,0.0059
3911.00,0.0059
3910.00,0.0059
3909.00,0.0059
3908.00,0.0058
3907.00,0.0058
3906.00,0.0058
3905.00,0.0058
3904.00,0.0059
3903.00,0.0059
3902.00,0.0059
3901.00,0.0059
3900.00,0.0059
3899.00,0.0058
3898.00,0.0058
3897.00,0.0058
3896.00,0.0058
3895.00,0.0058
3894.00,0.0058
3893.00,0.0058
3892.00,0.0058
3891.00,0.0058
3890.00,0.0059
3889.00,0.0059
3888.00,0.0059
3887.00,0.0059
3886.00,0.0059
3885.00,0.0059
3884.00,0.0058
3883.00,0.0058
3882.00,0.0058
3881.00,0.0058
3880.00,0.0058
3879.00,0.0058
3878.00,0.0058
3877.00,0.0058
3876.00,0.0058
3875.00,0.0058
3874.00,0.0058
3873.00,0.0058
3872.00,0.0058
3871.00,0.0058
3870.00,0.0058
3869.00,0.0058
3868.00,0.0058
3867.00,0.0058
3866.00,0.0058
3865.00,0.0058
3864.00,0.0058
3863.00,0.0058
3862.00,0.0058
3861.00,0.0058
3860.00,0.0058
3859.00,0.0058
3858.00,0.0057
3857.00,0.0057
3856.00,0.0057
3855.00,0.0057
3854.00,0.0057
3853.00,0.0057
3852.00,0.0057
3851.00,0.0057
3850.00,0.0057
3849.00,0.0058
3848.00,0.0058
3847.00,0.0058
3846.00,0.0058
3845.00,0.0058
3844.00,0.0058
3843.00,0.0058
3842.00,0.0058
3841.00,0.0058
3840.00,0.0058
3839.00,0.0057
3838.00,0.0057
3837.00,0.0057
3836.00,0.0057
3835.00,0.0057
3834.00,0.0057
3833.00,0.0057
3832.00,0.0057
3831.00,0.0058
3830.00,0.0058
3829.00,0.0058
3828.00,0.0058
3827.00,0.0058
3826.00,0.0057
3825.00,0.0057
3824.00,0.0057
3823.00,0.0057
3822.00,0.0057
3821.00,0.0057
3820.00,0.0057
3819.00,0.0057
3818.00,0.0057
3817.00,0.0057
3816.00,0.0057
3815.00,0.0057
3814.00,0.0057
3813.00,0.0057
3812.00,0.0057
3811.00,0.0057
3810.00,0.0057
3809.00,0.0057
3808.00,0.0057
3807.00,0.0057
3806.00,0.0057
3805.00,0.0058
3804.00,0.0058
3803.00,0.0058
3802.00,0.0058
3801.00,0.0058
3800.00,0.0058
3799.00,0.0057
3798.00,0.0057
3797.00,0.0057
3796.00,0.0057
3795.00,0.0058
3794.00,0.0057
3793.00,0.0057
3792.00,0.0057
3791.00,0.0057
3790.00,0.0057
3789.00,0.0057
3788.00,0.0057
3787.00,0.0057
3786.00,0.0057
3785.00,0.0057
3784.00,0.0057
3783.00,0.0057
3782.00,0.0057
3781.00,0.0057
3780.00,0.0056
3779.00,0.0056
3778.00,0.0056
3777.00,0.0056
3776.00,0.0056
3775.00,0.0056
3774.00,0.0056
3773.00,0.0056
3772.00,0.0057
3771.00,0.0057
3770.00,0.0057
3769.00,0.0057
3768.00,0.0057
3767.00,0.0057
3766.00,0.0057
3765.00,0.0057
3764.00,0.0057
3763.00,0.0057
3762.00,0.0057
3761.00,0.0057
3760.00,0.0057
3759.00,0.0057
3758.00,0.0057
3757.00,0.0057
3756.00,0.0057
3755.00,0.0057
3754.00,0.0057
3753.00,0.0057
3752.00,0.0057
3751.00,0.0057
3750.00,0.0057
3749.00,0.0057
3748.00,0.0057
3747.00,0.0057
3746.00,0.0057
3745.00,0.0056
3744.00,0.0056
3743.00,0.0056
3742.00,0.0056
3741.00,0.0056
3740.00,0.0056
3739.00,0.0057
3738.00,0.0057
3737.00,0.0057
3736.00,0.0057
3735.00,0.0057
3734.00,0.0057
3733.00,0.0057
3732.00,0.0056
3731.00,0.0056
3730.00,0.0056
3729.00,0.0055
3728.00,0.0055
3727.00,0.0055
3726.00,0.0055
3725.00,0.0055
3724.00,0.0055
3723.00,0.0055
3722.00,0.0055
3721.00,0.0055
3720.00,0.0056
3719.00,0.0056
3718.00,0.0056
3717.00,0.0055
3716.00,0.0055
3715.00,0.0055
3714.00,0.0055
3713.00,0.0055
3712.00,0.0055
3711.00,0.0055
3710.00,0.0055
3709.00,0.0055
3708.00,0.0055
3707.00,0.0055
3706.00,0.0055
3705.00,0.0055
3704.00,0.0054
3703.00,0.0054
3702.00,0.0054
3701.00,0.0054
3700.00,0.0054
3699.00,0.0054
3698.00,0.0054
3697.00,0.0054
3696.00,0.0054
3695.00,0.0055
3694.00,0.0055
3693.00,0.0055
3692.00,0.0055
3691.00,0.0055
3690.00,0.0055
3689.00,0.0056
3688.00,0.0056
3687.00,0.0056
3686.00,0.0055
3685.00,0.0055
3684.00,0.0055
3683.00,0.0055
3682.00,0.0056
3681.00,0.0056
3680.00,0.0056
3679.00,0.0056
3678.00,0.0057
3677.00,0.0057
3676.00,0.0056
3675.00,0.0056
3674.00,0.0056
3673.00,0.0056
3672.00,0.0056
3671.00,0.0056
3670.00,0.0056
3669.00,0.0056
3668.00,0.0057
3667.00,0.0057
3666.00,0.0057
3665.00,0.0057
3664.00,0.0057
3663.00,0.0057
3662.00,0.0057
3661.00,0.0057
3660.00,0.0057
3659.00,0.0057
3658.00,0.0057
3657.00,0.0057
3656.00,0.0057
3655.00,0.0057
3654.00,0.0058
3653.00,0.0058
3652.00,0.0058
3651.00,0.0058
3650.00,0.0059
3649.00,0.0059
3648.00,0.0059
3647.00,0.0058
3646.00,0.0058
3645.00,0.0058
3644.00,0.0059
3643.00,0.0059
3642.00,0.0059
3641.00,0.0059
3640.00,0.0060
3639.00,0.0060
3638.00,0.0060
3637.00,0.0060
3636.00,0.0060
3635.00,0.0061
3634.00,0.0061
3633.00,0.0061
3632.00,0.0061
3631.00,0.0061
3630.00,0.0061
3629.00,0.0061
3628.00,0.0061
3627.00,0.0061
3626.00,0.0061
3625.00,0.0062
3624.00,0.0062
3623.00,0.0063
3622.00,0.0063
3621.00,0.0063
3620.00,0.0063
3619.00,0.0063
3618.00,0.0064
3617.00,0.0064
3616.00,0.0065
3615.00,0.0066
3614.00,0.0066
3613.00,0.0066
3612.00,0.0066
3611.00,0.0066
3610.00,0.0067
3609.00,0.0067
3608.00,0.0067
3607.00,0.0067
3606.00,0.0067
3605.00,0.0067
3604.00,0.0068
3603.00,0.0068
3602.00,0.0069
3601.00,0.0069
3600.00,0.0069
3599.00,0.0070
3598.00,0.0070
3597.00,0.0070
3596.00,0.0070
3595.00,0.0071
3594.00,0.0071
3593.00,0.0072
3592.00,0.0072
3591.00,0.0073
3590.00,0.0073
3589.00,0.0073
3588.00,0.0073
3587.00,0.0073
3586.00,0.0074
3585.00,0.0074
3584.00,0.0075
3583.00,0.0075
3582.00,0.0075
3581.00,0.0076
3580.00,0.0076
3579.00,0.0077
3578.00,0.0077
3577.00,0.0078
3576.00,0.0078
3575.00,0.0078
3574.00,0.0079
3573.00,0.0079
3572.00,0.0080
3571.00,0.0081
3570.00,0.0081
3569.00,0.0082
3568.00,0.0083
3567.00,0.0083
3566.00,0.0082
3565.00,0.0082
3564.00,0.0082
3563.00,0.0083
3562.00,0.0084
3561.00,0.0084
3560.00,0.0085
3559.00,0.0085
3558.00,0.0086
3557.00,0.0086
3556.00,0.0087
3555.00,0.0087
3554.00,0.0088
3553.00,0.0088
3552.00,0.0089
3551.00,0.0089
3550.00,0.0090
3549.00,0.0090
3548.00,0.0091
3547.00,0.0091
3546.00,0.0091
3545.00,0.0091
3544.00,0.0091
3543.00,0.0091
3542.00,0.0091
3541.00,0.0092
3540.00,0.0092
3539.00,0.0093
3538.00,0.0093
3537.00,0.0093
3536.00,0.0093
3535.00,0.0094
3534.00,0.0094
3533.00,0.0094
3532.00,0.0095
3531.00,0.0095
3530.00,0.0095
3529.00,0.0095
3528.00,0.0096
3527.00,0.0096
3526.00,0.0097
3525.00,0.0097
3524.00,0.0097
3523.00,0.0097
3522.00,0.0097
3521.00,0.0097
3520.00,0.0097
3519.00,0.0097
3518.00,0.0098
3517.00,0.0098
3516.00,0.0098
3515.00,0.0098
3514.00,0.0099
3513.00,0.0099
3512.00,0.0100
3511.00,0.0100
3510.00,0.0100
3509.00,0.0100
3508.00,0.0100
3507.00,0.0100
3506.00,0.0101
3505.00,0.0101
3504.00,0.0101
3503.00,0.0101
3502.00,0.0102
3501.00,0.0102
3500.00,0.0103
3499.00,0.0103
3498.00,0.0103
3497.00,0.0103
3496.00,0.0103
3495.00,0.0103
3494.00,0.0103
3493.00,0.0103
3492.00,0.0103
3491.00,0.0103
3490.00,0.0104
3489.00,0.0104
3488.00,0.0104
3487.00,0.0105
3486.00,0.0105
3485.00,0.0105
3484.00,0.0105
3483.00,0.0105
3482.00,0.0105
3481.00,0.0106
3480.00,0.0106
3479.00,0.0106
3478.00,0.0107
3477.00,0.0107
3476.00,0.0107
3475.00,0.0107
3474.00,0.0107
3473.00,0.0107
3472.00,0.0107
3471.00,0.0108
3470.00,0.0108
3469.00,0.0108
3468.00,0.0108
3467.00,0.0108
3466.00,0.0108
3465.00,0.0108
3464.00,0.0108
3463.00,0.0108
3462.00,0.0109
3461.00,0.0109
3460.00,0.0109
3459.00,0.0109
3458.00,0.0109
3457.00,0.0109
3456.00,0.0109
3455.00,0.0109
3454.00,0.0109
3453.00,0.0109
3452.00,0.0109
3451.00,0.0109
3450.00,0.0110
3449.00,0.0110
3448.00,0.0110
3447.00,0.0110
3446.00,0.0109
3445.00,0.0109
3444.00,0.0109
3443.00,0.0110
3442.00,0.0110
3441.00,0.0110
3440.00,0.0110
3439.00,0.0110
3438.00,0.0110
3437.00,0.0110
3436.00,0.0110
3435.00,0.0110
3434.00,0.0110
3433.00,0.0110
3432.00,0.0110
3431.00,0.0110
3430.00,0.0110
3429.00,0.0110
3428.00,0.0110
3427.00,0.0110
3426.00,0.0110
3425.00,0.0110
3424.00,0.0110
3423.00,0.0110
3422.00,0.0110
3421.00,0.0109
3420.00,0.0109
3419.00,0.0109
3418.00,0.0109
3417.00,0.0109
3416.00,0.0109
3415.00,0.0109
3414.00,0.0109
3413.00,0.0109
3412.00,0.0109
3411.00,0.0109
3410.00,0.0109
3409.00,0.0108
3408.00,0.0108
3407.00,0.0108
3406.00,0.0108
3405.00,0.0108
3404.00,0.0108
3403.00,0.0108
3402.00,0.0108
3401.00,0.0109
3400.00,0.0109
3399.00,0.0109
3398.00,0.0108
3397.00,0.0108
3396.00,0.0108
3395.00,0.0108
3394.00,0.0108
3393.00,0.0108
3392.00,0.0108
3391.00,0.0108
3390.00,0.0107
3389.00,0.0107
3388.00,0.0107
3387.00,0.0107
3386.00,0.0107
3385.00,0.0107
3384.00,0.0107
3383.00,0.0107
3382.00,0.0106
3381.00,0.0106
3380.00,0.0106
3379.00,0.0106
3378.00,0.0106
3377.00,0.0106
3376.00,0.0106
3375.00,0.0106
3374.00,0.0106
3373.00,0.0105
3372.00,0.0105
3371.00,0.0105
3370.00,0.0105
3369.00,0.0105
3368.00,0.0105
3367.00,0.0104
3366.00,0.0104
3365.00,0.0104
3364.00,0.0104
3363.00,0.0104
3362.00,0.0104
3361.00,0.0104
3360.00,0.0104
3359.00,0.0104
3358.00,0.0104
3357.00,0.0104
3356.00,0.0104
3355.00,0.0104
3354.00,0.0103
3353.00,0.0103
3352.00,0.0103
3351.00,0.0103
3350.00,0.0103
3349.00,0.0103
3348.00,0.0103
3347.00,0.0103
3346.00,0.0103
3345.00,0.0102
3344.00,0.0102
3343.00,0.0102
3342.00,0.0102
3341.00,0.0101
3340.00,0.0101
3339.00,0.0101
3338.00,0.0101
3337.00,0.0101
3336.00,0.0101
3335.00,0.0101
3334.00,0.0101
3333.00,0.0101
3332.00,0.0101
3331.00,0.0101
3330.00,0.0101
3329.00,0.0101
3328.00,0.0100
3327.00,0.0100
3326.00,0.0100
3325.00,0.0100
3324.00,0.0100
3323.00,0.0100
3322.00,0.0100
3321.00,0.0100
3320.00,0.0100
3319.00,0.0100
3318.00,0.0100
3317.00,0.0100
3316.00,0.0100
3315.00,0.0100
3314.00,0.0100
3313.00,0.0100
3312.00,0.0099
3311.00,0.0099
3310.00,0.0098
3309.00,0.0098
3308.00,0.0098
3307.00,0.0098
3306.00,0.0098
3305.00,0.0098
3304.00,0.0098
3303.00,0.0098
3302.00,0.0098
3301.00,0.0098
3300.00,0.0098
3299.00,0.0098
3298.00,0.0098
3297.00,0.0097
3296.00,0.0097
3295.00,0.0097
3294.00,0.0097
3293.00,0.0097
3292.00,0.0098
3291.00,0.0098
3290.00,0.0098
3289.00,0.0098
3288.00,0.0098
3287.00,0.0098
3286.00,0.0098
3285.00,0.0098
3284.00,0.0098
3283.00,0.0097
3282.00,0.0097
3281.00,0.0097
3280.00,0.0097
3279.00,0.0097
3278.00,0.0096
3277.00,0.0096
3276.00,0.0096
3275.00,0.0096
3274.00,0.0096
3273.00,0.0096
3272.00,0.0096
3271.00,0.0096
3270.00,0.0096
3269.00,0.0096
3268.00,0.0096
3267.00,0.0095
3266.00,0.0095
3265.00,0.0095
3264.00,0.0095
3263.00,0.0095
3262.00,0.0095
3261.00,0.0095
3260.00,0.0095
3259.00,0.0095
3258.00,0.0095
3257.00,0.0095
3256.00,0.0095
3255.00,0.0095
3254.00,0.0094
3253.00,0.0094
3252.00,0.0094
3251.00,0.0094
3250.00,0.0094
3249.00,0.0093
3248.00,0.0093
3247.00,0.0093
3246.00,0.0093
3245.00,0.0093
3244.00,0.0093
3243.00,0.0093
3242.00,0.0093
3241.00,0.0093
3240.00,0.0093
3239.00,0.0093
3238.00,0.0092
3237.00,0.0092
3236.00,0.0092
3235.00,0.0092
3234.00,0.0091
3233.00,0.0091
3232.00,0.0091
3231.00,0.0091
3230.00,0.0091
3229.00,0.0091
3228.00,0.0091
3227.00,0.0091
3226.00,0.0091
3225.00,0.0091
3224.00,0.0091
3223.00,0.0091
3222.00,0.0091
3221.00,0.0091
3220.00,0.0091
3219.00,0.0091
3218.00,0.0090
3217.00,0.0090
3216.00,0.0089
3215.00,0.0089
3214.00,0.0089
3213.00,0.0089
3212.00,0.0089
3211.00,0.0089
3210.00,0.0089
3209.00,0.0089
3208.00,0.0089
3207.00,0.0089
3206.00,0.0089
3205.00,0.0088
3204.00,0.0088
3203.00,0.0088
3202.00,0.0088
3201.00,0.0088
3200.00,0.0087
3199.00,0.0087
3198.00,0.0087
3197.00,0.0087
3196.00,0.0087
3195.00,0.0087
3194.00,0.0087
3193.00,0.0087
3192.00,0.0087
3191.00,0.0087
3190.00,0.0087
3189.00,0.0087
3188.00,0.0086
3187.00,0.0086
3186.00,0.0086
3185.00,0.0086
3184.00,0.0086
3183.00,0.0086
3182.00,0.0085
3181.00,0.0085
3180.00,0.0085
3179.00,0.0085
3178.00,0.0085
3177.00,0.0085
3176.00,0.0085
3175.00,0.0085
3174.00,0.0085
3173.00,0.0085
3172.00,0.0085
3171.00,0.0085
3170.00,0.0085
3169.00,0.0085
3168.00,0.0084
3167.00,0.0084
3166.00,0.0084
3165.00,0.0084
3164.00,0.0084
3163.00,0.0084
3162.00,0.0083
3161.00,0.0083
3160.00,0.0083
3159.00,0.0084
3158.00,0.0084
3157.00,0.0084
3156.00,0.0084
3155.00,0.0083
3154.00,0.0083
3153.00,0.0083
3152.00,0.0083
3151.00,0.0083
3150.00,0.0082
3149.00,0.0082
3148.00,0.0082
3147.00,0.0082
3146.00,0.0082
3145.00,0.0082
3144.00,0.0082
3143.00,0.0082
3142.00,0.0082
3141.00,0.0082
3140.00,0.0082
3139.00,0.0082
3138.00,0.0081
3137.00,0.0081
3136.00,0.0081
3135.00,0.0081
3134.00,0.0081
3133.00,0.0081
3132.00,0.0081
3131.00,0.0081
3130.00,0.0081
3129.00,0.0081
3128.00,0.0081
3127.00,0.0080
3126.00,0.0080
3125.00,0.0080
3124.00,0.0080
3123.00,0.0080
3122.00,0.0080
3121.00,0.0080
3120.00,0.0080
3119.00,0.0080
3118.00,0.0080
3117.00,0.0080
3116.00,0.0079
3115.00,0.0079
3114.00,0.0079
3113.00,0.0079
3112.00,0.0079
3111.00,0.0079
3110.00,0.0079
3109.00,0.0079
3108.00,0.0078
3107.00,0.0078
3106.00,0.0078
3105.00,0.0078
3104.00,0.0078
3103.00,0.0078
3102.00,0.0078
3101.00,0.0078
3100.00,0.0078
3099.00,0.0078
3098.00,0.0078
3097.00,0.0078
3096.00,0.0078
3095.00,0.0078
3094.00,0.0078
3093.00,0.0078
3092.00,0.0078
3091.00,0.0078
3090.00,0.0078
3089.00,0.0078
3088.00,0.0077
3087.00,0.0077
3086.00,0.0077
3085.00,0.0077
3084.00,0.0077
3083.00,0.0077
3082.00,0.0077
3081.00,0.0077
3080.00,0.0077
3079.00,0.0077
3078.00,0.0077
3077.00,0.0077
3076.00,0.0077
3075.00,0.0077
3074.00,0.0077
3073.00,0.0077
3072.00,0.0077
3071.00,0.0076
3070.00,0.0076
3069.00,0.0076
3068.00,0.0076
3067.00,0.0076
3066.00,0.0076
3065.00,0.0076
3064.00,0.0075
3063.00,0.0075
3062.00,0.0075
3061.00,0.0075
3060.00,0.0075
3059.00,0.0075
3058.00,0.0075
3057.00,0.0075
3056.00,0.0075
3055.00,0.0075
3054.00,0.0075
3053.00,0.0075
3052.00,0.0075
3051.00,0.0074
3050.00,0.0074
3049.00,0.0074
3048.00,0.0074
3047.00,0.0074
3046.00,0.0074
3045.00,0.0074
3044.00,0.0074
3043.00,0.0074
3042.00,0.0074
3041.00,0.0074
3040.00,0.0073
3039.00,0.0073
3038.00,0.0073
3037.00,0.0073
3036.00,0.0073
3035.00,0.0073
3034.00,0.0074
3033.00,0.0074
3032.00,0.0073
3031.00,0.0073
3030.00,0.0073
3029.00,0.0073
3028.00,0.0072
3027.00,0.0072
3026.00,0.0072
3025.00,0.0072
3024.00,0.0072
3023.00,0.0072
3022.00,0.0072
3021.00,0.0072
3020.00,0.0072
3019.00,0.0072
3018.00,0.0073
3017.00,0.0073
3016.00,0.0073
3015.00,0.0073
3014.00,0.0074
3013.00,0.0074
3012.00,0.0074
3011.00,0.0074
3010.00,0.0074
3009.00,0.0074
3008.00,0.0075
3007.00,0.0075
3006.00,0.0076
3005.00,0.0076
3004.00,0.0077
3003.00,0.0078
3002.00,0.0078
3001.00,0.0079
3000.00,0.0081
2999.00,0.0082
2998.00,0.0083
2997.00,0.0085
2996.00,0.0087
2995.00,0.0088
2994.00,0.0090
2993.00,0.0092
2992.00,0.0094
2991.00,0.0096
2990.00,0.0098
2989.00,0.0099
2988.00,0.0101
2987.00,0.0103
2986.00,0.0104
2985.00,0.0106
2984.00,0.0107
2983.00,0.0108
2982.00,0.0109
2981.00,0.0110
2980.00,0.0111
2979.00,0.0113
2978.00,0.0115
2977.00,0.0116
2976.00,0.0118
2975.00,0.0119
2974.00,0.0120
2973.00,0.0120
2972.00,0.0121
2971.00,0.0122
2970.00,0.0123
2969.00,0.0123
2968.00,0.0124
2967.00,0.0125
2966.00,0.0127
2965.00,0.0128
2964.00,0.0128
2963.00,0.0129
2962.00,0.0130
2961.00,0.0131
2960.00,0.0131
2959.00,0.0132
2958.00,0.0133
2957.00,0.0134
2956.00,0.0135
2955.00,0.0136
2954.00,0.0137
2953.00,0.0137
2952.00,0.0138
2951.00,0.0138
2950.00,0.0138
2949.00,0.0138
2948.00,0.0138
2947.00,0.0138
2946.00,0.0137
2945.00,0.0137
2944.00,0.0137
2943.00,0.0136
2942.00,0.0136
2941.00,0.0135
2940.00,0.0135
2939.00,0.0134
2938.00,0.0134
2937.00,0.0134
2936.00,0.0133
2935.00,0.0133
2934.00,0.0133
2933.00,0.0132
2932.00,0.0132
2931.00,0.0132
2930.00,0.0131
2929.00,0.0131
2928.00,0.0130
2927.00,0.0130
2926.00,0.0129
2925.00,0.0128
2924.00,0.0127
2923.00,0.0126
2922.00,0.0125
2921.00,0.0123
2920.00,0.0121
2919.00,0.0120
2918.00,0.0119
2917.00,0.0118
2916.00,0.0118
2915.00,0.0118
2914.00,0.0119
2913.00,0.0119
2912.00,0.0120
2911.00,0.0121
2910.00,0.0121
2909.00,0.0120
2908.00,0.0120
2907.00,0.0119
2906.00,0.0118
2905.00,0.0117
2904.00,0.0117
2903.00,0.0116
2902.00,0.0116
2901.00,0.0116
2900.00,0.0116
2899.00,0.0116
2898.00,0.0116
2897.00,0.0116
2896.00,0.0116
2895.00,0.0116
2894.00,0.0116
2893.00,0.0116
2892.00,0.0117
2891.00,0.0117
2890.00,0.0117
2889.00,0.0117
2888.00,0.0118
2887.00,0.0118
2886.00,0.0118
2885.00,0.0118
2884.00,0.0118
2883.00,0.0118
2882.00,0.0118
2881.00,0.0119
2880.00,0.0120
2879.00,0.0120
2878.00,0.0120
2877.00,0.0120
2876.00,0.0120
2875.00,0.0120
2874.00,0.0120
2873.00,0.0120
2872.00,0.0120
2871.00,0.0121
2870.00,0.0121
2869.00,0.0121
2868.00,0.0120
2867.00,0.0120
2866.00,0.0119
2865.00,0.0119
2864.00,0.0118
2863.00,0.0117
2862.00,0.0117
2861.00,0.0116
2860.00,0.0115
2859.00,0.0114
2858.00,0.0113
2857.00,0.0112
2856.00,0.0110
2855.00,0.0108
2854.00,0.0105
2853.00,0.0102
2852.00,0.0099
2851.00,0.0096
2850.00,0.0094
2849.00,0.0092
2848.00,0.0091
2847.00,0.0091
2846.00,0.0092
2845.00,0.0092
2844.00,0.0092
2843.00,0.0092
2842.00,0.0092
2841.00,0.0091
2840.00,0.0090
2839.00,0.0089
2838.00,0.0089
2837.00,0.0088
2836.00,0.0087
2835.00,0.0086
2834.00,0.0085
2833.00,0.0085
2832.00,0.0084
2831.00,0.0083
2830.00,0.0082
2829.00,0.0081
2828.00,0.0081
2827.00,0.0080
2826.00,0.0079
2825.00,0.0079
2824.00,0.0078
2823.00,0.0077
2822.00,0.0077
2821.00,0.0076
2820.00,0.0075
2819.00,0.0075
2818.00,0.0074
2817.00,0.0074
2816.00,0.0074
2815.00,0.0073
2814.00,0.0073
2813.00,0.0073
2812.00,0.0072
2811.00,0.0072
2810.00,0.0071
2809.00,0.0071
2808.00,0.0071
2807.00,0.0070
2806.00,0.0070
2805.00,0.0070
2804.00,0.0069
2803.00,0.0069
2802.00,0.0069
2801.00,0.0068
2800.00,0.0068
2799.00,0.0068
2798.00,0.0067
2797.00,0.0067
2796.00,0.0067
2795.00,0.0067
2794.00,0.0067
2793.00,0.0067
2792.00,0.0067
2791.00,0.0067
2790.00,0.0066
2789.00,0.0066
2788.00,0.0066
2787.00,0.0066
2786.00,0.0065
2785.00,0.0065
2784.00,0.0065
2783.00,0.0065
2782.00,0.0065
2781.00,0.0065
2780.00,0.0065
2779.00,0.0064
2778.00,0.0064
2777.00,0.0064
2776.00,0.0064
2775.00,0.0063
2774.00,0.0064
2773.00,0.0064
2772.00,0.0064
2771.00,0.0064
2770.00,0.0063
2769.00,0.0063
2768.00,0.0063
2767.00,0.0063
2766.00,0.0063
2765.00,0.0063
2764.00,0.0062
2763.00,0.0062
2762.00,0.0062
2761.00,0.0062
2760.00,0.0062
2759.00,0.0062
2758.00,0.0062
2757.00,0.0062
