Created as New Dataset,Sample 1011 By YargerLab Date Friday, August 01 2025
cm-1,A
4000.00,0.0005
3999.00,0.0005
3998.00,0.0005
3997.00,0.0005
3996.00,0.0005
3995.00,0.0005
3994.00,0.0005
3993.00,0.0005
3992.00,0.0005
3991.00,0.0005
3990.00,0.0005
3989.00,0.0005
3988.00,0.0005
3987.00,0.0005
3986.00,0.0005
3985.00,0.0005
3984.00,0.0005
3983.00,0.0005
3982.00,0.0005
3981.00,0.0005
3980.00,0.0005
3979.00,0.0005
3978.00,0.0005
3977.00,0.0005
3976.00,0.0005
3975.00,0.0005
3974.00,0.0005
3973.00,0.0005
3972.00,0.0005
3971.00,0.0005
3970.00,0.0005
3969.00,0.0005
3968.00,0.0005
3967.00,0.0005
3966.00,0.0005
3965.00,0.0005
3964.00,0.0005
3963.00,0.0005
3962.00,0.0005
3961.00,0.0005
3960.00,0.0005
3959.00,0.0006
3958.00,0.0006
3957.00,0.0006
3956.00,0.0006
3955.00,0.0006
3954.00,0.0005
3953.00,0.0006
3952.00,0.0006
3951.00,0.0006
3950.00,0.0006
3949.00,0.0006
3948.00,0.0005
3947.00,0.0005
3946.00,0.0005
3945.00,0.0005
3944.00,0.0005
3943.00,0.0005
3942.00,0.0005
3941.00,0.0005
3940.00,0.0005
3939.00,0.0005
3938.00,0.0005
3937.00,0.0005
3936.00,0.0005
3935.00,0.0005
3934.00,0.0006
3933.00,0.0006
3932.00,0.0006
3931.00,0.0005
3930.00,0.0005
3929.00,0.0005
3928.00,0.0005
3927.00,0.0005
3926.00,0.0004
3925.00,0.0005
3924.00,0.0005
3923.00,0.0005
3922.00,0.0005
3921.00,0.0005
3920.00,0.0005
3919.00,0.0005
3918.00,0.0005
3917.00,0.0005
3916.00,0.0005
3915.00,0.0006
3914.00,0.0005
3913.00,0.0005
3912.00,0.0005
3911.00,0.0005
3910.00,0.0005
3909.00,0.0005
3908.00,0.0005
3907.00,0.0005
3906.00,0.0005
3905.00,0.0005
3904.00,0.0005
3903.00,0.0005
3902.00,0.0005
3901.00,0.0005
3900.00,0.0005
3899.00,0.0005
3898.00,0.0005
3897.00,0.0005
3896.00,0.0005
3895.00,0.0005
3894.00,0.0005
3893.00,0.0004
3892.00,0.0004
3891.00,0.0004
3890.00,0.0005
3889.00,0.0005
3888.00,0.0005
3887.00,0.0005
3886.00,0.0005
3885.00,0.0005
3884.00,0.0005
3883.00,0.0005
3882.00,0.0005
3881.00,0.0005
3880.00,0.0005
3879.00,0.0005
3878.00,0.0005
3877.00,0.0005
3876.00,0.0004
3875.00,0.0005
3874.00,0.0005
3873.00,0.0005
3872.00,0.0005
3871.00,0.0004
3870.00,0.0004
3869.00,0.0004
3868.00,0.0004
3867.00,0.0004
3866.00,0.0004
3865.00,0.0004
3864.00,0.0004
3863.00,0.0005
3862.00,0.0005
3861.00,0.0005
3860.00,0.0005
3859.00,0.0005
3858.00,0.0005
3857.00,0.0005
3856.00,0.0004
3855.00,0.0004
3854.00,0.0004
3853.00,0.0004
3852.00,0.0003
3851.00,0.0003
3850.00,0.0003
3849.00,0.0003
3848.00,0.0004
3847.00,0.0004
3846.00,0.0005
3845.00,0.0005
3844.00,0.0005
3843.00,0.0005
3842.00,0.0005
3841.00,0.0004
3840.00,0.0004
3839.00,0.0004
3838.00,0.0004
3837.00,0.0005
3836.00,0.0005
3835.00,0.0005
3834.00,0.0004
3833.00,0.0004
3832.00,0.0004
3831.00,0.0005
3830.00,0.0005
3829.00,0.0005
3828.00,0.0005
3827.00,0.0005
3826.00,0.0005
3825.00,0.0006
3824.00,0.0005
3823.00,0.0005
3822.00,0.0004
3821.00,0.0004
3820.00,0.0004
3819.00,0.0004
3818.00,0.0004
3817.00,0.0003
3816.00,0.0004
3815.00,0.0004
3814.00,0.0005
3813.00,0.0005
3812.00,0.0005
3811.00,0.0005
3810.00,0.0005
3809.00,0.0005
3808.00,0.0005
3807.00,0.0005
3806.00,0.0006
3805.00,0.0006
3804.00,0.0005
3803.00,0.0005
3802.00,0.0005
3801.00,0.0005
3800.00,0.0005
3799.00,0.0005
3798.00,0.0005
3797.00,0.0005
3796.00,0.0005
3795.00,0.0006
3794.00,0.0006
3793.00,0.0006
3792.00,0.0006
3791.00,0.0006
3790.00,0.0006
3789.00,0.0006
3788.00,0.0006
3787.00,0.0006
3786.00,0.0005
3785.00,0.0006
3784.00,0.0006
3783.00,0.0006
3782.00,0.0005
3781.00,0.0005
3780.00,0.0005
3779.00,0.0006
3778.00,0.0006
3777.00,0.0006
3776.00,0.0006
3775.00,0.0006
3774.00,0.0006
3773.00,0.0006
3772.00,0.0006
3771.00,0.0005
3770.00,0.0005
3769.00,0.0005
3768.00,0.0005
3767.00,0.0005
3766.00,0.0005
3765.00,0.0005
3764.00,0.0006
3763.00,0.0006
3762.00,0.0006
3761.00,0.0006
3760.00,0.0005
3759.00,0.0005
3758.00,0.0005
3757.00,0.0005
3756.00,0.0004
3755.00,0.0004
3754.00,0.0004
3753.00,0.0004
3752.00,0.0005
3751.00,0.0005
3750.00,0.0005
3749.00,0.0005
3748.00,0.0004
3747.00,0.0004
3746.00,0.0004
3745.00,0.0004
3744.00,0.0004
3743.00,0.0005
3742.00,0.0005
3741.00,0.0004
3740.00,0.0004
3739.00,0.0004
3738.00,0.0004
3737.00,0.0004
3736.00,0.0004
3735.00,0.0003
3734.00,0.0003
3733.00,0.0002
3732.00,0.0003
3731.00,0.0003
3730.00,0.0004
3729.00,0.0004
3728.00,0.0004
3727.00,0.0004
3726.00,0.0004
3725.00,0.0005
3724.00,0.0005
3723.00,0.0005
3722.00,0.0005
3721.00,0.0005
3720.00,0.0005
3719.00,0.0005
3718.00,0.0004
3717.00,0.0004
3716.00,0.0005
3715.00,0.0004
3714.00,0.0004
3713.00,0.0004
3712.00,0.0004
3711.00,0.0004
3710.00,0.0004
3709.00,0.0004
3708.00,0.0004
3707.00,0.0004
3706.00,0.0004
3705.00,0.0004
3704.00,0.0004
3703.00,0.0004
3702.00,0.0004
3701.00,0.0005
3700.00,0.0005
3699.00,0.0005
3698.00,0.0005
3697.00,0.0005
3696.00,0.0005
3695.00,0.0005
3694.00,0.0004
3693.00,0.0004
3692.00,0.0004
3691.00,0.0004
3690.00,0.0004
3689.00,0.0004
3688.00,0.0004
3687.00,0.0004
3686.00,0.0004
3685.00,0.0004
3684.00,0.0004
3683.00,0.0004
3682.00,0.0005
3681.00,0.0005
3680.00,0.0005
3679.00,0.0005
3678.00,0.0004
3677.00,0.0004
3676.00,0.0004
3675.00,0.0004
3674.00,0.0004
3673.00,0.0004
3672.00,0.0004
3671.00,0.0004
3670.00,0.0004
3669.00,0.0004
3668.00,0.0004
3667.00,0.0004
3666.00,0.0004
3665.00,0.0005
3664.00,0.0005
3663.00,0.0005
3662.00,0.0005
3661.00,0.0005
3660.00,0.0005
3659.00,0.0005
3658.00,0.0004
3657.00,0.0004
3656.00,0.0005
3655.00,0.0005
3654.00,0.0005
3653.00,0.0004
3652.00,0.0004
3651.00,0.0004
3650.00,0.0004
3649.00,0.0004
3648.00,0.0004
3647.00,0.0004
3646.00,0.0004
3645.00,0.0004
3644.00,0.0004
3643.00,0.0005
3642.00,0.0005
3641.00,0.0005
3640.00,0.0005
3639.00,0.0005
3638.00,0.0005
3637.00,0.0005
3636.00,0.0005
3635.00,0.0005
3634.00,0.0004
3633.00,0.0004
3632.00,0.0004
3631.00,0.0004
3630.00,0.0003
3629.00,0.0003
3628.00,0.0004
3627.00,0.0004
3626.00,0.0004
3625.00,0.0004
3624.00,0.0004
3623.00,0.0004
3622.00,0.0004
3621.00,0.0004
3620.00,0.0004
3619.00,0.0004
3618.00,0.0004
3617.00,0.0004
3616.00,0.0004
3615.00,0.0004
3614.00,0.0004
3613.00,0.0004
3612.00,0.0004
3611.00,0.0004
3610.00,0.0004
3609.00,0.0004
3608.00,0.0004
3607.00,0.0005
3606.00,0.0004
3605.00,0.0004
3604.00,0.0004
3603.00,0.0004
3602.00,0.0004
3601.00,0.0005
3600.00,0.0005
3599.00,0.0005
3598.00,0.0005
3597.00,0.0005
3596.00,0.0005
3595.00,0.0005
3594.00,0.0005
3593.00,0.0005
3592.00,0.0005
3591.00,0.0005
3590.00,0.0005
3589.00,0.0005
3588.00,0.0005
3587.00,0.0005
3586.00,0.0005
3585.00,0.0005
3584.00,0.0005
3583.00,0.0005
3582.00,0.0005
3581.00,0.0006
3580.00,0.0006
3579.00,0.0006
3578.00,0.0005
3577.00,0.0005
3576.00,0.0005
3575.00,0.0005
3574.00,0.0005
3573.00,0.0005
3572.00,0.0005
3571.00,0.0006
3570.00,0.0006
3569.00,0.0006
3568.00,0.0006
3567.00,0.0006
3566.00,0.0005
3565.00,0.0005
3564.00,0.0005
3563.00,0.0005
3562.00,0.0006
3561.00,0.0006
3560.00,0.0006
3559.00,0.0006
3558.00,0.0006
3557.00,0.0007
3556.00,0.0007
3555.00,0.0007
3554.00,0.0007
3553.00,0.0007
3552.00,0.0006
3551.00,0.0006
3550.00,0.0006
3549.00,0.0006
3548.00,0.0006
3547.00,0.0006
3546.00,0.0006
3545.00,0.0006
3544.00,0.0006
3543.00,0.0007
3542.00,0.0007
3541.00,0.0007
3540.00,0.0007
3539.00,0.0007
3538.00,0.0007
3537.00,0.0007
3536.00,0.0007
3535.00,0.0007
3534.00,0.0007
3533.00,0.0007
3532.00,0.0007
3531.00,0.0007
3530.00,0.0007
3529.00,0.0007
3528.00,0.0007
3527.00,0.0007
3526.00,0.0007
3525.00,0.0007
3524.00,0.0007
3523.00,0.0008
3522.00,0.0008
3521.00,0.0008
3520.00,0.0008
3519.00,0.0008
3518.00,0.0008
3517.00,0.0008
3516.00,0.0008
3515.00,0.0008
3514.00,0.0008
3513.00,0.0008
3512.00,0.0008
3511.00,0.0008
3510.00,0.0008
3509.00,0.0008
3508.00,0.0008
3507.00,0.0008
3506.00,0.0008
3505.00,0.0008
3504.00,0.0008
3503.00,0.0008
3502.00,0.0009
3501.00,0.0009
3500.00,0.0009
3499.00,0.0009
3498.00,0.0009
3497.00,0.0009
3496.00,0.0009
3495.00,0.0009
3494.00,0.0009
3493.00,0.0009
3492.00,0.0009
3491.00,0.0009
3490.00,0.0009
3489.00,0.0008
3488.00,0.0009
3487.00,0.0009
3486.00,0.0009
3485.00,0.0009
3484.00,0.0009
3483.00,0.0009
3482.00,0.0009
3481.00,0.0009
3480.00,0.0009
3479.00,0.0009
3478.00,0.0009
3477.00,0.0009
3476.00,0.0009
3475.00,0.0009
3474.00,0.0009
3473.00,0.0009
3472.00,0.0009
3471.00,0.0009
3470.00,0.0010
3469.00,0.0010
3468.00,0.0010
3467.00,0.0010
3466.00,0.0010
3465.00,0.0010
3464.00,0.0010
3463.00,0.0010
3462.00,0.0010
3461.00,0.0010
3460.00,0.0010
3459.00,0.0009
3458.00,0.0009
3457.00,0.0009
3456.00,0.0010
3455.00,0.0010
3454.00,0.0010
3453.00,0.0010
3452.00,0.0010
3451.00,0.0010
3450.00,0.0010
3449.00,0.0010
3448.00,0.0010
3447.00,0.0010
3446.00,0.0010
3445.00,0.0010
3444.00,0.0010
3443.00,0.0010
3442.00,0.0010
3441.00,0.0010
3440.00,0.0011
3439.00,0.0010
3438.00,0.0010
3437.00,0.0011
3436.00,0.0011
3435.00,0.0011
3434.00,0.0011
3433.00,0.0011
3432.00,0.0011
3431.00,0.0011
3430.00,0.0011
3429.00,0.0010
3428.00,0.0010
3427.00,0.0010
3426.00,0.0010
3425.00,0.0010
3424.00,0.0010
3423.00,0.0010
3422.00,0.0010
3421.00,0.0010
3420.00,0.0010
3419.00,0.0010
3418.00,0.0010
3417.00,0.0010
3416.00,0.0010
3415.00,0.0010
3414.00,0.0011
3413.00,0.0011
3412.00,0.0011
3411.00,0.0011
3410.00,0.0011
3409.00,0.0011
3408.00,0.0011
3407.00,0.0011
3406.00,0.0011
3405.00,0.0011
3404.00,0.0011
3403.00,0.0011
3402.00,0.0011
3401.00,0.0011
3400.00,0.0011
3399.00,0.0011
3398.00,0.0010
3397.00,0.0010
3396.00,0.0010
3395.00,0.0010
3394.00,0.0010
3393.00,0.0010
3392.00,0.0010
3391.00,0.0011
3390.00,0.0011
3389.00,0.0011
3388.00,0.0010
3387.00,0.0010
3386.00,0.0010
3385.00,0.0010
3384.00,0.0011
3383.00,0.0011
3382.00,0.0011
3381.00,0.0011
3380.00,0.0011
3379.00,0.0011
3378.00,0.0011
3377.00,0.0011
3376.00,0.0011
3375.00,0.0011
3374.00,0.0011
3373.00,0.0011
3372.00,0.0011
3371.00,0.0011
3370.00,0.0011
3369.00,0.0011
3368.00,0.0010
3367.00,0.0010
3366.00,0.0011
3365.00,0.0011
3364.00,0.0011
3363.00,0.0011
3362.00,0.0011
3361.00,0.0011
3360.00,0.0011
3359.00,0.0011
3358.00,0.0011
3357.00,0.0011
3356.00,0.0011
3355.00,0.0011
3354.00,0.0011
3353.00,0.0011
3352.00,0.0011
3351.00,0.0011
3350.00,0.0011
3349.00,0.0011
3348.00,0.0011
3347.00,0.0011
3346.00,0.0011
3345.00,0.0011
3344.00,0.0011
3343.00,0.0011
3342.00,0.0011
3341.00,0.0011
3340.00,0.0011
3339.00,0.0011
3338.00,0.0011
3337.00,0.0010
3336.00,0.0010
3335.00,0.0010
3334.00,0.0010
3333.00,0.0010
3332.00,0.0010
3331.00,0.0011
3330.00,0.0011
3329.00,0.0011
3328.00,0.0011
3327.00,0.0011
3326.00,0.0011
3325.00,0.0011
3324.00,0.0011
3323.00,0.0011
3322.00,0.0011
3321.00,0.0011
3320.00,0.0011
3319.00,0.0011
3318.00,0.0011
3317.00,0.0011
3316.00,0.0011
3315.00,0.0011
3314.00,0.0011
3313.00,0.0010
3312.00,0.0010
3311.00,0.0010
3310.00,0.0011
3309.00,0.0011
3308.00,0.0011
3307.00,0.0011
3306.00,0.0011
3305.00,0.0011
3304.00,0.0011
3303.00,0.0011
3302.00,0.0011
3301.00,0.0011
3300.00,0.0011
3299.00,0.0011
3298.00,0.0010
3297.00,0.0010
3296.00,0.0010
3295.00,0.0011
3294.00,0.0011
3293.00,0.0011
3292.00,0.0011
3291.00,0.0011
3290.00,0.0010
3289.00,0.0010
3288.00,0.0010
3287.00,0.0010
3286.00,0.0010
3285.00,0.0010
3284.00,0.0010
3283.00,0.0010
3282.00,0.0010
3281.00,0.0010
3280.00,0.0010
3279.00,0.0010
3278.00,0.0010
3277.00,0.0010
3276.00,0.0010
3275.00,0.0010
3274.00,0.0010
3273.00,0.0010
3272.00,0.0011
3271.00,0.0011
3270.00,0.0010
3269.00,0.0010
3268.00,0.0010
3267.00,0.0010
3266.00,0.0010
3265.00,0.0010
3264.00,0.0010
3263.00,0.0010
3262.00,0.0010
3261.00,0.0010
3260.00,0.0010
3259.00,0.0010
3258.00,0.0010
3257.00,0.0010
3256.00,0.0010
3255.00,0.0010
3254.00,0.0009
3253.00,0.0009
3252.00,0.0009
3251.00,0.0010
3250.00,0.0010
3249.00,0.0010
3248.00,0.0010
3247.00,0.0009
3246.00,0.0009
3245.00,0.0009
3244.00,0.0009
3243.00,0.0009
3242.00,0.0009
3241.00,0.0009
3240.00,0.0009
3239.00,0.0009
3238.00,0.0009
3237.00,0.0009
3236.00,0.0009
3235.00,0.0009
3234.00,0.0009
3233.00,0.0009
3232.00,0.0009
3231.00,0.0009
3230.00,0.0009
3229.00,0.0009
3228.00,0.0009
3227.00,0.0009
3226.00,0.0009
3225.00,0.0009
3224.00,0.0009
3223.00,0.0009
3222.00,0.0008
3221.00,0.0008
3220.00,0.0008
3219.00,0.0009
3218.00,0.0009
3217.00,0.0009
3216.00,0.0009
3215.00,0.0009
3214.00,0.0009
3213.00,0.0009
3212.00,0.0009
3211.00,0.0009
3210.00,0.0009
3209.00,0.0009
3208.00,0.0009
3207.00,0.0009
3206.00,0.0009
3205.00,0.0009
3204.00,0.0009
3203.00,0.0009
3202.00,0.0009
3201.00,0.0009
3200.00,0.0009
3199.00,0.0008
3198.00,0.0008
3197.00,0.0008
3196.00,0.0008
3195.00,0.0009
3194.00,0.0009
3193.00,0.0009
3192.00,0.0009
3191.00,0.0009
3190.00,0.0009
3189.00,0.0008
3188.00,0.0008
3187.00,0.0008
3186.00,0.0008
3185.00,0.0008
3184.00,0.0008
3183.00,0.0007
3182.00,0.0007
3181.00,0.0007
3180.00,0.0007
3179.00,0.0007
3178.00,0.0007
3177.00,0.0008
3176.00,0.0008
3175.00,0.0008
3174.00,0.0008
3173.00,0.0008
3172.00,0.0008
3171.00,0.0007
3170.00,0.0007
3169.00,0.0008
3168.00,0.0008
3167.00,0.0008
3166.00,0.0008
3165.00,0.0008
3164.00,0.0008
3163.00,0.0008
3162.00,0.0008
3161.00,0.0008
3160.00,0.0008
3159.00,0.0009
3158.00,0.0009
3157.00,0.0009
3156.00,0.0009
3155.00,0.0008
3154.00,0.0008
3153.00,0.0008
3152.00,0.0008
3151.00,0.0007
3150.00,0.0007
3149.00,0.0007
3148.00,0.0007
3147.00,0.0008
3146.00,0.0008
3145.00,0.0008
3144.00,0.0008
3143.00,0.0007
3142.00,0.0007
3141.00,0.0007
3140.00,0.0007
3139.00,0.0007
3138.00,0.0008
3137.00,0.0008
3136.00,0.0008
3135.00,0.0008
3134.00,0.0007
3133.00,0.0008
3132.00,0.0008
3131.00,0.0008
3130.00,0.0008
3129.00,0.0008
3128.00,0.0008
3127.00,0.0008
3126.00,0.0008
3125.00,0.0008
3124.00,0.0008
3123.00,0.0008
3122.00,0.0008
3121.00,0.0009
3120.00,0.0009
3119.00,0.0009
3118.00,0.0009
3117.00,0.0010
3116.00,0.0010
3115.00,0.0011
3114.00,0.0011
3113.00,0.0011
3112.00,0.0012
3111.00,0.0013
3110.00,0.0014
3109.00,0.0016
3108.00,0.0017
3107.00,0.0019
3106.00,0.0020
3105.00,0.0020
3104.00,0.0021
3103.00,0.0021
3102.00,0.0021
3101.00,0.0021
3100.00,0.0020
3099.00,0.0020
3098.00,0.0019
3097.00,0.0019
3096.00,0.0019
3095.00,0.0020
3094.00,0.0020
3093.00,0.0021
3092.00,0.0023
3091.00,0.0025
3090.00,0.0028
3089.00,0.0031
3088.00,0.0035
3087.00,0.0039
3086.00,0.0043
3085.00,0.0047
3084.00,0.0050
3083.00,0.0052
3082.00,0.0053
3081.00,0.0052
3080.00,0.0050
3079.00,0.0048
3078.00,0.0045
3077.00,0.0043
3076.00,0.0041
3075.00,0.0039
3074.00,0.0038
3073.00,0.0038
3072.00,0.0039
3071.00,0.0039
3070.00,0.0041
3069.00,0.0043
3068.00,0.0046
3067.00,0.0049
3066.00,0.0052
3065.00,0.0056
3064.00,0.0060
3063.00,0.0064
3062.00,0.0067
3061.00,0.0070
3060.00,0.0072
3059.00,0.0072
3058.00,0.0071
3057.00,0.0068
3056.00,0.0065
3055.00,0.0061
3054.00,0.0057
3053.00,0.0053
3052.00,0.0049
3051.00,0.0046
3050.00,0.0043
3049.00,0.0040
3048.00,0.0039
3047.00,0.0037
3046.00,0.0036
3045.00,0.0036
3044.00,0.0036
3043.00,0.0037
3042.00,0.0038
3041.00,0.0040
3040.00,0.0042
3039.00,0.0045
3038.00,0.0048
3037.00,0.0052
3036.00,0.0057
3035.00,0.0062
3034.00,0.0069
3033.00,0.0077
3032.00,0.0086
3031.00,0.0096
3030.00,0.0106
3029.00,0.0116
3028.00,0.0125
3027.00,0.0133
3026.00,0.0138
3025.00,0.0140
3024.00,0.0139
3023.00,0.0133
3022.00,0.0125
3021.00,0.0114
3020.00,0.0101
3019.00,0.0089
3018.00,0.0077
3017.00,0.0067
3016.00,0.0059
3015.00,0.0052
3014.00,0.0046
3013.00,0.0042
3012.00,0.0038
3011.00,0.0036
3010.00,0.0034
3009.00,0.0033
3008.00,0.0033
3007.00,0.0033
3006.00,0.0034
3005.00,0.0035
3004.00,0.0037
3003.00,0.0038
3002.00,0.0038
3001.00,0.0038
3000.00,0.0038
2999.00,0.0036
2998.00,0.0034
2997.00,0.0031
2996.00,0.0028
2995.00,0.0026
2994.00,0.0024
2993.00,0.0022
2992.00,0.0021
2991.00,0.0020
2990.00,0.0019
2989.00,0.0018
2988.00,0.0018
2987.00,0.0018
2986.00,0.0018
2985.00,0.0017
2984.00,0.0017
2983.00,0.0017
2982.00,0.0017
2981.00,0.0017
2980.00,0.0017
2979.00,0.0018
2978.00,0.0018
2977.00,0.0018
2976.00,0.0018
2975.00,0.0018
2974.00,0.0019
2973.00,0.0019
2972.00,0.0019
2971.00,0.0019
2970.00,0.0020
2969.00,0.0020
2968.00,0.0021
2967.00,0.0021
2966.00,0.0022
2965.00,0.0023
2964.00,0.0023
2963.00,0.0024
2962.00,0.0025
2961.00,0.0025
2960.00,0.0026
2959.00,0.0027
2958.00,0.0029
2957.00,0.0030
2956.00,0.0032
2955.00,0.0033
2954.00,0.0035
2953.00,0.0038
2952.00,0.0040
2951.00,0.0042
2950.00,0.0045
2949.00,0.0047
2948.00,0.0050
2947.00,0.0053
2946.00,0.0057
2945.00,0.0060
2944.00,0.0064
2943.00,0.0067
2942.00,0.0071
2941.00,0.0076
2940.00,0.0080
2939.00,0.0085
2938.00,0.0090
2937.00,0.0095
2936.00,0.0100
2935.00,0.0105
2934.00,0.0111
2933.00,0.0117
2932.00,0.0123
2931.00,0.0128
2930.00,0.0134
2929.00,0.0139
2928.00,0.0144
2927.00,0.0148
2926.00,0.0151
2925.00,0.0154
2924.00,0.0156
2923.00,0.0158
2922.00,0.0159
2921.00,0.0160
2920.00,0.0160
2919.00,0.0159
2918.00,0.0158
2917.00,0.0156
2916.00,0.0154
2915.00,0.0151
2914.00,0.0148
2913.00,0.0144
2912.00,0.0141
2911.00,0.0137
2910.00,0.0133
2909.00,0.0129
2908.00,0.0125
2907.00,0.0121
2906.00,0.0117
2905.00,0.0113
2904.00,0.0108
2903.00,0.0104
2902.00,0.0099
2901.00,0.0095
2900.00,0.0091
2899.00,0.0087
2898.00,0.0083
2897.00,0.0079
2896.00,0.0076
2895.00,0.0073
2894.00,0.0070
2893.00,0.0068
2892.00,0.0066
2891.00,0.0064
2890.00,0.0062
2889.00,0.0060
2888.00,0.0058
2887.00,0.0057
2886.00,0.0055
2885.00,0.0054
2884.00,0.0052
2883.00,0.0051
2882.00,0.0050
2881.00,0.0049
2880.00,0.0047
2879.00,0.0046
2878.00,0.0045
2877.00,0.0044
2876.00,0.0043
2875.00,0.0042
2874.00,0.0040
2873.00,0.0040
2872.00,0.0039
2871.00,0.0038
2870.00,0.0038
2869.00,0.0038
2868.00,0.0038
2867.00,0.0038
2866.00,0.0039
2865.00,0.0040
2864.00,0.0041
2863.00,0.0042
2862.00,0.0043
2861.00,0.0045
2860.00,0.0047
2859.00,0.0049
2858.00,0.0051
2857.00,0.0054
2856.00,0.0056
2855.00,0.0058
2854.00,0.0061
2853.00,0.0063
2852.00,0.0065
2851.00,0.0067
2850.00,0.0069
2849.00,0.0069
2848.00,0.0069
2847.00,0.0068
2846.00,0.0067
2845.00,0.0064
2844.00,0.0062
2843.00,0.0058
2842.00,0.0054
2841.00,0.0050
2840.00,0.0046
2839.00,0.0041
2838.00,0.0037
2837.00,0.0033
2836.00,0.0030
2835.00,0.0027
2834.00,0.0025
2833.00,0.0022
2832.00,0.0021
2831.00,0.0019
2830.00,0.0018
2829.00,0.0017
2828.00,0.0017
2827.00,0.0016
2826.00,0.0016
2825.00,0.0015
2824.00,0.0015
2823.00,0.0015
2822.00,0.0014
2821.00,0.0014
2820.00,0.0014
2819.00,0.0014
2818.00,0.0014
2817.00,0.0014
2816.00,0.0014
2815.00,0.0013
2814.00,0.0013
2813.00,0.0013
2812.00,0.0013
2811.00,0.0013
2810.00,0.0013
2809.00,0.0012
2808.00,0.0012
2807.00,0.0012
2806.00,0.0012
2805.00,0.0012
2804.00,0.0012
2803.00,0.0011
2802.00,0.0011
2801.00,0.0011
2800.00,0.0011
2799.00,0.0011
2798.00,0.0011
2797.00,0.0011
2796.00,0.0011
2795.00,0.0011
2794.00,0.0010
2793.00,0.0010
2792.00,0.0010
2791.00,0.0010
2790.00,0.0010
2789.00,0.0010
2788.00,0.0010
2787.00,0.0010
2786.00,0.0010
2785.00,0.0010
2784.00,0.0010
2783.00,0.0010
2782.00,0.0010
2781.00,0.0010
2780.00,0.0010
2779.00,0.0010
2778.00,0.0010
2777.00,0.0010
2776.00,0.0010
2775.00,0.0010
2774.00,0.0010
2773.00,0.0010
2772.00,0.0009
2771.00,0.0009
2770.00,0.0009
2769.00,0.0009
2768.00,0.0009
2767.00,0.0009
2766.00,0.0009
2765.00,0.0009
2764.00,0.0009
2763.00,0.0009
2762.00,0.0009
2761.00,0.0009
2760.00,0.0009
2759.00,0.0009
2758.00,0.0008
2757.00,0.0008
