Created as New Dataset,Sample 1054 By YargerLab Date Monday, August 04 2025
cm-1,A
4000.00,0.0033
3999.00,0.0033
3998.00,0.0033
3997.00,0.0033
3996.00,0.0033
3995.00,0.0032
3994.00,0.0032
3993.00,0.0032
3992.00,0.0032
3991.00,0.0032
3990.00,0.0032
3989.00,0.0032
3988.00,0.0032
3987.00,0.0033
3986.00,0.0033
3985.00,0.0033
3984.00,0.0033
3983.00,0.0033
3982.00,0.0033
3981.00,0.0033
3980.00,0.0032
3979.00,0.0032
3978.00,0.0032
3977.00,0.0033
3976.00,0.0033
3975.00,0.0033
3974.00,0.0033
3973.00,0.0033
3972.00,0.0033
3971.00,0.0033
3970.00,0.0033
3969.00,0.0033
3968.00,0.0033
3967.00,0.0033
3966.00,0.0032
3965.00,0.0032
3964.00,0.0032
3963.00,0.0032
3962.00,0.0032
3961.00,0.0032
3960.00,0.0032
3959.00,0.0032
3958.00,0.0032
3957.00,0.0032
3956.00,0.0032
3955.00,0.0032
3954.00,0.0033
3953.00,0.0033
3952.00,0.0033
3951.00,0.0033
3950.00,0.0033
3949.00,0.0032
3948.00,0.0032
3947.00,0.0032
3946.00,0.0032
3945.00,0.0032
3944.00,0.0032
3943.00,0.0032
3942.00,0.0032
3941.00,0.0032
3940.00,0.0032
3939.00,0.0032
3938.00,0.0032
3937.00,0.0033
3936.00,0.0033
3935.00,0.0033
3934.00,0.0032
3933.00,0.0032
3932.00,0.0032
3931.00,0.0032
3930.00,0.0032
3929.00,0.0032
3928.00,0.0032
3927.00,0.0032
3926.00,0.0032
3925.00,0.0032
3924.00,0.0032
3923.00,0.0032
3922.00,0.0032
3921.00,0.0032
3920.00,0.0032
3919.00,0.0032
3918.00,0.0032
3917.00,0.0032
3916.00,0.0032
3915.00,0.0032
3914.00,0.0032
3913.00,0.0032
3912.00,0.0032
3911.00,0.0032
3910.00,0.0032
3909.00,0.0032
3908.00,0.0032
3907.00,0.0032
3906.00,0.0032
3905.00,0.0032
3904.00,0.0032
3903.00,0.0032
3902.00,0.0032
3901.00,0.0032
3900.00,0.0032
3899.00,0.0032
3898.00,0.0032
3897.00,0.0031
3896.00,0.0031
3895.00,0.0031
3894.00,0.0031
3893.00,0.0032
3892.00,0.0032
3891.00,0.0032
3890.00,0.0032
3889.00,0.0031
3888.00,0.0031
3887.00,0.0031
3886.00,0.0031
3885.00,0.0031
3884.00,0.0031
3883.00,0.0031
3882.00,0.0031
3881.00,0.0031
3880.00,0.0031
3879.00,0.0030
3878.00,0.0030
3877.00,0.0030
3876.00,0.0030
3875.00,0.0030
3874.00,0.0031
3873.00,0.0031
3872.00,0.0031
3871.00,0.0031
3870.00,0.0031
3869.00,0.0031
3868.00,0.0031
3867.00,0.0031
3866.00,0.0031
3865.00,0.0031
3864.00,0.0031
3863.00,0.0031
3862.00,0.0031
3861.00,0.0031
3860.00,0.0032
3859.00,0.0032
3858.00,0.0032
3857.00,0.0032
3856.00,0.0031
3855.00,0.0031
3854.00,0.0030
3853.00,0.0030
3852.00,0.0030
3851.00,0.0030
3850.00,0.0030
3849.00,0.0031
3848.00,0.0031
3847.00,0.0031
3846.00,0.0031
3845.00,0.0031
3844.00,0.0031
3843.00,0.0031
3842.00,0.0031
3841.00,0.0031
3840.00,0.0030
3839.00,0.0030
3838.00,0.0030
3837.00,0.0030
3836.00,0.0030
3835.00,0.0030
3834.00,0.0030
3833.00,0.0030
3832.00,0.0030
3831.00,0.0031
3830.00,0.0031
3829.00,0.0031
3828.00,0.0031
3827.00,0.0031
3826.00,0.0031
3825.00,0.0031
3824.00,0.0031
3823.00,0.0030
3822.00,0.0030
3821.00,0.0030
3820.00,0.0030
3819.00,0.0030
3818.00,0.0030
3817.00,0.0030
3816.00,0.0030
3815.00,0.0030
3814.00,0.0030
3813.00,0.0030
3812.00,0.0030
3811.00,0.0030
3810.00,0.0030
3809.00,0.0030
3808.00,0.0030
3807.00,0.0031
3806.00,0.0031
3805.00,0.0031
3804.00,0.0030
3803.00,0.0030
3802.00,0.0030
3801.00,0.0031
3800.00,0.0031
3799.00,0.0030
3798.00,0.0030
3797.00,0.0030
3796.00,0.0030
3795.00,0.0030
3794.00,0.0030
3793.00,0.0030
3792.00,0.0030
3791.00,0.0030
3790.00,0.0030
3789.00,0.0030
3788.00,0.0031
3787.00,0.0031
3786.00,0.0031
3785.00,0.0031
3784.00,0.0031
3783.00,0.0031
3782.00,0.0031
3781.00,0.0031
3780.00,0.0031
3779.00,0.0031
3778.00,0.0031
3777.00,0.0031
3776.00,0.0030
3775.00,0.0030
3774.00,0.0030
3773.00,0.0030
3772.00,0.0030
3771.00,0.0030
3770.00,0.0031
3769.00,0.0031
3768.00,0.0031
3767.00,0.0031
3766.00,0.0031
3765.00,0.0031
3764.00,0.0031
3763.00,0.0031
3762.00,0.0031
3761.00,0.0031
3760.00,0.0031
3759.00,0.0031
3758.00,0.0031
3757.00,0.0031
3756.00,0.0031
3755.00,0.0031
3754.00,0.0031
3753.00,0.0031
3752.00,0.0031
3751.00,0.0031
3750.00,0.0031
3749.00,0.0030
3748.00,0.0030
3747.00,0.0030
3746.00,0.0029
3745.00,0.0029
3744.00,0.0030
3743.00,0.0030
3742.00,0.0029
3741.00,0.0029
3740.00,0.0030
3739.00,0.0030
3738.00,0.0030
3737.00,0.0029
3736.00,0.0029
3735.00,0.0029
3734.00,0.0029
3733.00,0.0029
3732.00,0.0029
3731.00,0.0029
3730.00,0.0029
3729.00,0.0029
3728.00,0.0029
3727.00,0.0029
3726.00,0.0029
3725.00,0.0029
3724.00,0.0029
3723.00,0.0029
3722.00,0.0029
3721.00,0.0029
3720.00,0.0029
3719.00,0.0029
3718.00,0.0029
3717.00,0.0029
3716.00,0.0029
3715.00,0.0029
3714.00,0.0029
3713.00,0.0029
3712.00,0.0029
3711.00,0.0029
3710.00,0.0028
3709.00,0.0028
3708.00,0.0028
3707.00,0.0028
3706.00,0.0028
3705.00,0.0028
3704.00,0.0028
3703.00,0.0028
3702.00,0.0028
3701.00,0.0028
3700.00,0.0028
3699.00,0.0028
3698.00,0.0028
3697.00,0.0028
3696.00,0.0029
3695.00,0.0029
3694.00,0.0029
3693.00,0.0028
3692.00,0.0028
3691.00,0.0028
3690.00,0.0027
3689.00,0.0028
3688.00,0.0028
3687.00,0.0028
3686.00,0.0028
3685.00,0.0029
3684.00,0.0029
3683.00,0.0029
3682.00,0.0030
3681.00,0.0030
3680.00,0.0030
3679.00,0.0030
3678.00,0.0029
3677.00,0.0029
3676.00,0.0029
3675.00,0.0029
3674.00,0.0029
3673.00,0.0029
3672.00,0.0029
3671.00,0.0029
3670.00,0.0029
3669.00,0.0029
3668.00,0.0029
3667.00,0.0029
3666.00,0.0029
3665.00,0.0029
3664.00,0.0030
3663.00,0.0030
3662.00,0.0030
3661.00,0.0030
3660.00,0.0030
3659.00,0.0030
3658.00,0.0030
3657.00,0.0030
3656.00,0.0031
3655.00,0.0031
3654.00,0.0031
3653.00,0.0031
3652.00,0.0031
3651.00,0.0031
3650.00,0.0031
3649.00,0.0031
3648.00,0.0031
3647.00,0.0031
3646.00,0.0031
3645.00,0.0031
3644.00,0.0031
3643.00,0.0031
3642.00,0.0031
3641.00,0.0032
3640.00,0.0032
3639.00,0.0032
3638.00,0.0032
3637.00,0.0032
3636.00,0.0032
3635.00,0.0032
3634.00,0.0033
3633.00,0.0033
3632.00,0.0033
3631.00,0.0033
3630.00,0.0033
3629.00,0.0033
3628.00,0.0033
3627.00,0.0033
3626.00,0.0033
3625.00,0.0034
3624.00,0.0034
3623.00,0.0035
3622.00,0.0035
3621.00,0.0036
3620.00,0.0036
3619.00,0.0036
3618.00,0.0036
3617.00,0.0036
3616.00,0.0036
3615.00,0.0037
3614.00,0.0037
3613.00,0.0037
3612.00,0.0038
3611.00,0.0038
3610.00,0.0038
3609.00,0.0038
3608.00,0.0038
3607.00,0.0038
3606.00,0.0038
3605.00,0.0038
3604.00,0.0038
3603.00,0.0038
3602.00,0.0039
3601.00,0.0039
3600.00,0.0039
3599.00,0.0040
3598.00,0.0040
3597.00,0.0040
3596.00,0.0041
3595.00,0.0041
3594.00,0.0041
3593.00,0.0042
3592.00,0.0042
3591.00,0.0043
3590.00,0.0043
3589.00,0.0043
3588.00,0.0044
3587.00,0.0044
3586.00,0.0044
3585.00,0.0044
3584.00,0.0044
3583.00,0.0045
3582.00,0.0045
3581.00,0.0045
3580.00,0.0045
3579.00,0.0046
3578.00,0.0046
3577.00,0.0046
3576.00,0.0046
3575.00,0.0047
3574.00,0.0047
3573.00,0.0048
3572.00,0.0049
3571.00,0.0049
3570.00,0.0050
3569.00,0.0050
3568.00,0.0050
3567.00,0.0051
3566.00,0.0051
3565.00,0.0051
3564.00,0.0052
3563.00,0.0052
3562.00,0.0052
3561.00,0.0053
3560.00,0.0053
3559.00,0.0054
3558.00,0.0055
3557.00,0.0055
3556.00,0.0056
3555.00,0.0057
3554.00,0.0057
3553.00,0.0057
3552.00,0.0058
3551.00,0.0058
3550.00,0.0059
3549.00,0.0060
3548.00,0.0060
3547.00,0.0061
3546.00,0.0061
3545.00,0.0062
3544.00,0.0062
3543.00,0.0063
3542.00,0.0063
3541.00,0.0063
3540.00,0.0064
3539.00,0.0064
3538.00,0.0064
3537.00,0.0065
3536.00,0.0065
3535.00,0.0066
3534.00,0.0067
3533.00,0.0068
3532.00,0.0068
3531.00,0.0069
3530.00,0.0069
3529.00,0.0070
3528.00,0.0071
3527.00,0.0071
3526.00,0.0072
3525.00,0.0072
3524.00,0.0073
3523.00,0.0073
3522.00,0.0074
3521.00,0.0074
3520.00,0.0075
3519.00,0.0075
3518.00,0.0076
3517.00,0.0077
3516.00,0.0077
3515.00,0.0078
3514.00,0.0079
3513.00,0.0079
3512.00,0.0080
3511.00,0.0080
3510.00,0.0081
3509.00,0.0082
3508.00,0.0082
3507.00,0.0083
3506.00,0.0084
3505.00,0.0085
3504.00,0.0085
3503.00,0.0086
3502.00,0.0086
3501.00,0.0087
3500.00,0.0088
3499.00,0.0088
3498.00,0.0089
3497.00,0.0090
3496.00,0.0090
3495.00,0.0091
3494.00,0.0092
3493.00,0.0093
3492.00,0.0094
3491.00,0.0095
3490.00,0.0096
3489.00,0.0097
3488.00,0.0098
3487.00,0.0099
3486.00,0.0100
3485.00,0.0101
3484.00,0.0103
3483.00,0.0104
3482.00,0.0105
3481.00,0.0106
3480.00,0.0108
3479.00,0.0109
3478.00,0.0110
3477.00,0.0111
3476.00,0.0112
3475.00,0.0113
3474.00,0.0115
3473.00,0.0116
3472.00,0.0118
3471.00,0.0119
3470.00,0.0121
3469.00,0.0122
3468.00,0.0124
3467.00,0.0126
3466.00,0.0127
3465.00,0.0129
3464.00,0.0130
3463.00,0.0132
3462.00,0.0133
3461.00,0.0135
3460.00,0.0136
3459.00,0.0138
3458.00,0.0140
3457.00,0.0141
3456.00,0.0143
3455.00,0.0145
3454.00,0.0147
3453.00,0.0148
3452.00,0.0150
3451.00,0.0152
3450.00,0.0153
3449.00,0.0155
3448.00,0.0156
3447.00,0.0158
3446.00,0.0160
3445.00,0.0162
3444.00,0.0164
3443.00,0.0166
3442.00,0.0168
3441.00,0.0171
3440.00,0.0173
3439.00,0.0175
3438.00,0.0178
3437.00,0.0180
3436.00,0.0182
3435.00,0.0185
3434.00,0.0187
3433.00,0.0189
3432.00,0.0192
3431.00,0.0195
3430.00,0.0198
3429.00,0.0200
3428.00,0.0203
3427.00,0.0205
3426.00,0.0208
3425.00,0.0210
3424.00,0.0213
3423.00,0.0216
3422.00,0.0220
3421.00,0.0223
3420.00,0.0226
3419.00,0.0229
3418.00,0.0232
3417.00,0.0234
3416.00,0.0237
3415.00,0.0239
3414.00,0.0242
3413.00,0.0244
3412.00,0.0247
3411.00,0.0249
3410.00,0.0251
3409.00,0.0253
3408.00,0.0255
3407.00,0.0256
3406.00,0.0258
3405.00,0.0259
3404.00,0.0260
3403.00,0.0261
3402.00,0.0262
3401.00,0.0263
3400.00,0.0263
3399.00,0.0263
3398.00,0.0263
3397.00,0.0262
3396.00,0.0262
3395.00,0.0261
3394.00,0.0261
3393.00,0.0260
3392.00,0.0259
3391.00,0.0258
3390.00,0.0256
3389.00,0.0255
3388.00,0.0253
3387.00,0.0252
3386.00,0.0250
3385.00,0.0248
3384.00,0.0246
3383.00,0.0244
3382.00,0.0243
3381.00,0.0241
3380.00,0.0239
3379.00,0.0237
3378.00,0.0235
3377.00,0.0233
3376.00,0.0231
3375.00,0.0229
3374.00,0.0228
3373.00,0.0226
3372.00,0.0224
3371.00,0.0223
3370.00,0.0221
3369.00,0.0219
3368.00,0.0218
3367.00,0.0216
3366.00,0.0215
3365.00,0.0213
3364.00,0.0212
3363.00,0.0210
3362.00,0.0209
3361.00,0.0207
3360.00,0.0206
3359.00,0.0205
3358.00,0.0204
3357.00,0.0203
3356.00,0.0202
3355.00,0.0201
3354.00,0.0200
3353.00,0.0199
3352.00,0.0198
3351.00,0.0197
3350.00,0.0196
3349.00,0.0195
3348.00,0.0194
3347.00,0.0194
3346.00,0.0193
3345.00,0.0192
3344.00,0.0192
3343.00,0.0191
3342.00,0.0190
3341.00,0.0190
3340.00,0.0190
3339.00,0.0189
3338.00,0.0189
3337.00,0.0188
3336.00,0.0188
3335.00,0.0188
3334.00,0.0188
3333.00,0.0188
3332.00,0.0188
3331.00,0.0188
3330.00,0.0188
3329.00,0.0188
3328.00,0.0188
3327.00,0.0188
3326.00,0.0188
3325.00,0.0188
3324.00,0.0189
3323.00,0.0189
3322.00,0.0189
3321.00,0.0189
3320.00,0.0190
3319.00,0.0190
3318.00,0.0191
3317.00,0.0191
3316.00,0.0192
3315.00,0.0193
3314.00,0.0193
3313.00,0.0194
3312.00,0.0194
3311.00,0.0195
3310.00,0.0195
3309.00,0.0196
3308.00,0.0197
3307.00,0.0198
3306.00,0.0199
3305.00,0.0199
3304.00,0.0200
3303.00,0.0201
3302.00,0.0202
3301.00,0.0203
3300.00,0.0204
3299.00,0.0205
3298.00,0.0206
3297.00,0.0207
3296.00,0.0207
3295.00,0.0208
3294.00,0.0209
3293.00,0.0210
3292.00,0.0212
3291.00,0.0213
3290.00,0.0214
3289.00,0.0215
3288.00,0.0216
3287.00,0.0218
3286.00,0.0219
3285.00,0.0220
3284.00,0.0221
3283.00,0.0221
3282.00,0.0222
3281.00,0.0224
3280.00,0.0225
3279.00,0.0226
3278.00,0.0227
3277.00,0.0228
3276.00,0.0229
3275.00,0.0230
3274.00,0.0231
3273.00,0.0232
3272.00,0.0233
3271.00,0.0234
3270.00,0.0235
3269.00,0.0236
3268.00,0.0238
3267.00,0.0239
3266.00,0.0240
3265.00,0.0241
3264.00,0.0242
3263.00,0.0243
3262.00,0.0244
3261.00,0.0245
3260.00,0.0246
3259.00,0.0247
3258.00,0.0248
3257.00,0.0249
3256.00,0.0250
3255.00,0.0251
3254.00,0.0252
3253.00,0.0253
3252.00,0.0254
3251.00,0.0256
3250.00,0.0256
3249.00,0.0257
3248.00,0.0258
3247.00,0.0258
3246.00,0.0259
3245.00,0.0260
3244.00,0.0261
3243.00,0.0262
3242.00,0.0262
3241.00,0.0263
3240.00,0.0264
3239.00,0.0264
3238.00,0.0264
3237.00,0.0264
3236.00,0.0264
3235.00,0.0264
3234.00,0.0264
3233.00,0.0264
3232.00,0.0264
3231.00,0.0264
3230.00,0.0264
3229.00,0.0264
3228.00,0.0264
3227.00,0.0263
3226.00,0.0263
3225.00,0.0263
3224.00,0.0262
3223.00,0.0262
3222.00,0.0261
3221.00,0.0261
3220.00,0.0260
3219.00,0.0259
3218.00,0.0259
3217.00,0.0258
3216.00,0.0257
3215.00,0.0256
3214.00,0.0254
3213.00,0.0253
3212.00,0.0252
3211.00,0.0251
3210.00,0.0250
3209.00,0.0248
3208.00,0.0247
3207.00,0.0245
3206.00,0.0244
3205.00,0.0242
3204.00,0.0241
3203.00,0.0239
3202.00,0.0237
3201.00,0.0236
3200.00,0.0234
3199.00,0.0232
3198.00,0.0231
3197.00,0.0229
3196.00,0.0227
3195.00,0.0225
3194.00,0.0224
3193.00,0.0222
3192.00,0.0220
3191.00,0.0218
3190.00,0.0216
3189.00,0.0215
3188.00,0.0213
3187.00,0.0211
3186.00,0.0209
3185.00,0.0208
3184.00,0.0206
3183.00,0.0204
3182.00,0.0202
3181.00,0.0200
3180.00,0.0199
3179.00,0.0197
3178.00,0.0195
3177.00,0.0193
3176.00,0.0192
3175.00,0.0190
3174.00,0.0188
3173.00,0.0186
3172.00,0.0184
3171.00,0.0182
3170.00,0.0180
3169.00,0.0178
3168.00,0.0176
3167.00,0.0174
3166.00,0.0172
3165.00,0.0170
3164.00,0.0169
3163.00,0.0167
3162.00,0.0165
3161.00,0.0164
3160.00,0.0162
3159.00,0.0161
3158.00,0.0159
3157.00,0.0157
3156.00,0.0155
3155.00,0.0153
3154.00,0.0151
3153.00,0.0149
3152.00,0.0147
3151.00,0.0145
3150.00,0.0144
3149.00,0.0143
3148.00,0.0141
3147.00,0.0140
3146.00,0.0138
3145.00,0.0137
3144.00,0.0136
3143.00,0.0134
3142.00,0.0133
3141.00,0.0131
3140.00,0.0129
3139.00,0.0128
3138.00,0.0127
3137.00,0.0126
3136.00,0.0125
3135.00,0.0124
3134.00,0.0122
3133.00,0.0121
3132.00,0.0120
3131.00,0.0119
3130.00,0.0118
3129.00,0.0117
3128.00,0.0116
3127.00,0.0115
3126.00,0.0114
3125.00,0.0114
3124.00,0.0113
3123.00,0.0112
3122.00,0.0111
3121.00,0.0110
3120.00,0.0109
3119.00,0.0108
3118.00,0.0108
3117.00,0.0107
3116.00,0.0106
3115.00,0.0105
3114.00,0.0104
3113.00,0.0103
3112.00,0.0102
3111.00,0.0101
3110.00,0.0100
3109.00,0.0098
3108.00,0.0097
3107.00,0.0096
3106.00,0.0095
3105.00,0.0094
3104.00,0.0093
3103.00,0.0092
3102.00,0.0092
3101.00,0.0091
3100.00,0.0090
3099.00,0.0090
3098.00,0.0090
3097.00,0.0090
3096.00,0.0090
3095.00,0.0090
3094.00,0.0090
3093.00,0.0090
3092.00,0.0090
3091.00,0.0090
3090.00,0.0091
3089.00,0.0091
3088.00,0.0092
3087.00,0.0092
3086.00,0.0092
3085.00,0.0092
3084.00,0.0092
3083.00,0.0092
3082.00,0.0092
3081.00,0.0091
3080.00,0.0091
3079.00,0.0091
3078.00,0.0090
3077.00,0.0090
3076.00,0.0089
3075.00,0.0089
3074.00,0.0088
3073.00,0.0088
3072.00,0.0087
3071.00,0.0087
3070.00,0.0087
3069.00,0.0087
3068.00,0.0087
3067.00,0.0087
3066.00,0.0086
3065.00,0.0087
3064.00,0.0087
3063.00,0.0087
3062.00,0.0087
3061.00,0.0087
3060.00,0.0088
3059.00,0.0088
3058.00,0.0088
3057.00,0.0088
3056.00,0.0088
3055.00,0.0089
3054.00,0.0089
3053.00,0.0089
3052.00,0.0089
3051.00,0.0089
3050.00,0.0089
3049.00,0.0089
3048.00,0.0088
3047.00,0.0088
3046.00,0.0087
3045.00,0.0087
3044.00,0.0087
3043.00,0.0087
3042.00,0.0088
3041.00,0.0089
3040.00,0.0090
3039.00,0.0091
3038.00,0.0092
3037.00,0.0093
3036.00,0.0094
3035.00,0.0095
3034.00,0.0096
3033.00,0.0097
3032.00,0.0097
3031.00,0.0096
3030.00,0.0096
3029.00,0.0095
3028.00,0.0094
3027.00,0.0092
3026.00,0.0091
3025.00,0.0089
3024.00,0.0088
3023.00,0.0086
3022.00,0.0085
3021.00,0.0084
3020.00,0.0083
3019.00,0.0083
3018.00,0.0082
3017.00,0.0082
3016.00,0.0081
3015.00,0.0081
3014.00,0.0081
3013.00,0.0082
3012.00,0.0082
3011.00,0.0083
3010.00,0.0084
3009.00,0.0085
3008.00,0.0086
3007.00,0.0088
3006.00,0.0090
3005.00,0.0092
3004.00,0.0095
3003.00,0.0098
3002.00,0.0101
3001.00,0.0105
3000.00,0.0109
2999.00,0.0113
2998.00,0.0119
2997.00,0.0124
2996.00,0.0130
2995.00,0.0136
2994.00,0.0141
2993.00,0.0146
2992.00,0.0150
2991.00,0.0153
2990.00,0.0156
2989.00,0.0159
2988.00,0.0163
2987.00,0.0167
2986.00,0.0171
2985.00,0.0177
2984.00,0.0185
2983.00,0.0194
2982.00,0.0204
2981.00,0.0215
2980.00,0.0225
2979.00,0.0233
2978.00,0.0238
2977.00,0.0241
2976.00,0.0244
2975.00,0.0249
2974.00,0.0257
2973.00,0.0268
2972.00,0.0282
2971.00,0.0295
2970.00,0.0305
2969.00,0.0313
2968.00,0.0319
2967.00,0.0323
2966.00,0.0327
2965.00,0.0333
2964.00,0.0340
2963.00,0.0347
2962.00,0.0354
2961.00,0.0359
2960.00,0.0361
2959.00,0.0359
2958.00,0.0354
2957.00,0.0345
2956.00,0.0334
2955.00,0.0322
2954.00,0.0310
2953.00,0.0299
2952.00,0.0289
2951.00,0.0281
2950.00,0.0274
2949.00,0.0271
2948.00,0.0270
2947.00,0.0271
2946.00,0.0275
2945.00,0.0280
2944.00,0.0287
2943.00,0.0295
2942.00,0.0304
2941.00,0.0315
2940.00,0.0327
2939.00,0.0340
2938.00,0.0357
2937.00,0.0375
2936.00,0.0397
2935.00,0.0420
2934.00,0.0445
2933.00,0.0471
2932.00,0.0497
2931.00,0.0522
2930.00,0.0545
2929.00,0.0565
2928.00,0.0579
2927.00,0.0588
2926.00,0.0590
2925.00,0.0587
2924.00,0.0579
2923.00,0.0567
2922.00,0.0552
2921.00,0.0535
2920.00,0.0518
2919.00,0.0499
2918.00,0.0481
2917.00,0.0462
2916.00,0.0444
2915.00,0.0426
2914.00,0.0409
2913.00,0.0394
2912.00,0.0379
2911.00,0.0366
2910.00,0.0355
2909.00,0.0343
2908.00,0.0333
2907.00,0.0324
2906.00,0.0315
2905.00,0.0306
2904.00,0.0298
2903.00,0.0291
2902.00,0.0283
2901.00,0.0276
2900.00,0.0269
2899.00,0.0262
2898.00,0.0256
2897.00,0.0250
2896.00,0.0244
2895.00,0.0240
2894.00,0.0235
2893.00,0.0231
2892.00,0.0227
2891.00,0.0223
2890.00,0.0220
2889.00,0.0216
2888.00,0.0213
2887.00,0.0210
2886.00,0.0208
2885.00,0.0205
2884.00,0.0204
2883.00,0.0204
2882.00,0.0204
2881.00,0.0207
2880.00,0.0210
2879.00,0.0216
2878.00,0.0223
2877.00,0.0232
2876.00,0.0241
2875.00,0.0250
2874.00,0.0257
2873.00,0.0263
2872.00,0.0266
2871.00,0.0267
2870.00,0.0266
2869.00,0.0264
2868.00,0.0263
2867.00,0.0263
2866.00,0.0266
2865.00,0.0272
2864.00,0.0281
2863.00,0.0295
2862.00,0.0312
2861.00,0.0332
2860.00,0.0354
2859.00,0.0375
2858.00,0.0392
2857.00,0.0405
2856.00,0.0413
2855.00,0.0417
2854.00,0.0416
2853.00,0.0411
2852.00,0.0403
2851.00,0.0391
2850.00,0.0373
2849.00,0.0352
2848.00,0.0328
2847.00,0.0303
2846.00,0.0280
2845.00,0.0258
2844.00,0.0238
2843.00,0.0221
2842.00,0.0205
2841.00,0.0192
2840.00,0.0180
2839.00,0.0170
2838.00,0.0161
2837.00,0.0153
2836.00,0.0147
2835.00,0.0141
2834.00,0.0136
2833.00,0.0132
2832.00,0.0128
2831.00,0.0124
2830.00,0.0120
2829.00,0.0117
2828.00,0.0114
2827.00,0.0111
2826.00,0.0108
2825.00,0.0106
2824.00,0.0103
2823.00,0.0101
2822.00,0.0099
2821.00,0.0098
2820.00,0.0096
2819.00,0.0094
2818.00,0.0092
2817.00,0.0091
2816.00,0.0090
2815.00,0.0088
2814.00,0.0087
2813.00,0.0086
2812.00,0.0085
2811.00,0.0084
2810.00,0.0084
2809.00,0.0083
2808.00,0.0082
2807.00,0.0081
2806.00,0.0081
2805.00,0.0080
2804.00,0.0079
2803.00,0.0079
2802.00,0.0078
2801.00,0.0077
2800.00,0.0076
2799.00,0.0075
2798.00,0.0075
2797.00,0.0074
2796.00,0.0074
2795.00,0.0073
2794.00,0.0072
2793.00,0.0071
2792.00,0.0071
2791.00,0.0070
2790.00,0.0069
2789.00,0.0069
2788.00,0.0068
2787.00,0.0068
2786.00,0.0067
2785.00,0.0067
2784.00,0.0067
2783.00,0.0066
2782.00,0.0066
2781.00,0.0065
2780.00,0.0065
2779.00,0.0064
2778.00,0.0064
2777.00,0.0063
2776.00,0.0063
2775.00,0.0063
2774.00,0.0063
2773.00,0.0063
2772.00,0.0062
2771.00,0.0062
2770.00,0.0062
2769.00,0.0062
2768.00,0.0062
2767.00,0.0062
2766.00,0.0062
2765.00,0.0062
2764.00,0.0062
2763.00,0.0062
2762.00,0.0061
2761.00,0.0061
2760.00,0.0061
2759.00,0.0062
2758.00,0.0062
2757.00,0.0062
