Created as New Dataset,Sample 1052 By YargerLab Date Monday, August 04 2025
cm-1,A
4000.00,0.0043
3999.00,0.0043
3998.00,0.0043
3997.00,0.0043
3996.00,0.0043
3995.00,0.0042
3994.00,0.0042
3993.00,0.0042
3992.00,0.0042
3991.00,0.0042
3990.00,0.0042
3989.00,0.0042
3988.00,0.0042
3987.00,0.0042
3986.00,0.0042
3985.00,0.0043
3984.00,0.0043
3983.00,0.0043
3982.00,0.0043
3981.00,0.0043
3980.00,0.0043
3979.00,0.0043
3978.00,0.0042
3977.00,0.0043
3976.00,0.0043
3975.00,0.0043
3974.00,0.0042
3973.00,0.0042
3972.00,0.0042
3971.00,0.0043
3970.00,0.0043
3969.00,0.0043
3968.00,0.0043
3967.00,0.0043
3966.00,0.0043
3965.00,0.0042
3964.00,0.0042
3963.00,0.0042
3962.00,0.0042
3961.00,0.0042
3960.00,0.0042
3959.00,0.0042
3958.00,0.0042
3957.00,0.0042
3956.00,0.0042
3955.00,0.0042
3954.00,0.0042
3953.00,0.0042
3952.00,0.0042
3951.00,0.0042
3950.00,0.0042
3949.00,0.0042
3948.00,0.0042
3947.00,0.0042
3946.00,0.0042
3945.00,0.0042
3944.00,0.0042
3943.00,0.0042
3942.00,0.0042
3941.00,0.0042
3940.00,0.0042
3939.00,0.0042
3938.00,0.0042
3937.00,0.0042
3936.00,0.0042
3935.00,0.0042
3934.00,0.0042
3933.00,0.0042
3932.00,0.0043
3931.00,0.0042
3930.00,0.0042
3929.00,0.0042
3928.00,0.0042
3927.00,0.0042
3926.00,0.0042
3925.00,0.0042
3924.00,0.0042
3923.00,0.0042
3922.00,0.0042
3921.00,0.0042
3920.00,0.0042
3919.00,0.0042
3918.00,0.0042
3917.00,0.0042
3916.00,0.0042
3915.00,0.0042
3914.00,0.0042
3913.00,0.0042
3912.00,0.0042
3911.00,0.0042
3910.00,0.0042
3909.00,0.0042
3908.00,0.0042
3907.00,0.0042
3906.00,0.0041
3905.00,0.0041
3904.00,0.0041
3903.00,0.0041
3902.00,0.0042
3901.00,0.0042
3900.00,0.0042
3899.00,0.0042
3898.00,0.0042
3897.00,0.0042
3896.00,0.0042
3895.00,0.0042
3894.00,0.0042
3893.00,0.0041
3892.00,0.0041
3891.00,0.0041
3890.00,0.0041
3889.00,0.0041
3888.00,0.0041
3887.00,0.0041
3886.00,0.0041
3885.00,0.0041
3884.00,0.0041
3883.00,0.0041
3882.00,0.0041
3881.00,0.0041
3880.00,0.0041
3879.00,0.0041
3878.00,0.0041
3877.00,0.0042
3876.00,0.0042
3875.00,0.0041
3874.00,0.0041
3873.00,0.0041
3872.00,0.0041
3871.00,0.0041
3870.00,0.0041
3869.00,0.0041
3868.00,0.0041
3867.00,0.0041
3866.00,0.0041
3865.00,0.0041
3864.00,0.0041
3863.00,0.0041
3862.00,0.0041
3861.00,0.0041
3860.00,0.0041
3859.00,0.0041
3858.00,0.0041
3857.00,0.0041
3856.00,0.0041
3855.00,0.0041
3854.00,0.0041
3853.00,0.0041
3852.00,0.0040
3851.00,0.0040
3850.00,0.0040
3849.00,0.0041
3848.00,0.0041
3847.00,0.0041
3846.00,0.0042
3845.00,0.0041
3844.00,0.0041
3843.00,0.0041
3842.00,0.0041
3841.00,0.0041
3840.00,0.0040
3839.00,0.0040
3838.00,0.0040
3837.00,0.0041
3836.00,0.0041
3835.00,0.0041
3834.00,0.0041
3833.00,0.0042
3832.00,0.0042
3831.00,0.0042
3830.00,0.0042
3829.00,0.0041
3828.00,0.0041
3827.00,0.0041
3826.00,0.0041
3825.00,0.0041
3824.00,0.0041
3823.00,0.0041
3822.00,0.0042
3821.00,0.0042
3820.00,0.0042
3819.00,0.0041
3818.00,0.0041
3817.00,0.0040
3816.00,0.0040
3815.00,0.0040
3814.00,0.0041
3813.00,0.0041
3812.00,0.0041
3811.00,0.0041
3810.00,0.0041
3809.00,0.0041
3808.00,0.0041
3807.00,0.0041
3806.00,0.0040
3805.00,0.0040
3804.00,0.0040
3803.00,0.0040
3802.00,0.0040
3801.00,0.0040
3800.00,0.0040
3799.00,0.0040
3798.00,0.0041
3797.00,0.0041
3796.00,0.0041
3795.00,0.0041
3794.00,0.0041
3793.00,0.0041
3792.00,0.0041
3791.00,0.0042
3790.00,0.0042
3789.00,0.0042
3788.00,0.0042
3787.00,0.0042
3786.00,0.0042
3785.00,0.0042
3784.00,0.0042
3783.00,0.0042
3782.00,0.0042
3781.00,0.0042
3780.00,0.0041
3779.00,0.0041
3778.00,0.0041
3777.00,0.0041
3776.00,0.0041
3775.00,0.0042
3774.00,0.0042
3773.00,0.0042
3772.00,0.0042
3771.00,0.0042
3770.00,0.0041
3769.00,0.0041
3768.00,0.0041
3767.00,0.0041
3766.00,0.0041
3765.00,0.0042
3764.00,0.0042
3763.00,0.0042
3762.00,0.0042
3761.00,0.0042
3760.00,0.0042
3759.00,0.0042
3758.00,0.0042
3757.00,0.0042
3756.00,0.0041
3755.00,0.0041
3754.00,0.0041
3753.00,0.0040
3752.00,0.0040
3751.00,0.0040
3750.00,0.0040
3749.00,0.0040
3748.00,0.0039
3747.00,0.0039
3746.00,0.0039
3745.00,0.0040
3744.00,0.0041
3743.00,0.0041
3742.00,0.0041
3741.00,0.0041
3740.00,0.0040
3739.00,0.0040
3738.00,0.0040
3737.00,0.0040
3736.00,0.0040
3735.00,0.0040
3734.00,0.0040
3733.00,0.0039
3732.00,0.0039
3731.00,0.0039
3730.00,0.0039
3729.00,0.0040
3728.00,0.0040
3727.00,0.0040
3726.00,0.0041
3725.00,0.0041
3724.00,0.0041
3723.00,0.0041
3722.00,0.0041
3721.00,0.0041
3720.00,0.0041
3719.00,0.0041
3718.00,0.0041
3717.00,0.0041
3716.00,0.0040
3715.00,0.0040
3714.00,0.0040
3713.00,0.0040
3712.00,0.0040
3711.00,0.0040
3710.00,0.0040
3709.00,0.0040
3708.00,0.0039
3707.00,0.0039
3706.00,0.0039
3705.00,0.0040
3704.00,0.0040
3703.00,0.0040
3702.00,0.0040
3701.00,0.0040
3700.00,0.0040
3699.00,0.0040
3698.00,0.0040
3697.00,0.0040
3696.00,0.0040
3695.00,0.0040
3694.00,0.0040
3693.00,0.0040
3692.00,0.0040
3691.00,0.0040
3690.00,0.0039
3689.00,0.0039
3688.00,0.0039
3687.00,0.0039
3686.00,0.0039
3685.00,0.0039
3684.00,0.0039
3683.00,0.0040
3682.00,0.0040
3681.00,0.0041
3680.00,0.0041
3679.00,0.0041
3678.00,0.0041
3677.00,0.0040
3676.00,0.0040
3675.00,0.0040
3674.00,0.0040
3673.00,0.0040
3672.00,0.0041
3671.00,0.0041
3670.00,0.0041
3669.00,0.0041
3668.00,0.0041
3667.00,0.0041
3666.00,0.0041
3665.00,0.0041
3664.00,0.0042
3663.00,0.0042
3662.00,0.0042
3661.00,0.0042
3660.00,0.0042
3659.00,0.0042
3658.00,0.0042
3657.00,0.0042
3656.00,0.0042
3655.00,0.0042
3654.00,0.0042
3653.00,0.0042
3652.00,0.0042
3651.00,0.0042
3650.00,0.0042
3649.00,0.0042
3648.00,0.0042
3647.00,0.0043
3646.00,0.0043
3645.00,0.0043
3644.00,0.0044
3643.00,0.0044
3642.00,0.0044
3641.00,0.0044
3640.00,0.0044
3639.00,0.0044
3638.00,0.0044
3637.00,0.0044
3636.00,0.0045
3635.00,0.0045
3634.00,0.0045
3633.00,0.0045
3632.00,0.0045
3631.00,0.0045
3630.00,0.0045
3629.00,0.0045
3628.00,0.0046
3627.00,0.0046
3626.00,0.0046
3625.00,0.0046
3624.00,0.0047
3623.00,0.0047
3622.00,0.0047
3621.00,0.0047
3620.00,0.0048
3619.00,0.0048
3618.00,0.0048
3617.00,0.0048
3616.00,0.0048
3615.00,0.0049
3614.00,0.0049
3613.00,0.0049
3612.00,0.0049
3611.00,0.0050
3610.00,0.0050
3609.00,0.0051
3608.00,0.0051
3607.00,0.0052
3606.00,0.0052
3605.00,0.0052
3604.00,0.0052
3603.00,0.0053
3602.00,0.0053
3601.00,0.0053
3600.00,0.0054
3599.00,0.0054
3598.00,0.0054
3597.00,0.0054
3596.00,0.0054
3595.00,0.0055
3594.00,0.0055
3593.00,0.0055
3592.00,0.0056
3591.00,0.0056
3590.00,0.0056
3589.00,0.0057
3588.00,0.0057
3587.00,0.0058
3586.00,0.0058
3585.00,0.0058
3584.00,0.0059
3583.00,0.0059
3582.00,0.0059
3581.00,0.0059
3580.00,0.0060
3579.00,0.0060
3578.00,0.0061
3577.00,0.0061
3576.00,0.0061
3575.00,0.0062
3574.00,0.0062
3573.00,0.0063
3572.00,0.0063
3571.00,0.0063
3570.00,0.0063
3569.00,0.0064
3568.00,0.0064
3567.00,0.0065
3566.00,0.0065
3565.00,0.0066
3564.00,0.0066
3563.00,0.0067
3562.00,0.0068
3561.00,0.0068
3560.00,0.0069
3559.00,0.0070
3558.00,0.0070
3557.00,0.0070
3556.00,0.0071
3555.00,0.0071
3554.00,0.0071
3553.00,0.0072
3552.00,0.0072
3551.00,0.0073
3550.00,0.0073
3549.00,0.0074
3548.00,0.0074
3547.00,0.0075
3546.00,0.0075
3545.00,0.0076
3544.00,0.0077
3543.00,0.0077
3542.00,0.0078
3541.00,0.0078
3540.00,0.0078
3539.00,0.0079
3538.00,0.0079
3537.00,0.0080
3536.00,0.0080
3535.00,0.0081
3534.00,0.0081
3533.00,0.0082
3532.00,0.0083
3531.00,0.0083
3530.00,0.0083
3529.00,0.0084
3528.00,0.0084
3527.00,0.0085
3526.00,0.0085
3525.00,0.0086
3524.00,0.0086
3523.00,0.0087
3522.00,0.0087
3521.00,0.0088
3520.00,0.0089
3519.00,0.0089
3518.00,0.0090
3517.00,0.0090
3516.00,0.0091
3515.00,0.0091
3514.00,0.0091
3513.00,0.0092
3512.00,0.0092
3511.00,0.0092
3510.00,0.0093
3509.00,0.0093
3508.00,0.0094
3507.00,0.0094
3506.00,0.0095
3505.00,0.0095
3504.00,0.0096
3503.00,0.0097
3502.00,0.0097
3501.00,0.0098
3500.00,0.0099
3499.00,0.0099
3498.00,0.0100
3497.00,0.0100
3496.00,0.0101
3495.00,0.0102
3494.00,0.0103
3493.00,0.0104
3492.00,0.0104
3491.00,0.0105
3490.00,0.0106
3489.00,0.0107
3488.00,0.0108
3487.00,0.0108
3486.00,0.0109
3485.00,0.0110
3484.00,0.0111
3483.00,0.0111
3482.00,0.0112
3481.00,0.0113
3480.00,0.0114
3479.00,0.0115
3478.00,0.0116
3477.00,0.0117
3476.00,0.0118
3475.00,0.0119
3474.00,0.0120
3473.00,0.0121
3472.00,0.0123
3471.00,0.0124
3470.00,0.0125
3469.00,0.0126
3468.00,0.0127
3467.00,0.0128
3466.00,0.0129
3465.00,0.0130
3464.00,0.0132
3463.00,0.0133
3462.00,0.0134
3461.00,0.0135
3460.00,0.0137
3459.00,0.0138
3458.00,0.0139
3457.00,0.0140
3456.00,0.0141
3455.00,0.0143
3454.00,0.0144
3453.00,0.0145
3452.00,0.0147
3451.00,0.0148
3450.00,0.0149
3449.00,0.0150
3448.00,0.0152
3447.00,0.0153
3446.00,0.0155
3445.00,0.0156
3444.00,0.0157
3443.00,0.0159
3442.00,0.0160
3441.00,0.0162
3440.00,0.0164
3439.00,0.0165
3438.00,0.0167
3437.00,0.0170
3436.00,0.0171
3435.00,0.0173
3434.00,0.0175
3433.00,0.0176
3432.00,0.0178
3431.00,0.0180
3430.00,0.0182
3429.00,0.0184
3428.00,0.0186
3427.00,0.0188
3426.00,0.0191
3425.00,0.0193
3424.00,0.0195
3423.00,0.0197
3422.00,0.0199
3421.00,0.0202
3420.00,0.0204
3419.00,0.0207
3418.00,0.0209
3417.00,0.0211
3416.00,0.0213
3415.00,0.0215
3414.00,0.0217
3413.00,0.0218
3412.00,0.0220
3411.00,0.0222
3410.00,0.0224
3409.00,0.0225
3408.00,0.0226
3407.00,0.0227
3406.00,0.0229
3405.00,0.0230
3404.00,0.0230
3403.00,0.0231
3402.00,0.0231
3401.00,0.0231
3400.00,0.0232
3399.00,0.0232
3398.00,0.0231
3397.00,0.0231
3396.00,0.0231
3395.00,0.0231
3394.00,0.0230
3393.00,0.0230
3392.00,0.0229
3391.00,0.0228
3390.00,0.0227
3389.00,0.0225
3388.00,0.0224
3387.00,0.0223
3386.00,0.0222
3385.00,0.0220
3384.00,0.0219
3383.00,0.0218
3382.00,0.0216
3381.00,0.0215
3380.00,0.0213
3379.00,0.0212
3378.00,0.0210
3377.00,0.0209
3376.00,0.0207
3375.00,0.0206
3374.00,0.0204
3373.00,0.0202
3372.00,0.0201
3371.00,0.0199
3370.00,0.0198
3369.00,0.0197
3368.00,0.0196
3367.00,0.0194
3366.00,0.0193
3365.00,0.0192
3364.00,0.0191
3363.00,0.0190
3362.00,0.0189
3361.00,0.0188
3360.00,0.0187
3359.00,0.0186
3358.00,0.0185
3357.00,0.0184
3356.00,0.0184
3355.00,0.0183
3354.00,0.0182
3353.00,0.0181
3352.00,0.0180
3351.00,0.0179
3350.00,0.0179
3349.00,0.0178
3348.00,0.0178
3347.00,0.0177
3346.00,0.0177
3345.00,0.0176
3344.00,0.0175
3343.00,0.0175
3342.00,0.0174
3341.00,0.0174
3340.00,0.0174
3339.00,0.0174
3338.00,0.0173
3337.00,0.0173
3336.00,0.0173
3335.00,0.0173
3334.00,0.0173
3333.00,0.0173
3332.00,0.0173
3331.00,0.0173
3330.00,0.0173
3329.00,0.0173
3328.00,0.0173
3327.00,0.0172
3326.00,0.0172
3325.00,0.0173
3324.00,0.0173
3323.00,0.0174
3322.00,0.0174
3321.00,0.0174
3320.00,0.0174
3319.00,0.0174
3318.00,0.0175
3317.00,0.0175
3316.00,0.0175
3315.00,0.0176
3314.00,0.0176
3313.00,0.0177
3312.00,0.0177
3311.00,0.0177
3310.00,0.0177
3309.00,0.0177
3308.00,0.0177
3307.00,0.0178
3306.00,0.0178
3305.00,0.0179
3304.00,0.0180
3303.00,0.0181
3302.00,0.0182
3301.00,0.0183
3300.00,0.0184
3299.00,0.0184
3298.00,0.0185
3297.00,0.0185
3296.00,0.0186
3295.00,0.0186
3294.00,0.0187
3293.00,0.0188
3292.00,0.0189
3291.00,0.0190
3290.00,0.0191
3289.00,0.0192
3288.00,0.0193
3287.00,0.0194
3286.00,0.0195
3285.00,0.0195
3284.00,0.0196
3283.00,0.0197
3282.00,0.0197
3281.00,0.0198
3280.00,0.0199
3279.00,0.0200
3278.00,0.0201
3277.00,0.0201
3276.00,0.0202
3275.00,0.0203
3274.00,0.0203
3273.00,0.0203
3272.00,0.0204
3271.00,0.0205
3270.00,0.0206
3269.00,0.0207
3268.00,0.0208
3267.00,0.0209
3266.00,0.0209
3265.00,0.0210
3264.00,0.0211
3263.00,0.0212
3262.00,0.0212
3261.00,0.0213
3260.00,0.0214
3259.00,0.0215
3258.00,0.0215
3257.00,0.0216
3256.00,0.0217
3255.00,0.0218
3254.00,0.0219
3253.00,0.0220
3252.00,0.0220
3251.00,0.0221
3250.00,0.0221
3249.00,0.0221
3248.00,0.0222
3247.00,0.0222
3246.00,0.0223
3245.00,0.0224
3244.00,0.0225
3243.00,0.0225
3242.00,0.0225
3241.00,0.0225
3240.00,0.0226
3239.00,0.0226
3238.00,0.0226
3237.00,0.0226
3236.00,0.0225
3235.00,0.0225
3234.00,0.0225
3233.00,0.0225
3232.00,0.0225
3231.00,0.0226
3230.00,0.0226
3229.00,0.0226
3228.00,0.0226
3227.00,0.0225
3226.00,0.0225
3225.00,0.0224
3224.00,0.0224
3223.00,0.0223
3222.00,0.0223
3221.00,0.0222
3220.00,0.0221
3219.00,0.0221
3218.00,0.0220
3217.00,0.0220
3216.00,0.0219
3215.00,0.0219
3214.00,0.0218
3213.00,0.0217
3212.00,0.0216
3211.00,0.0215
3210.00,0.0214
3209.00,0.0213
3208.00,0.0212
3207.00,0.0211
3206.00,0.0209
3205.00,0.0208
3204.00,0.0207
3203.00,0.0205
3202.00,0.0204
3201.00,0.0203
3200.00,0.0201
3199.00,0.0200
3198.00,0.0199
3197.00,0.0197
3196.00,0.0196
3195.00,0.0194
3194.00,0.0193
3193.00,0.0192
3192.00,0.0191
3191.00,0.0190
3190.00,0.0188
3189.00,0.0187
3188.00,0.0186
3187.00,0.0184
3186.00,0.0183
3185.00,0.0182
3184.00,0.0180
3183.00,0.0179
3182.00,0.0177
3181.00,0.0176
3180.00,0.0175
3179.00,0.0173
3178.00,0.0172
3177.00,0.0170
3176.00,0.0169
3175.00,0.0168
3174.00,0.0167
3173.00,0.0166
3172.00,0.0164
3171.00,0.0163
3170.00,0.0161
3169.00,0.0160
3168.00,0.0158
3167.00,0.0157
3166.00,0.0155
3165.00,0.0154
3164.00,0.0152
3163.00,0.0151
3162.00,0.0150
3161.00,0.0148
3160.00,0.0147
3159.00,0.0146
3158.00,0.0144
3157.00,0.0143
3156.00,0.0141
3155.00,0.0139
3154.00,0.0138
3153.00,0.0136
3152.00,0.0135
3151.00,0.0134
3150.00,0.0133
3149.00,0.0132
3148.00,0.0131
3147.00,0.0130
3146.00,0.0129
3145.00,0.0128
3144.00,0.0127
3143.00,0.0125
3142.00,0.0124
3141.00,0.0122
3140.00,0.0121
3139.00,0.0120
3138.00,0.0119
3137.00,0.0118
3136.00,0.0118
3135.00,0.0117
3134.00,0.0116
3133.00,0.0115
3132.00,0.0114
3131.00,0.0113
3130.00,0.0112
3129.00,0.0112
3128.00,0.0111
3127.00,0.0110
3126.00,0.0110
3125.00,0.0109
3124.00,0.0108
3123.00,0.0107
3122.00,0.0107
3121.00,0.0106
3120.00,0.0105
3119.00,0.0105
3118.00,0.0104
3117.00,0.0103
3116.00,0.0103
3115.00,0.0102
3114.00,0.0101
3113.00,0.0100
3112.00,0.0099
3111.00,0.0098
3110.00,0.0098
3109.00,0.0097
3108.00,0.0096
3107.00,0.0095
3106.00,0.0094
3105.00,0.0094
3104.00,0.0093
3103.00,0.0092
3102.00,0.0091
3101.00,0.0091
3100.00,0.0090
3099.00,0.0090
3098.00,0.0090
3097.00,0.0090
3096.00,0.0089
3095.00,0.0089
3094.00,0.0089
3093.00,0.0089
3092.00,0.0089
3091.00,0.0090
3090.00,0.0090
3089.00,0.0090
3088.00,0.0091
3087.00,0.0091
3086.00,0.0091
3085.00,0.0091
3084.00,0.0091
3083.00,0.0090
3082.00,0.0090
3081.00,0.0090
3080.00,0.0090
3079.00,0.0089
3078.00,0.0089
3077.00,0.0089
3076.00,0.0089
3075.00,0.0088
3074.00,0.0088
3073.00,0.0087
3072.00,0.0087
3071.00,0.0086
3070.00,0.0086
3069.00,0.0086
3068.00,0.0086
3067.00,0.0086
3066.00,0.0086
3065.00,0.0086
3064.00,0.0086
3063.00,0.0086
3062.00,0.0086
3061.00,0.0086
3060.00,0.0086
3059.00,0.0086
3058.00,0.0086
3057.00,0.0087
3056.00,0.0087
3055.00,0.0087
3054.00,0.0087
3053.00,0.0087
3052.00,0.0087
3051.00,0.0087
3050.00,0.0087
3049.00,0.0087
3048.00,0.0086
3047.00,0.0086
3046.00,0.0086
3045.00,0.0086
3044.00,0.0085
3043.00,0.0085
3042.00,0.0086
3041.00,0.0086
3040.00,0.0087
3039.00,0.0088
3038.00,0.0089
3037.00,0.0090
3036.00,0.0091
3035.00,0.0092
3034.00,0.0092
3033.00,0.0092
3032.00,0.0092
3031.00,0.0092
3030.00,0.0092
3029.00,0.0091
3028.00,0.0090
3027.00,0.0089
3026.00,0.0088
3025.00,0.0087
3024.00,0.0086
3023.00,0.0085
3022.00,0.0084
3021.00,0.0083
3020.00,0.0082
3019.00,0.0082
3018.00,0.0081
3017.00,0.0081
3016.00,0.0081
3015.00,0.0081
3014.00,0.0081
3013.00,0.0081
3012.00,0.0082
3011.00,0.0082
3010.00,0.0083
3009.00,0.0084
3008.00,0.0085
3007.00,0.0086
3006.00,0.0088
3005.00,0.0090
3004.00,0.0092
3003.00,0.0095
3002.00,0.0097
3001.00,0.0100
3000.00,0.0103
2999.00,0.0107
2998.00,0.0111
2997.00,0.0116
2996.00,0.0120
2995.00,0.0125
2994.00,0.0129
2993.00,0.0132
2992.00,0.0135
2991.00,0.0138
2990.00,0.0141
2989.00,0.0143
2988.00,0.0146
2987.00,0.0149
2986.00,0.0153
2985.00,0.0158
2984.00,0.0163
2983.00,0.0170
2982.00,0.0178
2981.00,0.0187
2980.00,0.0194
2979.00,0.0200
2978.00,0.0203
2977.00,0.0206
2976.00,0.0208
2975.00,0.0213
2974.00,0.0220
2973.00,0.0229
2972.00,0.0240
2971.00,0.0250
2970.00,0.0258
2969.00,0.0263
2968.00,0.0267
2967.00,0.0271
2966.00,0.0274
2965.00,0.0279
2964.00,0.0285
2963.00,0.0291
2962.00,0.0297
2961.00,0.0301
2960.00,0.0303
2959.00,0.0301
2958.00,0.0297
2957.00,0.0291
2956.00,0.0283
2955.00,0.0274
2954.00,0.0264
2953.00,0.0256
2952.00,0.0248
2951.00,0.0242
2950.00,0.0238
2949.00,0.0235
2948.00,0.0234
2947.00,0.0236
2946.00,0.0238
2945.00,0.0243
2944.00,0.0248
2943.00,0.0254
2942.00,0.0262
2941.00,0.0270
2940.00,0.0279
2939.00,0.0290
2938.00,0.0303
2937.00,0.0318
2936.00,0.0334
2935.00,0.0352
2934.00,0.0371
2933.00,0.0391
2932.00,0.0411
2931.00,0.0430
2930.00,0.0446
2929.00,0.0460
2928.00,0.0470
2927.00,0.0476
2926.00,0.0477
2925.00,0.0473
2924.00,0.0467
2923.00,0.0457
2922.00,0.0446
2921.00,0.0434
2920.00,0.0420
2919.00,0.0406
2918.00,0.0392
2917.00,0.0378
2916.00,0.0364
2915.00,0.0350
2914.00,0.0338
2913.00,0.0327
2912.00,0.0316
2911.00,0.0307
2910.00,0.0298
2909.00,0.0290
2908.00,0.0282
2907.00,0.0275
2906.00,0.0268
2905.00,0.0261
2904.00,0.0255
2903.00,0.0249
2902.00,0.0244
2901.00,0.0239
2900.00,0.0234
2899.00,0.0229
2898.00,0.0224
2897.00,0.0220
2896.00,0.0216
2895.00,0.0212
2894.00,0.0209
2893.00,0.0206
2892.00,0.0203
2891.00,0.0200
2890.00,0.0197
2889.00,0.0194
2888.00,0.0192
2887.00,0.0190
2886.00,0.0188
2885.00,0.0187
2884.00,0.0186
2883.00,0.0185
2882.00,0.0186
2881.00,0.0187
2880.00,0.0190
2879.00,0.0195
2878.00,0.0200
2877.00,0.0206
2876.00,0.0213
2875.00,0.0219
2874.00,0.0225
2873.00,0.0228
2872.00,0.0230
2871.00,0.0231
2870.00,0.0230
2869.00,0.0228
2868.00,0.0227
2867.00,0.0228
2866.00,0.0230
2865.00,0.0235
2864.00,0.0243
2863.00,0.0253
2862.00,0.0266
2861.00,0.0281
2860.00,0.0297
2859.00,0.0312
2858.00,0.0325
2857.00,0.0334
2856.00,0.0339
2855.00,0.0341
2854.00,0.0340
2853.00,0.0337
2852.00,0.0330
2851.00,0.0320
2850.00,0.0306
2849.00,0.0290
2848.00,0.0272
2847.00,0.0254
2846.00,0.0237
2845.00,0.0221
2844.00,0.0207
2843.00,0.0194
2842.00,0.0183
2841.00,0.0173
2840.00,0.0164
2839.00,0.0156
2838.00,0.0150
2837.00,0.0145
2836.00,0.0140
2835.00,0.0135
2834.00,0.0132
2833.00,0.0128
2832.00,0.0125
2831.00,0.0122
2830.00,0.0119
2829.00,0.0117
2828.00,0.0114
2827.00,0.0111
2826.00,0.0109
2825.00,0.0107
2824.00,0.0105
2823.00,0.0103
2822.00,0.0102
2821.00,0.0101
2820.00,0.0099
2819.00,0.0098
2818.00,0.0097
2817.00,0.0095
2816.00,0.0094
2815.00,0.0093
2814.00,0.0093
2813.00,0.0092
2812.00,0.0091
2811.00,0.0090
2810.00,0.0089
2809.00,0.0089
2808.00,0.0088
2807.00,0.0088
2806.00,0.0087
2805.00,0.0087
2804.00,0.0086
2803.00,0.0086
2802.00,0.0085
2801.00,0.0084
2800.00,0.0084
2799.00,0.0083
2798.00,0.0082
2797.00,0.0082
2796.00,0.0081
2795.00,0.0080
2794.00,0.0080
2793.00,0.0079
2792.00,0.0078
2791.00,0.0078
2790.00,0.0077
2789.00,0.0077
2788.00,0.0076
2787.00,0.0076
2786.00,0.0076
2785.00,0.0075
2784.00,0.0075
2783.00,0.0075
2782.00,0.0074
2781.00,0.0074
2780.00,0.0074
2779.00,0.0073
2778.00,0.0073
2777.00,0.0073
2776.00,0.0072
2775.00,0.0072
2774.00,0.0071
2773.00,0.0071
2772.00,0.0071
2771.00,0.0071
2770.00,0.0071
2769.00,0.0071
2768.00,0.0071
2767.00,0.0071
2766.00,0.0070
2765.00,0.0070
2764.00,0.0070
2763.00,0.0070
2762.00,0.0070
2761.00,0.0070
2760.00,0.0070
2759.00,0.0070
2758.00,0.0070
2757.00,0.0070
