Created as New Dataset,Sample 1084 By YargerLab Date Wednesday, August 06 2025
cm-1,A
4000.00,0.0004
3999.00,0.0004
3998.00,0.0004
3997.00,0.0004
3996.00,0.0004
3995.00,0.0004
3994.00,0.0004
3993.00,0.0004
3992.00,0.0004
3991.00,0.0004
3990.00,0.0004
3989.00,0.0004
3988.00,0.0004
3987.00,0.0004
3986.00,0.0004
3985.00,0.0004
3984.00,0.0004
3983.00,0.0004
3982.00,0.0003
3981.00,0.0003
3980.00,0.0003
3979.00,0.0003
3978.00,0.0003
3977.00,0.0003
3976.00,0.0003
3975.00,0.0003
3974.00,0.0003
3973.00,0.0004
3972.00,0.0004
3971.00,0.0004
3970.00,0.0004
3969.00,0.0003
3968.00,0.0003
3967.00,0.0003
3966.00,0.0003
3965.00,0.0003
3964.00,0.0004
3963.00,0.0004
3962.00,0.0004
3961.00,0.0004
3960.00,0.0003
3959.00,0.0004
3958.00,0.0004
3957.00,0.0004
3956.00,0.0004
3955.00,0.0004
3954.00,0.0004
3953.00,0.0004
3952.00,0.0004
3951.00,0.0004
3950.00,0.0004
3949.00,0.0004
3948.00,0.0004
3947.00,0.0004
3946.00,0.0004
3945.00,0.0004
3944.00,0.0004
3943.00,0.0003
3942.00,0.0003
3941.00,0.0003
3940.00,0.0003
3939.00,0.0003
3938.00,0.0003
3937.00,0.0003
3936.00,0.0003
3935.00,0.0003
3934.00,0.0003
3933.00,0.0003
3932.00,0.0004
3931.00,0.0004
3930.00,0.0004
3929.00,0.0004
3928.00,0.0004
3927.00,0.0003
3926.00,0.0003
3925.00,0.0003
3924.00,0.0003
3923.00,0.0003
3922.00,0.0004
3921.00,0.0004
3920.00,0.0004
3919.00,0.0004
3918.00,0.0003
3917.00,0.0003
3916.00,0.0003
3915.00,0.0003
3914.00,0.0004
3913.00,0.0004
3912.00,0.0004
3911.00,0.0004
3910.00,0.0004
3909.00,0.0004
3908.00,0.0004
3907.00,0.0003
3906.00,0.0003
3905.00,0.0003
3904.00,0.0003
3903.00,0.0003
3902.00,0.0002
3901.00,0.0002
3900.00,0.0002
3899.00,0.0002
3898.00,0.0003
3897.00,0.0003
3896.00,0.0003
3895.00,0.0004
3894.00,0.0004
3893.00,0.0004
3892.00,0.0003
3891.00,0.0003
3890.00,0.0003
3889.00,0.0003
3888.00,0.0003
3887.00,0.0003
3886.00,0.0003
3885.00,0.0003
3884.00,0.0003
3883.00,0.0003
3882.00,0.0003
3881.00,0.0003
3880.00,0.0003
3879.00,0.0003
3878.00,0.0003
3877.00,0.0003
3876.00,0.0003
3875.00,0.0003
3874.00,0.0003
3873.00,0.0003
3872.00,0.0003
3871.00,0.0002
3870.00,0.0002
3869.00,0.0002
3868.00,0.0003
3867.00,0.0003
3866.00,0.0003
3865.00,0.0003
3864.00,0.0003
3863.00,0.0003
3862.00,0.0003
3861.00,0.0003
3860.00,0.0003
3859.00,0.0003
3858.00,0.0003
3857.00,0.0003
3856.00,0.0003
3855.00,0.0002
3854.00,0.0002
3853.00,0.0002
3852.00,0.0002
3851.00,0.0002
3850.00,0.0002
3849.00,0.0002
3848.00,0.0003
3847.00,0.0003
3846.00,0.0003
3845.00,0.0003
3844.00,0.0003
3843.00,0.0003
3842.00,0.0003
3841.00,0.0003
3840.00,0.0002
3839.00,0.0002
3838.00,0.0002
3837.00,0.0002
3836.00,0.0003
3835.00,0.0003
3834.00,0.0003
3833.00,0.0003
3832.00,0.0003
3831.00,0.0004
3830.00,0.0004
3829.00,0.0004
3828.00,0.0003
3827.00,0.0003
3826.00,0.0003
3825.00,0.0003
3824.00,0.0003
3823.00,0.0003
3822.00,0.0003
3821.00,0.0003
3820.00,0.0003
3819.00,0.0003
3818.00,0.0003
3817.00,0.0003
3816.00,0.0003
3815.00,0.0003
3814.00,0.0003
3813.00,0.0003
3812.00,0.0003
3811.00,0.0003
3810.00,0.0003
3809.00,0.0003
3808.00,0.0003
3807.00,0.0003
3806.00,0.0003
3805.00,0.0003
3804.00,0.0003
3803.00,0.0003
3802.00,0.0003
3801.00,0.0003
3800.00,0.0003
3799.00,0.0004
3798.00,0.0003
3797.00,0.0003
3796.00,0.0004
3795.00,0.0004
3794.00,0.0004
3793.00,0.0004
3792.00,0.0004
3791.00,0.0004
3790.00,0.0004
3789.00,0.0004
3788.00,0.0004
3787.00,0.0004
3786.00,0.0004
3785.00,0.0004
3784.00,0.0004
3783.00,0.0004
3782.00,0.0003
3781.00,0.0003
3780.00,0.0003
3779.00,0.0003
3778.00,0.0003
3777.00,0.0003
3776.00,0.0003
3775.00,0.0003
3774.00,0.0004
3773.00,0.0004
3772.00,0.0004
3771.00,0.0004
3770.00,0.0004
3769.00,0.0004
3768.00,0.0004
3767.00,0.0003
3766.00,0.0003
3765.00,0.0003
3764.00,0.0003
3763.00,0.0003
3762.00,0.0003
3761.00,0.0003
3760.00,0.0003
3759.00,0.0003
3758.00,0.0003
3757.00,0.0003
3756.00,0.0003
3755.00,0.0003
3754.00,0.0003
3753.00,0.0003
3752.00,0.0003
3751.00,0.0003
3750.00,0.0002
3749.00,0.0002
3748.00,0.0002
3747.00,0.0002
3746.00,0.0002
3745.00,0.0002
3744.00,0.0002
3743.00,0.0002
3742.00,0.0002
3741.00,0.0002
3740.00,0.0002
3739.00,0.0002
3738.00,0.0002
3737.00,0.0002
3736.00,0.0002
3735.00,0.0002
3734.00,0.0002
3733.00,0.0002
3732.00,0.0002
3731.00,0.0002
3730.00,0.0002
3729.00,0.0002
3728.00,0.0002
3727.00,0.0002
3726.00,0.0003
3725.00,0.0003
3724.00,0.0003
3723.00,0.0003
3722.00,0.0002
3721.00,0.0003
3720.00,0.0003
3719.00,0.0003
3718.00,0.0003
3717.00,0.0003
3716.00,0.0003
3715.00,0.0003
3714.00,0.0002
3713.00,0.0002
3712.00,0.0002
3711.00,0.0002
3710.00,0.0002
3709.00,0.0002
3708.00,0.0002
3707.00,0.0002
3706.00,0.0003
3705.00,0.0003
3704.00,0.0003
3703.00,0.0003
3702.00,0.0003
3701.00,0.0003
3700.00,0.0003
3699.00,0.0003
3698.00,0.0003
3697.00,0.0003
3696.00,0.0004
3695.00,0.0004
3694.00,0.0003
3693.00,0.0003
3692.00,0.0003
3691.00,0.0003
3690.00,0.0003
3689.00,0.0002
3688.00,0.0002
3687.00,0.0003
3686.00,0.0003
3685.00,0.0003
3684.00,0.0003
3683.00,0.0003
3682.00,0.0003
3681.00,0.0003
3680.00,0.0003
3679.00,0.0003
3678.00,0.0003
3677.00,0.0003
3676.00,0.0003
3675.00,0.0003
3674.00,0.0003
3673.00,0.0003
3672.00,0.0003
3671.00,0.0002
3670.00,0.0002
3669.00,0.0002
3668.00,0.0002
3667.00,0.0003
3666.00,0.0003
3665.00,0.0003
3664.00,0.0004
3663.00,0.0004
3662.00,0.0004
3661.00,0.0004
3660.00,0.0004
3659.00,0.0004
3658.00,0.0004
3657.00,0.0003
3656.00,0.0003
3655.00,0.0003
3654.00,0.0003
3653.00,0.0003
3652.00,0.0004
3651.00,0.0004
3650.00,0.0004
3649.00,0.0004
3648.00,0.0004
3647.00,0.0004
3646.00,0.0004
3645.00,0.0004
3644.00,0.0004
3643.00,0.0004
3642.00,0.0003
3641.00,0.0003
3640.00,0.0004
3639.00,0.0004
3638.00,0.0003
3637.00,0.0003
3636.00,0.0003
3635.00,0.0003
3634.00,0.0003
3633.00,0.0003
3632.00,0.0002
3631.00,0.0002
3630.00,0.0002
3629.00,0.0002
3628.00,0.0002
3627.00,0.0002
3626.00,0.0002
3625.00,0.0002
3624.00,0.0002
3623.00,0.0002
3622.00,0.0003
3621.00,0.0003
3620.00,0.0003
3619.00,0.0002
3618.00,0.0002
3617.00,0.0002
3616.00,0.0002
3615.00,0.0002
3614.00,0.0002
3613.00,0.0002
3612.00,0.0001
3611.00,0.0001
3610.00,0.0001
3609.00,0.0001
3608.00,0.0001
3607.00,0.0002
3606.00,0.0002
3605.00,0.0002
3604.00,0.0002
3603.00,0.0002
3602.00,0.0002
3601.00,0.0002
3600.00,0.0002
3599.00,0.0001
3598.00,0.0001
3597.00,0.0001
3596.00,0.0001
3595.00,0.0002
3594.00,0.0002
3593.00,0.0002
3592.00,0.0002
3591.00,0.0002
3590.00,0.0002
3589.00,0.0002
3588.00,0.0002
3587.00,0.0002
3586.00,0.0002
3585.00,0.0002
3584.00,0.0002
3583.00,0.0002
3582.00,0.0002
3581.00,0.0002
3580.00,0.0003
3579.00,0.0003
3578.00,0.0003
3577.00,0.0003
3576.00,0.0003
3575.00,0.0003
3574.00,0.0003
3573.00,0.0003
3572.00,0.0003
3571.00,0.0002
3570.00,0.0002
3569.00,0.0002
3568.00,0.0002
3567.00,0.0002
3566.00,0.0002
3565.00,0.0002
3564.00,0.0002
3563.00,0.0002
3562.00,0.0002
3561.00,0.0002
3560.00,0.0003
3559.00,0.0003
3558.00,0.0003
3557.00,0.0003
3556.00,0.0003
3555.00,0.0003
3554.00,0.0003
3553.00,0.0004
3552.00,0.0004
3551.00,0.0003
3550.00,0.0003
3549.00,0.0003
3548.00,0.0003
3547.00,0.0003
3546.00,0.0003
3545.00,0.0003
3544.00,0.0003
3543.00,0.0003
3542.00,0.0003
3541.00,0.0003
3540.00,0.0003
3539.00,0.0003
3538.00,0.0003
3537.00,0.0003
3536.00,0.0003
3535.00,0.0003
3534.00,0.0004
3533.00,0.0004
3532.00,0.0004
3531.00,0.0004
3530.00,0.0004
3529.00,0.0004
3528.00,0.0004
3527.00,0.0005
3526.00,0.0005
3525.00,0.0005
3524.00,0.0005
3523.00,0.0004
3522.00,0.0004
3521.00,0.0004
3520.00,0.0004
3519.00,0.0004
3518.00,0.0004
3517.00,0.0004
3516.00,0.0004
3515.00,0.0004
3514.00,0.0004
3513.00,0.0004
3512.00,0.0004
3511.00,0.0004
3510.00,0.0004
3509.00,0.0004
3508.00,0.0004
3507.00,0.0004
3506.00,0.0004
3505.00,0.0004
3504.00,0.0004
3503.00,0.0004
3502.00,0.0004
3501.00,0.0004
3500.00,0.0004
3499.00,0.0004
3498.00,0.0004
3497.00,0.0004
3496.00,0.0004
3495.00,0.0004
3494.00,0.0004
3493.00,0.0004
3492.00,0.0004
3491.00,0.0004
3490.00,0.0005
3489.00,0.0005
3488.00,0.0005
3487.00,0.0004
3486.00,0.0004
3485.00,0.0004
3484.00,0.0004
3483.00,0.0004
3482.00,0.0004
3481.00,0.0004
3480.00,0.0005
3479.00,0.0005
3478.00,0.0005
3477.00,0.0004
3476.00,0.0004
3475.00,0.0004
3474.00,0.0004
3473.00,0.0004
3472.00,0.0005
3471.00,0.0005
3470.00,0.0005
3469.00,0.0005
3468.00,0.0005
3467.00,0.0005
3466.00,0.0005
3465.00,0.0005
3464.00,0.0005
3463.00,0.0005
3462.00,0.0005
3461.00,0.0005
3460.00,0.0004
3459.00,0.0004
3458.00,0.0005
3457.00,0.0005
3456.00,0.0005
3455.00,0.0005
3454.00,0.0005
3453.00,0.0005
3452.00,0.0005
3451.00,0.0005
3450.00,0.0005
3449.00,0.0005
3448.00,0.0005
3447.00,0.0005
3446.00,0.0005
3445.00,0.0005
3444.00,0.0005
3443.00,0.0005
3442.00,0.0005
3441.00,0.0005
3440.00,0.0005
3439.00,0.0005
3438.00,0.0005
3437.00,0.0005
3436.00,0.0005
3435.00,0.0005
3434.00,0.0005
3433.00,0.0005
3432.00,0.0005
3431.00,0.0005
3430.00,0.0005
3429.00,0.0005
3428.00,0.0005
3427.00,0.0005
3426.00,0.0005
3425.00,0.0005
3424.00,0.0004
3423.00,0.0004
3422.00,0.0004
3421.00,0.0004
3420.00,0.0004
3419.00,0.0004
3418.00,0.0005
3417.00,0.0005
3416.00,0.0004
3415.00,0.0004
3414.00,0.0004
3413.00,0.0004
3412.00,0.0004
3411.00,0.0004
3410.00,0.0004
3409.00,0.0004
3408.00,0.0004
3407.00,0.0004
3406.00,0.0004
3405.00,0.0005
3404.00,0.0005
3403.00,0.0005
3402.00,0.0005
3401.00,0.0005
3400.00,0.0004
3399.00,0.0004
3398.00,0.0004
3397.00,0.0004
3396.00,0.0004
3395.00,0.0004
3394.00,0.0004
3393.00,0.0004
3392.00,0.0004
3391.00,0.0004
3390.00,0.0004
3389.00,0.0004
3388.00,0.0004
3387.00,0.0004
3386.00,0.0004
3385.00,0.0004
3384.00,0.0004
3383.00,0.0004
3382.00,0.0004
3381.00,0.0004
3380.00,0.0004
3379.00,0.0004
3378.00,0.0004
3377.00,0.0004
3376.00,0.0004
3375.00,0.0004
3374.00,0.0004
3373.00,0.0004
3372.00,0.0004
3371.00,0.0004
3370.00,0.0004
3369.00,0.0004
3368.00,0.0004
3367.00,0.0004
3366.00,0.0004
3365.00,0.0004
3364.00,0.0004
3363.00,0.0004
3362.00,0.0004
3361.00,0.0004
3360.00,0.0004
3359.00,0.0004
3358.00,0.0004
3357.00,0.0004
3356.00,0.0004
3355.00,0.0004
3354.00,0.0004
3353.00,0.0004
3352.00,0.0004
3351.00,0.0004
3350.00,0.0004
3349.00,0.0004
3348.00,0.0004
3347.00,0.0004
3346.00,0.0004
3345.00,0.0004
3344.00,0.0005
3343.00,0.0005
3342.00,0.0004
3341.00,0.0004
3340.00,0.0004
3339.00,0.0004
3338.00,0.0004
3337.00,0.0004
3336.00,0.0004
3335.00,0.0004
3334.00,0.0004
3333.00,0.0004
3332.00,0.0004
3331.00,0.0004
3330.00,0.0004
3329.00,0.0004
3328.00,0.0004
3327.00,0.0004
3326.00,0.0004
3325.00,0.0004
3324.00,0.0004
3323.00,0.0003
3322.00,0.0003
3321.00,0.0003
3320.00,0.0004
3319.00,0.0004
3318.00,0.0004
3317.00,0.0004
3316.00,0.0004
3315.00,0.0004
3314.00,0.0005
3313.00,0.0005
3312.00,0.0004
3311.00,0.0004
3310.00,0.0004
3309.00,0.0004
3308.00,0.0004
3307.00,0.0004
3306.00,0.0004
3305.00,0.0004
3304.00,0.0004
3303.00,0.0004
3302.00,0.0003
3301.00,0.0003
3300.00,0.0003
3299.00,0.0003
3298.00,0.0003
3297.00,0.0003
3296.00,0.0003
3295.00,0.0003
3294.00,0.0003
3293.00,0.0003
3292.00,0.0003
3291.00,0.0003
3290.00,0.0003
3289.00,0.0003
3288.00,0.0003
3287.00,0.0003
3286.00,0.0003
3285.00,0.0003
3284.00,0.0003
3283.00,0.0003
3282.00,0.0004
3281.00,0.0004
3280.00,0.0004
3279.00,0.0004
3278.00,0.0004
3277.00,0.0004
3276.00,0.0004
3275.00,0.0004
3274.00,0.0004
3273.00,0.0004
3272.00,0.0004
3271.00,0.0003
3270.00,0.0003
3269.00,0.0003
3268.00,0.0003
3267.00,0.0003
3266.00,0.0003
3265.00,0.0003
3264.00,0.0003
3263.00,0.0003
3262.00,0.0003
3261.00,0.0003
3260.00,0.0003
3259.00,0.0003
3258.00,0.0003
3257.00,0.0003
3256.00,0.0004
3255.00,0.0004
3254.00,0.0004
3253.00,0.0004
3252.00,0.0004
3251.00,0.0004
3250.00,0.0003
3249.00,0.0003
3248.00,0.0003
3247.00,0.0003
3246.00,0.0003
3245.00,0.0003
3244.00,0.0003
3243.00,0.0003
3242.00,0.0003
3241.00,0.0003
3240.00,0.0003
3239.00,0.0003
3238.00,0.0003
3237.00,0.0003
3236.00,0.0003
3235.00,0.0003
3234.00,0.0003
3233.00,0.0003
3232.00,0.0003
3231.00,0.0003
3230.00,0.0003
3229.00,0.0003
3228.00,0.0003
3227.00,0.0003
3226.00,0.0003
3225.00,0.0003
3224.00,0.0003
3223.00,0.0003
3222.00,0.0003
3221.00,0.0003
3220.00,0.0003
3219.00,0.0003
3218.00,0.0003
3217.00,0.0003
3216.00,0.0003
3215.00,0.0003
3214.00,0.0003
3213.00,0.0003
3212.00,0.0003
3211.00,0.0003
3210.00,0.0003
3209.00,0.0003
3208.00,0.0003
3207.00,0.0003
3206.00,0.0003
3205.00,0.0003
3204.00,0.0003
3203.00,0.0003
3202.00,0.0003
3201.00,0.0003
3200.00,0.0003
3199.00,0.0003
3198.00,0.0003
3197.00,0.0003
3196.00,0.0003
3195.00,0.0003
3194.00,0.0003
3193.00,0.0003
3192.00,0.0003
3191.00,0.0003
3190.00,0.0003
3189.00,0.0002
3188.00,0.0002
3187.00,0.0002
3186.00,0.0002
3185.00,0.0002
3184.00,0.0002
3183.00,0.0002
3182.00,0.0002
3181.00,0.0002
3180.00,0.0002
3179.00,0.0002
3178.00,0.0002
3177.00,0.0002
3176.00,0.0003
3175.00,0.0003
3174.00,0.0002
3173.00,0.0002
3172.00,0.0002
3171.00,0.0002
3170.00,0.0002
3169.00,0.0002
3168.00,0.0003
3167.00,0.0003
3166.00,0.0003
3165.00,0.0003
3164.00,0.0003
3163.00,0.0003
3162.00,0.0003
3161.00,0.0003
3160.00,0.0003
3159.00,0.0003
3158.00,0.0003
3157.00,0.0003
3156.00,0.0003
3155.00,0.0003
3154.00,0.0003
3153.00,0.0003
3152.00,0.0003
3151.00,0.0003
3150.00,0.0003
3149.00,0.0003
3148.00,0.0003
3147.00,0.0003
3146.00,0.0003
3145.00,0.0003
3144.00,0.0003
3143.00,0.0003
3142.00,0.0003
3141.00,0.0003
3140.00,0.0003
3139.00,0.0003
3138.00,0.0003
3137.00,0.0003
3136.00,0.0002
3135.00,0.0002
3134.00,0.0002
3133.00,0.0002
3132.00,0.0002
3131.00,0.0002
3130.00,0.0002
3129.00,0.0002
3128.00,0.0002
3127.00,0.0002
3126.00,0.0002
3125.00,0.0002
3124.00,0.0003
3123.00,0.0003
3122.00,0.0003
3121.00,0.0004
3120.00,0.0004
3119.00,0.0004
3118.00,0.0004
3117.00,0.0004
3116.00,0.0004
3115.00,0.0004
3114.00,0.0005
3113.00,0.0005
3112.00,0.0006
3111.00,0.0007
3110.00,0.0008
3109.00,0.0009
3108.00,0.0010
3107.00,0.0011
3106.00,0.0012
3105.00,0.0013
3104.00,0.0013
3103.00,0.0014
3102.00,0.0014
3101.00,0.0014
3100.00,0.0013
3099.00,0.0013
3098.00,0.0013
3097.00,0.0012
3096.00,0.0012
3095.00,0.0012
3094.00,0.0013
3093.00,0.0014
3092.00,0.0015
3091.00,0.0016
3090.00,0.0018
3089.00,0.0021
3088.00,0.0023
3087.00,0.0026
3086.00,0.0030
3085.00,0.0033
3084.00,0.0035
3083.00,0.0037
3082.00,0.0038
3081.00,0.0038
3080.00,0.0037
3079.00,0.0035
3078.00,0.0033
3077.00,0.0031
3076.00,0.0029
3075.00,0.0028
3074.00,0.0027
3073.00,0.0027
3072.00,0.0027
3071.00,0.0028
3070.00,0.0029
3069.00,0.0030
3068.00,0.0032
3067.00,0.0034
3066.00,0.0037
3065.00,0.0040
3064.00,0.0044
3063.00,0.0047
3062.00,0.0050
3061.00,0.0052
3060.00,0.0053
3059.00,0.0054
3058.00,0.0053
3057.00,0.0051
3056.00,0.0048
3055.00,0.0045
3054.00,0.0042
3053.00,0.0039
3052.00,0.0036
3051.00,0.0034
3050.00,0.0031
3049.00,0.0029
3048.00,0.0028
3047.00,0.0027
3046.00,0.0026
3045.00,0.0026
3044.00,0.0026
3043.00,0.0026
3042.00,0.0027
3041.00,0.0028
3040.00,0.0030
3039.00,0.0032
3038.00,0.0035
3037.00,0.0038
3036.00,0.0041
3035.00,0.0046
3034.00,0.0051
3033.00,0.0057
3032.00,0.0065
3031.00,0.0072
3030.00,0.0080
3029.00,0.0088
3028.00,0.0095
3027.00,0.0101
3026.00,0.0105
3025.00,0.0107
3024.00,0.0106
3023.00,0.0102
3022.00,0.0095
3021.00,0.0087
3020.00,0.0077
3019.00,0.0068
3018.00,0.0059
3017.00,0.0051
3016.00,0.0044
3015.00,0.0039
3014.00,0.0034
3013.00,0.0031
3012.00,0.0028
3011.00,0.0027
3010.00,0.0025
3009.00,0.0025
3008.00,0.0024
3007.00,0.0024
3006.00,0.0025
3005.00,0.0026
3004.00,0.0028
3003.00,0.0029
3002.00,0.0030
3001.00,0.0031
3000.00,0.0031
2999.00,0.0030
2998.00,0.0028
2997.00,0.0026
2996.00,0.0024
2995.00,0.0022
2994.00,0.0021
2993.00,0.0019
2992.00,0.0018
2991.00,0.0017
2990.00,0.0017
2989.00,0.0016
2988.00,0.0016
2987.00,0.0016
2986.00,0.0016
2985.00,0.0017
2984.00,0.0018
2983.00,0.0018
2982.00,0.0019
2981.00,0.0019
2980.00,0.0019
2979.00,0.0019
2978.00,0.0018
2977.00,0.0018
2976.00,0.0017
2975.00,0.0017
2974.00,0.0017
2973.00,0.0017
2972.00,0.0017
2971.00,0.0017
2970.00,0.0017
2969.00,0.0016
2968.00,0.0016
2967.00,0.0016
2966.00,0.0016
2965.00,0.0016
2964.00,0.0015
2963.00,0.0015
2962.00,0.0015
2961.00,0.0016
2960.00,0.0016
2959.00,0.0017
2958.00,0.0017
2957.00,0.0018
2956.00,0.0019
2955.00,0.0020
2954.00,0.0021
2953.00,0.0023
2952.00,0.0024
2951.00,0.0025
2950.00,0.0027
2949.00,0.0029
2948.00,0.0032
2947.00,0.0034
2946.00,0.0037
2945.00,0.0039
2944.00,0.0042
2943.00,0.0045
2942.00,0.0047
2941.00,0.0050
2940.00,0.0053
2939.00,0.0057
2938.00,0.0060
2937.00,0.0064
2936.00,0.0067
2935.00,0.0071
2934.00,0.0074
2933.00,0.0078
2932.00,0.0082
2931.00,0.0086
2930.00,0.0089
2929.00,0.0092
2928.00,0.0095
2927.00,0.0098
2926.00,0.0100
2925.00,0.0102
2924.00,0.0103
2923.00,0.0104
2922.00,0.0105
2921.00,0.0106
2920.00,0.0106
2919.00,0.0105
2918.00,0.0104
2917.00,0.0103
2916.00,0.0101
2915.00,0.0100
2914.00,0.0099
2913.00,0.0097
2912.00,0.0095
2911.00,0.0093
2910.00,0.0091
2909.00,0.0088
2908.00,0.0086
2907.00,0.0083
2906.00,0.0080
2905.00,0.0077
2904.00,0.0074
2903.00,0.0071
2902.00,0.0068
2901.00,0.0064
2900.00,0.0061
2899.00,0.0058
2898.00,0.0056
2897.00,0.0053
2896.00,0.0051
2895.00,0.0049
2894.00,0.0047
2893.00,0.0045
2892.00,0.0044
2891.00,0.0043
2890.00,0.0041
2889.00,0.0040
2888.00,0.0039
2887.00,0.0038
2886.00,0.0037
2885.00,0.0036
2884.00,0.0035
2883.00,0.0034
2882.00,0.0033
2881.00,0.0032
2880.00,0.0031
2879.00,0.0030
2878.00,0.0029
2877.00,0.0027
2876.00,0.0026
2875.00,0.0025
2874.00,0.0024
2873.00,0.0023
2872.00,0.0023
2871.00,0.0022
2870.00,0.0022
2869.00,0.0022
2868.00,0.0022
2867.00,0.0022
2866.00,0.0023
2865.00,0.0023
2864.00,0.0024
2863.00,0.0024
2862.00,0.0025
2861.00,0.0026
2860.00,0.0027
2859.00,0.0028
2858.00,0.0029
2857.00,0.0030
2856.00,0.0032
2855.00,0.0033
2854.00,0.0035
2853.00,0.0036
2852.00,0.0038
2851.00,0.0039
2850.00,0.0040
2849.00,0.0041
2848.00,0.0041
2847.00,0.0042
2846.00,0.0041
2845.00,0.0041
2844.00,0.0039
2843.00,0.0037
2842.00,0.0035
2841.00,0.0032
2840.00,0.0029
2839.00,0.0026
2838.00,0.0024
2837.00,0.0021
2836.00,0.0019
2835.00,0.0017
2834.00,0.0015
2833.00,0.0013
2832.00,0.0012
2831.00,0.0012
2830.00,0.0011
2829.00,0.0011
2828.00,0.0010
2827.00,0.0010
2826.00,0.0009
2825.00,0.0009
2824.00,0.0009
2823.00,0.0008
2822.00,0.0008
2821.00,0.0008
2820.00,0.0007
2819.00,0.0007
2818.00,0.0008
2817.00,0.0008
2816.00,0.0008
2815.00,0.0008
2814.00,0.0007
2813.00,0.0007
2812.00,0.0007
2811.00,0.0007
2810.00,0.0007
2809.00,0.0007
2808.00,0.0007
2807.00,0.0007
2806.00,0.0007
2805.00,0.0007
2804.00,0.0007
2803.00,0.0007
2802.00,0.0007
2801.00,0.0007
2800.00,0.0007
2799.00,0.0007
2798.00,0.0007
2797.00,0.0006
2796.00,0.0006
2795.00,0.0006
2794.00,0.0006
2793.00,0.0006
2792.00,0.0006
2791.00,0.0006
2790.00,0.0006
2789.00,0.0006
2788.00,0.0006
2787.00,0.0006
2786.00,0.0006
2785.00,0.0006
2784.00,0.0006
2783.00,0.0006
2782.00,0.0006
2781.00,0.0006
2780.00,0.0006
2779.00,0.0006
2778.00,0.0006
2777.00,0.0006
2776.00,0.0006
2775.00,0.0006
2774.00,0.0006
2773.00,0.0006
2772.00,0.0006
2771.00,0.0006
2770.00,0.0005
2769.00,0.0005
2768.00,0.0005
2767.00,0.0005
2766.00,0.0005
2765.00,0.0005
2764.00,0.0005
2763.00,0.0005
2762.00,0.0005
2761.00,0.0005
2760.00,0.0005
2759.00,0.0005
2758.00,0.0005
2757.00,0.0005
