Created as New Dataset,Sample 774 By YargerLab Date Monday, July 07 2025
cm-1,A
4000.00,0.0047
3999.00,0.0047
3998.00,0.0047
3997.00,0.0047
3996.00,0.0047
3995.00,0.0047
3994.00,0.0047
3993.00,0.0047
3992.00,0.0047
3991.00,0.0047
3990.00,0.0047
3989.00,0.0047
3988.00,0.0047
3987.00,0.0047
3986.00,0.0047
3985.00,0.0047
3984.00,0.0047
3983.00,0.0047
3982.00,0.0047
3981.00,0.0047
3980.00,0.0047
3979.00,0.0047
3978.00,0.0047
3977.00,0.0047
3976.00,0.0047
3975.00,0.0047
3974.00,0.0047
3973.00,0.0047
3972.00,0.0047
3971.00,0.0047
3970.00,0.0047
3969.00,0.0047
3968.00,0.0047
3967.00,0.0047
3966.00,0.0047
3965.00,0.0047
3964.00,0.0047
3963.00,0.0047
3962.00,0.0047
3961.00,0.0047
3960.00,0.0047
3959.00,0.0047
3958.00,0.0048
3957.00,0.0048
3956.00,0.0048
3955.00,0.0048
3954.00,0.0047
3953.00,0.0047
3952.00,0.0047
3951.00,0.0046
3950.00,0.0047
3949.00,0.0047
3948.00,0.0047
3947.00,0.0047
3946.00,0.0047
3945.00,0.0047
3944.00,0.0047
3943.00,0.0047
3942.00,0.0047
3941.00,0.0047
3940.00,0.0047
3939.00,0.0047
3938.00,0.0047
3937.00,0.0047
3936.00,0.0047
3935.00,0.0047
3934.00,0.0047
3933.00,0.0047
3932.00,0.0047
3931.00,0.0047
3930.00,0.0047
3929.00,0.0047
3928.00,0.0047
3927.00,0.0047
3926.00,0.0047
3925.00,0.0047
3924.00,0.0047
3923.00,0.0046
3922.00,0.0046
3921.00,0.0046
3920.00,0.0046
3919.00,0.0046
3918.00,0.0047
3917.00,0.0047
3916.00,0.0047
3915.00,0.0047
3914.00,0.0047
3913.00,0.0047
3912.00,0.0047
3911.00,0.0047
3910.00,0.0047
3909.00,0.0047
3908.00,0.0046
3907.00,0.0046
3906.00,0.0046
3905.00,0.0046
3904.00,0.0046
3903.00,0.0046
3902.00,0.0046
3901.00,0.0046
3900.00,0.0046
3899.00,0.0046
3898.00,0.0046
3897.00,0.0046
3896.00,0.0046
3895.00,0.0046
3894.00,0.0046
3893.00,0.0046
3892.00,0.0046
3891.00,0.0046
3890.00,0.0046
3889.00,0.0046
3888.00,0.0046
3887.00,0.0046
3886.00,0.0046
3885.00,0.0046
3884.00,0.0046
3883.00,0.0046
3882.00,0.0046
3881.00,0.0046
3880.00,0.0046
3879.00,0.0047
3878.00,0.0047
3877.00,0.0047
3876.00,0.0047
3875.00,0.0047
3874.00,0.0046
3873.00,0.0046
3872.00,0.0046
3871.00,0.0046
3870.00,0.0046
3869.00,0.0046
3868.00,0.0046
3867.00,0.0046
3866.00,0.0046
3865.00,0.0046
3864.00,0.0046
3863.00,0.0046
3862.00,0.0046
3861.00,0.0046
3860.00,0.0046
3859.00,0.0046
3858.00,0.0046
3857.00,0.0046
3856.00,0.0046
3855.00,0.0046
3854.00,0.0046
3853.00,0.0046
3852.00,0.0046
3851.00,0.0045
3850.00,0.0045
3849.00,0.0046
3848.00,0.0046
3847.00,0.0046
3846.00,0.0046
3845.00,0.0046
3844.00,0.0046
3843.00,0.0046
3842.00,0.0046
3841.00,0.0046
3840.00,0.0046
3839.00,0.0046
3838.00,0.0046
3837.00,0.0046
3836.00,0.0046
3835.00,0.0046
3834.00,0.0046
3833.00,0.0046
3832.00,0.0046
3831.00,0.0046
3830.00,0.0046
3829.00,0.0046
3828.00,0.0046
3827.00,0.0047
3826.00,0.0047
3825.00,0.0047
3824.00,0.0047
3823.00,0.0046
3822.00,0.0046
3821.00,0.0047
3820.00,0.0046
3819.00,0.0046
3818.00,0.0046
3817.00,0.0046
3816.00,0.0046
3815.00,0.0046
3814.00,0.0046
3813.00,0.0046
3812.00,0.0046
3811.00,0.0046
3810.00,0.0046
3809.00,0.0046
3808.00,0.0046
3807.00,0.0046
3806.00,0.0046
3805.00,0.0046
3804.00,0.0046
3803.00,0.0046
3802.00,0.0046
3801.00,0.0046
3800.00,0.0046
3799.00,0.0046
3798.00,0.0046
3797.00,0.0046
3796.00,0.0046
3795.00,0.0046
3794.00,0.0046
3793.00,0.0047
3792.00,0.0047
3791.00,0.0047
3790.00,0.0047
3789.00,0.0047
3788.00,0.0047
3787.00,0.0047
3786.00,0.0046
3785.00,0.0046
3784.00,0.0046
3783.00,0.0046
3782.00,0.0046
3781.00,0.0046
3780.00,0.0046
3779.00,0.0046
3778.00,0.0046
3777.00,0.0046
3776.00,0.0046
3775.00,0.0046
3774.00,0.0046
3773.00,0.0046
3772.00,0.0046
3771.00,0.0047
3770.00,0.0047
3769.00,0.0047
3768.00,0.0047
3767.00,0.0047
3766.00,0.0047
3765.00,0.0046
3764.00,0.0046
3763.00,0.0046
3762.00,0.0046
3761.00,0.0046
3760.00,0.0046
3759.00,0.0046
3758.00,0.0046
3757.00,0.0046
3756.00,0.0046
3755.00,0.0046
3754.00,0.0047
3753.00,0.0047
3752.00,0.0047
3751.00,0.0047
3750.00,0.0046
3749.00,0.0046
3748.00,0.0046
3747.00,0.0045
3746.00,0.0045
3745.00,0.0045
3744.00,0.0045
3743.00,0.0045
3742.00,0.0045
3741.00,0.0045
3740.00,0.0045
3739.00,0.0046
3738.00,0.0046
3737.00,0.0046
3736.00,0.0046
3735.00,0.0045
3734.00,0.0045
3733.00,0.0044
3732.00,0.0044
3731.00,0.0045
3730.00,0.0045
3729.00,0.0046
3728.00,0.0046
3727.00,0.0047
3726.00,0.0047
3725.00,0.0047
3724.00,0.0047
3723.00,0.0047
3722.00,0.0046
3721.00,0.0046
3720.00,0.0046
3719.00,0.0045
3718.00,0.0045
3717.00,0.0045
3716.00,0.0045
3715.00,0.0045
3714.00,0.0045
3713.00,0.0046
3712.00,0.0046
3711.00,0.0046
3710.00,0.0046
3709.00,0.0046
3708.00,0.0045
3707.00,0.0045
3706.00,0.0045
3705.00,0.0045
3704.00,0.0045
3703.00,0.0044
3702.00,0.0044
3701.00,0.0044
3700.00,0.0043
3699.00,0.0043
3698.00,0.0043
3697.00,0.0043
3696.00,0.0044
3695.00,0.0044
3694.00,0.0044
3693.00,0.0044
3692.00,0.0044
3691.00,0.0043
3690.00,0.0042
3689.00,0.0042
3688.00,0.0042
3687.00,0.0042
3686.00,0.0043
3685.00,0.0043
3684.00,0.0043
3683.00,0.0043
3682.00,0.0043
3681.00,0.0043
3680.00,0.0043
3679.00,0.0043
3678.00,0.0042
3677.00,0.0042
3676.00,0.0041
3675.00,0.0040
3674.00,0.0040
3673.00,0.0040
3672.00,0.0039
3671.00,0.0039
3670.00,0.0039
3669.00,0.0039
3668.00,0.0040
3667.00,0.0040
3666.00,0.0040
3665.00,0.0040
3664.00,0.0040
3663.00,0.0040
3662.00,0.0039
3661.00,0.0039
3660.00,0.0039
3659.00,0.0039
3658.00,0.0039
3657.00,0.0039
3656.00,0.0039
3655.00,0.0039
3654.00,0.0039
3653.00,0.0039
3652.00,0.0039
3651.00,0.0039
3650.00,0.0039
3649.00,0.0040
3648.00,0.0040
3647.00,0.0040
3646.00,0.0040
3645.00,0.0040
3644.00,0.0041
3643.00,0.0041
3642.00,0.0042
3641.00,0.0042
3640.00,0.0042
3639.00,0.0042
3638.00,0.0042
3637.00,0.0042
3636.00,0.0043
3635.00,0.0044
3634.00,0.0045
3633.00,0.0045
3632.00,0.0045
3631.00,0.0045
3630.00,0.0045
3629.00,0.0046
3628.00,0.0046
3627.00,0.0046
3626.00,0.0046
3625.00,0.0047
3624.00,0.0047
3623.00,0.0047
3622.00,0.0047
3621.00,0.0047
3620.00,0.0047
3619.00,0.0047
3618.00,0.0047
3617.00,0.0048
3616.00,0.0048
3615.00,0.0049
3614.00,0.0049
3613.00,0.0050
3612.00,0.0050
3611.00,0.0050
3610.00,0.0051
3609.00,0.0051
3608.00,0.0051
3607.00,0.0052
3606.00,0.0052
3605.00,0.0052
3604.00,0.0052
3603.00,0.0052
3602.00,0.0052
3601.00,0.0052
3600.00,0.0052
3599.00,0.0052
3598.00,0.0052
3597.00,0.0052
3596.00,0.0052
3595.00,0.0053
3594.00,0.0053
3593.00,0.0053
3592.00,0.0053
3591.00,0.0053
3590.00,0.0052
3589.00,0.0052
3588.00,0.0052
3587.00,0.0052
3586.00,0.0053
3585.00,0.0053
3584.00,0.0053
3583.00,0.0054
3582.00,0.0054
3581.00,0.0054
3580.00,0.0055
3579.00,0.0055
3578.00,0.0055
3577.00,0.0056
3576.00,0.0056
3575.00,0.0056
3574.00,0.0056
3573.00,0.0057
3572.00,0.0057
3571.00,0.0057
3570.00,0.0058
3569.00,0.0058
3568.00,0.0058
3567.00,0.0058
3566.00,0.0059
3565.00,0.0059
3564.00,0.0059
3563.00,0.0060
3562.00,0.0060
3561.00,0.0061
3560.00,0.0061
3559.00,0.0062
3558.00,0.0062
3557.00,0.0063
3556.00,0.0063
3555.00,0.0063
3554.00,0.0064
3553.00,0.0064
3552.00,0.0065
3551.00,0.0065
3550.00,0.0066
3549.00,0.0066
3548.00,0.0067
3547.00,0.0067
3546.00,0.0068
3545.00,0.0068
3544.00,0.0069
3543.00,0.0070
3542.00,0.0070
3541.00,0.0071
3540.00,0.0071
3539.00,0.0072
3538.00,0.0072
3537.00,0.0073
3536.00,0.0073
3535.00,0.0074
3534.00,0.0075
3533.00,0.0075
3532.00,0.0076
3531.00,0.0076
3530.00,0.0077
3529.00,0.0077
3528.00,0.0078
3527.00,0.0079
3526.00,0.0079
3525.00,0.0080
3524.00,0.0080
3523.00,0.0081
3522.00,0.0082
3521.00,0.0083
3520.00,0.0084
3519.00,0.0085
3518.00,0.0085
3517.00,0.0086
3516.00,0.0087
3515.00,0.0088
3514.00,0.0088
3513.00,0.0089
3512.00,0.0090
3511.00,0.0090
3510.00,0.0091
3509.00,0.0092
3508.00,0.0093
3507.00,0.0094
3506.00,0.0095
3505.00,0.0096
3504.00,0.0098
3503.00,0.0099
3502.00,0.0100
3501.00,0.0101
3500.00,0.0102
3499.00,0.0102
3498.00,0.0103
3497.00,0.0104
3496.00,0.0105
3495.00,0.0107
3494.00,0.0108
3493.00,0.0109
3492.00,0.0110
3491.00,0.0111
3490.00,0.0112
3489.00,0.0114
3488.00,0.0115
3487.00,0.0116
3486.00,0.0118
3485.00,0.0119
3484.00,0.0121
3483.00,0.0122
3482.00,0.0124
3481.00,0.0125
3480.00,0.0126
3479.00,0.0128
3478.00,0.0129
3477.00,0.0130
3476.00,0.0132
3475.00,0.0133
3474.00,0.0135
3473.00,0.0136
3472.00,0.0138
3471.00,0.0139
3470.00,0.0141
3469.00,0.0142
3468.00,0.0144
3467.00,0.0145
3466.00,0.0147
3465.00,0.0148
3464.00,0.0150
3463.00,0.0151
3462.00,0.0152
3461.00,0.0154
3460.00,0.0155
3459.00,0.0156
3458.00,0.0157
3457.00,0.0158
3456.00,0.0159
3455.00,0.0160
3454.00,0.0161
3453.00,0.0162
3452.00,0.0163
3451.00,0.0164
3450.00,0.0165
3449.00,0.0166
3448.00,0.0167
3447.00,0.0168
3446.00,0.0168
3445.00,0.0169
3444.00,0.0170
3443.00,0.0170
3442.00,0.0171
3441.00,0.0172
3440.00,0.0172
3439.00,0.0173
3438.00,0.0173
3437.00,0.0174
3436.00,0.0174
3435.00,0.0175
3434.00,0.0175
3433.00,0.0175
3432.00,0.0176
3431.00,0.0176
3430.00,0.0176
3429.00,0.0176
3428.00,0.0177
3427.00,0.0177
3426.00,0.0177
3425.00,0.0177
3424.00,0.0177
3423.00,0.0178
3422.00,0.0178
3421.00,0.0178
3420.00,0.0178
3419.00,0.0179
3418.00,0.0179
3417.00,0.0179
3416.00,0.0179
3415.00,0.0179
3414.00,0.0180
3413.00,0.0180
3412.00,0.0180
3411.00,0.0180
3410.00,0.0180
3409.00,0.0180
3408.00,0.0180
3407.00,0.0180
3406.00,0.0180
3405.00,0.0180
3404.00,0.0181
3403.00,0.0181
3402.00,0.0181
3401.00,0.0181
3400.00,0.0181
3399.00,0.0182
3398.00,0.0182
3397.00,0.0182
3396.00,0.0182
3395.00,0.0182
3394.00,0.0182
3393.00,0.0182
3392.00,0.0182
3391.00,0.0182
3390.00,0.0182
3389.00,0.0182
3388.00,0.0182
3387.00,0.0182
3386.00,0.0182
3385.00,0.0183
3384.00,0.0183
3383.00,0.0183
3382.00,0.0183
3381.00,0.0183
3380.00,0.0183
3379.00,0.0183
3378.00,0.0183
3377.00,0.0183
3376.00,0.0183
3375.00,0.0184
3374.00,0.0184
3373.00,0.0184
3372.00,0.0184
3371.00,0.0184
3370.00,0.0184
3369.00,0.0184
3368.00,0.0184
3367.00,0.0184
3366.00,0.0184
3365.00,0.0184
3364.00,0.0185
3363.00,0.0185
3362.00,0.0185
3361.00,0.0185
3360.00,0.0186
3359.00,0.0186
3358.00,0.0186
3357.00,0.0186
3356.00,0.0186
3355.00,0.0186
3354.00,0.0187
3353.00,0.0187
3352.00,0.0187
3351.00,0.0187
3350.00,0.0187
3349.00,0.0187
3348.00,0.0187
3347.00,0.0188
3346.00,0.0188
3345.00,0.0188
3344.00,0.0188
3343.00,0.0188
3342.00,0.0188
3341.00,0.0188
3340.00,0.0188
3339.00,0.0188
3338.00,0.0188
3337.00,0.0189
3336.00,0.0189
3335.00,0.0189
3334.00,0.0190
3333.00,0.0190
3332.00,0.0190
3331.00,0.0190
3330.00,0.0190
3329.00,0.0190
3328.00,0.0190
3327.00,0.0189
3326.00,0.0189
3325.00,0.0190
3324.00,0.0190
3323.00,0.0190
3322.00,0.0191
3321.00,0.0191
3320.00,0.0191
3319.00,0.0191
3318.00,0.0191
3317.00,0.0192
3316.00,0.0192
3315.00,0.0192
3314.00,0.0192
3313.00,0.0192
3312.00,0.0191
3311.00,0.0191
3310.00,0.0190
3309.00,0.0189
3308.00,0.0189
3307.00,0.0189
3306.00,0.0189
3305.00,0.0189
3304.00,0.0190
3303.00,0.0191
3302.00,0.0191
3301.00,0.0191
3300.00,0.0191
3299.00,0.0191
3298.00,0.0191
3297.00,0.0190
3296.00,0.0190
3295.00,0.0189
3294.00,0.0189
3293.00,0.0189
3292.00,0.0189
3291.00,0.0190
3290.00,0.0190
3289.00,0.0190
3288.00,0.0190
3287.00,0.0190
3286.00,0.0190
3285.00,0.0190
3284.00,0.0190
3283.00,0.0190
3282.00,0.0190
3281.00,0.0190
3280.00,0.0189
3279.00,0.0189
3278.00,0.0189
3277.00,0.0188
3276.00,0.0188
3275.00,0.0188
3274.00,0.0188
3273.00,0.0188
3272.00,0.0187
3271.00,0.0187
3270.00,0.0187
3269.00,0.0188
3268.00,0.0188
3267.00,0.0188
3266.00,0.0188
3265.00,0.0188
3264.00,0.0188
3263.00,0.0188
3262.00,0.0187
3261.00,0.0187
3260.00,0.0187
3259.00,0.0187
3258.00,0.0186
3257.00,0.0186
3256.00,0.0186
3255.00,0.0186
3254.00,0.0186
3253.00,0.0186
3252.00,0.0186
3251.00,0.0186
3250.00,0.0185
3249.00,0.0185
3248.00,0.0185
3247.00,0.0184
3246.00,0.0184
3245.00,0.0184
3244.00,0.0184
3243.00,0.0184
3242.00,0.0184
3241.00,0.0184
3240.00,0.0183
3239.00,0.0183
3238.00,0.0183
3237.00,0.0183
3236.00,0.0182
3235.00,0.0182
3234.00,0.0182
3233.00,0.0181
3232.00,0.0181
3231.00,0.0181
3230.00,0.0181
3229.00,0.0180
3228.00,0.0180
3227.00,0.0180
3226.00,0.0180
3225.00,0.0179
3224.00,0.0179
3223.00,0.0179
3222.00,0.0179
3221.00,0.0179
3220.00,0.0179
3219.00,0.0178
3218.00,0.0178
3217.00,0.0178
3216.00,0.0177
3215.00,0.0177
3214.00,0.0177
3213.00,0.0177
3212.00,0.0177
3211.00,0.0177
3210.00,0.0177
3209.00,0.0177
3208.00,0.0177
3207.00,0.0176
3206.00,0.0176
3205.00,0.0176
3204.00,0.0175
3203.00,0.0175
3202.00,0.0175
3201.00,0.0175
3200.00,0.0175
3199.00,0.0175
3198.00,0.0174
3197.00,0.0174
3196.00,0.0174
3195.00,0.0174
3194.00,0.0174
3193.00,0.0173
3192.00,0.0173
3191.00,0.0173
3190.00,0.0172
3189.00,0.0172
3188.00,0.0171
3187.00,0.0171
3186.00,0.0171
3185.00,0.0170
3184.00,0.0170
3183.00,0.0170
3182.00,0.0169
3181.00,0.0169
3180.00,0.0168
3179.00,0.0168
3178.00,0.0167
3177.00,0.0167
3176.00,0.0167
3175.00,0.0166
3174.00,0.0166
3173.00,0.0165
3172.00,0.0165
3171.00,0.0165
3170.00,0.0164
3169.00,0.0164
3168.00,0.0164
3167.00,0.0163
3166.00,0.0163
3165.00,0.0162
3164.00,0.0162
3163.00,0.0162
3162.00,0.0161
3161.00,0.0160
3160.00,0.0159
3159.00,0.0159
3158.00,0.0158
3157.00,0.0157
3156.00,0.0157
3155.00,0.0156
3154.00,0.0155
3153.00,0.0155
3152.00,0.0155
3151.00,0.0154
3150.00,0.0154
3149.00,0.0154
3148.00,0.0154
3147.00,0.0153
3146.00,0.0153
3145.00,0.0152
3144.00,0.0152
3143.00,0.0151
3142.00,0.0151
3141.00,0.0150
3140.00,0.0150
3139.00,0.0149
3138.00,0.0149
3137.00,0.0148
3136.00,0.0148
3135.00,0.0147
3134.00,0.0147
3133.00,0.0146
3132.00,0.0146
3131.00,0.0145
3130.00,0.0145
3129.00,0.0144
3128.00,0.0144
3127.00,0.0144
3126.00,0.0143
3125.00,0.0142
3124.00,0.0142
3123.00,0.0141
3122.00,0.0141
3121.00,0.0140
3120.00,0.0140
3119.00,0.0139
3118.00,0.0139
3117.00,0.0138
3116.00,0.0138
3115.00,0.0138
3114.00,0.0137
3113.00,0.0137
3112.00,0.0136
3111.00,0.0136
3110.00,0.0135
3109.00,0.0135
3108.00,0.0134
3107.00,0.0134
3106.00,0.0134
3105.00,0.0133
3104.00,0.0133
3103.00,0.0133
3102.00,0.0132
3101.00,0.0132
3100.00,0.0132
3099.00,0.0132
3098.00,0.0131
3097.00,0.0131
3096.00,0.0131
3095.00,0.0131
3094.00,0.0131
3093.00,0.0131
3092.00,0.0131
3091.00,0.0131
3090.00,0.0131
3089.00,0.0131
3088.00,0.0132
3087.00,0.0132
3086.00,0.0132
3085.00,0.0132
3084.00,0.0133
3083.00,0.0133
3082.00,0.0134
3081.00,0.0135
3080.00,0.0135
3079.00,0.0136
3078.00,0.0136
3077.00,0.0137
3076.00,0.0137
3075.00,0.0137
3074.00,0.0137
3073.00,0.0137
3072.00,0.0136
3071.00,0.0136
3070.00,0.0135
3069.00,0.0134
3068.00,0.0133
3067.00,0.0131
3066.00,0.0129
3065.00,0.0128
3064.00,0.0126
3063.00,0.0125
3062.00,0.0123
3061.00,0.0122
3060.00,0.0121
3059.00,0.0120
3058.00,0.0119
3057.00,0.0118
3056.00,0.0117
3055.00,0.0116
3054.00,0.0116
3053.00,0.0115
3052.00,0.0115
3051.00,0.0115
3050.00,0.0115
3049.00,0.0114
3048.00,0.0114
3047.00,0.0114
3046.00,0.0114
3045.00,0.0114
3044.00,0.0114
3043.00,0.0114
3042.00,0.0114
3041.00,0.0114
3040.00,0.0114
3039.00,0.0114
3038.00,0.0114
3037.00,0.0113
3036.00,0.0113
3035.00,0.0113
3034.00,0.0113
3033.00,0.0112
3032.00,0.0112
3031.00,0.0112
3030.00,0.0112
3029.00,0.0111
3028.00,0.0111
3027.00,0.0111
3026.00,0.0110
3025.00,0.0110
3024.00,0.0110
3023.00,0.0109
3022.00,0.0109
3021.00,0.0109
3020.00,0.0109
3019.00,0.0109
3018.00,0.0108
3017.00,0.0108
3016.00,0.0108
3015.00,0.0108
3014.00,0.0107
3013.00,0.0106
3012.00,0.0106
3011.00,0.0105
3010.00,0.0105
3009.00,0.0104
3008.00,0.0103
3007.00,0.0103
3006.00,0.0102
3005.00,0.0101
3004.00,0.0100
3003.00,0.0100
3002.00,0.0099
3001.00,0.0098
3000.00,0.0098
2999.00,0.0098
2998.00,0.0098
2997.00,0.0099
2996.00,0.0099
2995.00,0.0100
2994.00,0.0102
2993.00,0.0103
2992.00,0.0104
2991.00,0.0106
2990.00,0.0107
2989.00,0.0109
2988.00,0.0110
2987.00,0.0111
2986.00,0.0111
2985.00,0.0109
2984.00,0.0107
2983.00,0.0104
2982.00,0.0103
2981.00,0.0104
2980.00,0.0109
2979.00,0.0115
2978.00,0.0123
2977.00,0.0130
2976.00,0.0137
2975.00,0.0143
2974.00,0.0148
2973.00,0.0153
2972.00,0.0159
2971.00,0.0166
2970.00,0.0174
2969.00,0.0184
2968.00,0.0193
2967.00,0.0203
2966.00,0.0212
2965.00,0.0220
2964.00,0.0229
2963.00,0.0236
2962.00,0.0243
2961.00,0.0249
2960.00,0.0254
2959.00,0.0258
2958.00,0.0262
2957.00,0.0264
2956.00,0.0266
2955.00,0.0267
2954.00,0.0268
2953.00,0.0267
2952.00,0.0266
2951.00,0.0265
2950.00,0.0264
2949.00,0.0263
2948.00,0.0263
2947.00,0.0264
2946.00,0.0266
2945.00,0.0268
2944.00,0.0273
2943.00,0.0278
2942.00,0.0284
2941.00,0.0291
2940.00,0.0298
2939.00,0.0307
2938.00,0.0316
2937.00,0.0326
2936.00,0.0335
2935.00,0.0345
2934.00,0.0354
2933.00,0.0363
2932.00,0.0372
2931.00,0.0380
2930.00,0.0387
2929.00,0.0392
2928.00,0.0397
2927.00,0.0401
2926.00,0.0403
2925.00,0.0404
2924.00,0.0404
2923.00,0.0403
2922.00,0.0401
2921.00,0.0398
2920.00,0.0393
2919.00,0.0389
2918.00,0.0383
2917.00,0.0377
2916.00,0.0371
2915.00,0.0365
2914.00,0.0358
2913.00,0.0352
2912.00,0.0345
2911.00,0.0339
2910.00,0.0332
2909.00,0.0326
2908.00,0.0319
2907.00,0.0313
2906.00,0.0307
2905.00,0.0302
2904.00,0.0297
2903.00,0.0292
2902.00,0.0287
2901.00,0.0283
2900.00,0.0279
2899.00,0.0275
2898.00,0.0271
2897.00,0.0268
2896.00,0.0264
2895.00,0.0261
2894.00,0.0257
2893.00,0.0254
2892.00,0.0250
2891.00,0.0247
2890.00,0.0244
2889.00,0.0242
2888.00,0.0240
2887.00,0.0238
2886.00,0.0236
2885.00,0.0235
2884.00,0.0233
2883.00,0.0233
2882.00,0.0233
2881.00,0.0234
2880.00,0.0235
2879.00,0.0237
2878.00,0.0238
2877.00,0.0241
2876.00,0.0243
2875.00,0.0246
2874.00,0.0248
2873.00,0.0251
2872.00,0.0253
2871.00,0.0254
2870.00,0.0255
2869.00,0.0255
2868.00,0.0255
2867.00,0.0255
2866.00,0.0256
2865.00,0.0257
2864.00,0.0260
2863.00,0.0264
2862.00,0.0269
2861.00,0.0274
2860.00,0.0280
2859.00,0.0285
2858.00,0.0288
2857.00,0.0291
2856.00,0.0291
2855.00,0.0290
2854.00,0.0286
2853.00,0.0280
2852.00,0.0273
2851.00,0.0265
2850.00,0.0256
2849.00,0.0247
2848.00,0.0238
2847.00,0.0228
2846.00,0.0220
2845.00,0.0211
2844.00,0.0203
2843.00,0.0196
2842.00,0.0190
2841.00,0.0185
2840.00,0.0180
2839.00,0.0177
2838.00,0.0175
2837.00,0.0174
2836.00,0.0174
2835.00,0.0173
2834.00,0.0173
2833.00,0.0173
2832.00,0.0172
2831.00,0.0171
2830.00,0.0168
2829.00,0.0166
2828.00,0.0162
2827.00,0.0158
2826.00,0.0153
2825.00,0.0149
2824.00,0.0144
2823.00,0.0139
2822.00,0.0135
2821.00,0.0131
2820.00,0.0128
2819.00,0.0125
2818.00,0.0122
2817.00,0.0119
2816.00,0.0117
2815.00,0.0115
2814.00,0.0114
2813.00,0.0112
2812.00,0.0111
2811.00,0.0109
2810.00,0.0108
2809.00,0.0107
2808.00,0.0106
2807.00,0.0105
2806.00,0.0104
2805.00,0.0103
2804.00,0.0102
2803.00,0.0101
2802.00,0.0101
2801.00,0.0100
2800.00,0.0099
2799.00,0.0099
2798.00,0.0098
2797.00,0.0097
2796.00,0.0097
2795.00,0.0096
2794.00,0.0095
2793.00,0.0095
2792.00,0.0094
2791.00,0.0094
2790.00,0.0093
2789.00,0.0093
2788.00,0.0093
2787.00,0.0093
2786.00,0.0092
2785.00,0.0092
2784.00,0.0092
2783.00,0.0091
2782.00,0.0091
2781.00,0.0091
2780.00,0.0091
2779.00,0.0090
2778.00,0.0090
2777.00,0.0090
2776.00,0.0089
2775.00,0.0089
2774.00,0.0089
2773.00,0.0089
2772.00,0.0088
2771.00,0.0088
2770.00,0.0088
2769.00,0.0088
2768.00,0.0088
2767.00,0.0088
2766.00,0.0088
2765.00,0.0088
2764.00,0.0088
2763.00,0.0088
2762.00,0.0088
2761.00,0.0088
2760.00,0.0088
2759.00,0.0088
2758.00,0.0087
2757.00,0.0087
