Created as New Dataset,Sample 1038 By YargerLab Date Monday, August 04 2025
cm-1,A
4000.00,0.0007
3999.00,0.0007
3998.00,0.0006
3997.00,0.0006
3996.00,0.0006
3995.00,0.0006
3994.00,0.0006
3993.00,0.0006
3992.00,0.0006
3991.00,0.0006
3990.00,0.0006
3989.00,0.0006
3988.00,0.0006
3987.00,0.0006
3986.00,0.0006
3985.00,0.0006
3984.00,0.0005
3983.00,0.0005
3982.00,0.0005
3981.00,0.0006
3980.00,0.0006
3979.00,0.0006
3978.00,0.0006
3977.00,0.0006
3976.00,0.0006
3975.00,0.0006
3974.00,0.0006
3973.00,0.0006
3972.00,0.0006
3971.00,0.0006
3970.00,0.0006
3969.00,0.0007
3968.00,0.0007
3967.00,0.0006
3966.00,0.0006
3965.00,0.0006
3964.00,0.0006
3963.00,0.0006
3962.00,0.0006
3961.00,0.0006
3960.00,0.0006
3959.00,0.0006
3958.00,0.0006
3957.00,0.0006
3956.00,0.0006
3955.00,0.0006
3954.00,0.0006
3953.00,0.0007
3952.00,0.0007
3951.00,0.0007
3950.00,0.0007
3949.00,0.0007
3948.00,0.0007
3947.00,0.0007
3946.00,0.0006
3945.00,0.0006
3944.00,0.0006
3943.00,0.0006
3942.00,0.0006
3941.00,0.0006
3940.00,0.0006
3939.00,0.0006
3938.00,0.0006
3937.00,0.0006
3936.00,0.0007
3935.00,0.0007
3934.00,0.0007
3933.00,0.0007
3932.00,0.0007
3931.00,0.0007
3930.00,0.0007
3929.00,0.0006
3928.00,0.0007
3927.00,0.0007
3926.00,0.0007
3925.00,0.0007
3924.00,0.0007
3923.00,0.0006
3922.00,0.0006
3921.00,0.0006
3920.00,0.0006
3919.00,0.0007
3918.00,0.0007
3917.00,0.0007
3916.00,0.0007
3915.00,0.0007
3914.00,0.0007
3913.00,0.0006
3912.00,0.0006
3911.00,0.0006
3910.00,0.0006
3909.00,0.0007
3908.00,0.0007
3907.00,0.0007
3906.00,0.0008
3905.00,0.0008
3904.00,0.0008
3903.00,0.0008
3902.00,0.0008
3901.00,0.0008
3900.00,0.0009
3899.00,0.0009
3898.00,0.0009
3897.00,0.0008
3896.00,0.0008
3895.00,0.0008
3894.00,0.0007
3893.00,0.0007
3892.00,0.0007
3891.00,0.0007
3890.00,0.0007
3889.00,0.0007
3888.00,0.0007
3887.00,0.0008
3886.00,0.0008
3885.00,0.0008
3884.00,0.0008
3883.00,0.0008
3882.00,0.0008
3881.00,0.0008
3880.00,0.0008
3879.00,0.0008
3878.00,0.0007
3877.00,0.0007
3876.00,0.0007
3875.00,0.0007
3874.00,0.0007
3873.00,0.0008
3872.00,0.0008
3871.00,0.0008
3870.00,0.0008
3869.00,0.0008
3868.00,0.0008
3867.00,0.0008
3866.00,0.0009
3865.00,0.0009
3864.00,0.0009
3863.00,0.0009
3862.00,0.0008
3861.00,0.0008
3860.00,0.0008
3859.00,0.0008
3858.00,0.0008
3857.00,0.0008
3856.00,0.0009
3855.00,0.0010
3854.00,0.0010
3853.00,0.0011
3852.00,0.0011
3851.00,0.0012
3850.00,0.0011
3849.00,0.0010
3848.00,0.0010
3847.00,0.0009
3846.00,0.0008
3845.00,0.0007
3844.00,0.0007
3843.00,0.0007
3842.00,0.0007
3841.00,0.0007
3840.00,0.0007
3839.00,0.0008
3838.00,0.0008
3837.00,0.0009
3836.00,0.0009
3835.00,0.0009
3834.00,0.0009
3833.00,0.0009
3832.00,0.0009
3831.00,0.0009
3830.00,0.0008
3829.00,0.0008
3828.00,0.0007
3827.00,0.0007
3826.00,0.0007
3825.00,0.0007
3824.00,0.0007
3823.00,0.0007
3822.00,0.0008
3821.00,0.0008
3820.00,0.0008
3819.00,0.0008
3818.00,0.0008
3817.00,0.0008
3816.00,0.0008
3815.00,0.0008
3814.00,0.0008
3813.00,0.0008
3812.00,0.0008
3811.00,0.0008
3810.00,0.0008
3809.00,0.0007
3808.00,0.0007
3807.00,0.0007
3806.00,0.0007
3805.00,0.0008
3804.00,0.0008
3803.00,0.0009
3802.00,0.0009
3801.00,0.0009
3800.00,0.0009
3799.00,0.0009
3798.00,0.0009
3797.00,0.0008
3796.00,0.0008
3795.00,0.0008
3794.00,0.0007
3793.00,0.0007
3792.00,0.0007
3791.00,0.0007
3790.00,0.0007
3789.00,0.0007
3788.00,0.0007
3787.00,0.0007
3786.00,0.0007
3785.00,0.0007
3784.00,0.0007
3783.00,0.0007
3782.00,0.0007
3781.00,0.0007
3780.00,0.0007
3779.00,0.0007
3778.00,0.0007
3777.00,0.0007
3776.00,0.0007
3775.00,0.0007
3774.00,0.0007
3773.00,0.0007
3772.00,0.0007
3771.00,0.0007
3770.00,0.0007
3769.00,0.0008
3768.00,0.0008
3767.00,0.0008
3766.00,0.0008
3765.00,0.0008
3764.00,0.0008
3763.00,0.0008
3762.00,0.0007
3761.00,0.0007
3760.00,0.0007
3759.00,0.0007
3758.00,0.0008
3757.00,0.0008
3756.00,0.0008
3755.00,0.0009
3754.00,0.0009
3753.00,0.0010
3752.00,0.0010
3751.00,0.0011
3750.00,0.0011
3749.00,0.0011
3748.00,0.0012
3747.00,0.0012
3746.00,0.0012
3745.00,0.0012
3744.00,0.0011
3743.00,0.0011
3742.00,0.0011
3741.00,0.0010
3740.00,0.0010
3739.00,0.0010
3738.00,0.0010
3737.00,0.0009
3736.00,0.0009
3735.00,0.0008
3734.00,0.0008
3733.00,0.0008
3732.00,0.0008
3731.00,0.0008
3730.00,0.0008
3729.00,0.0008
3728.00,0.0007
3727.00,0.0007
3726.00,0.0008
3725.00,0.0008
3724.00,0.0008
3723.00,0.0008
3722.00,0.0008
3721.00,0.0008
3720.00,0.0007
3719.00,0.0007
3718.00,0.0007
3717.00,0.0007
3716.00,0.0007
3715.00,0.0007
3714.00,0.0007
3713.00,0.0007
3712.00,0.0008
3711.00,0.0008
3710.00,0.0008
3709.00,0.0008
3708.00,0.0007
3707.00,0.0007
3706.00,0.0006
3705.00,0.0006
3704.00,0.0006
3703.00,0.0006
3702.00,0.0006
3701.00,0.0006
3700.00,0.0006
3699.00,0.0006
3698.00,0.0006
3697.00,0.0006
3696.00,0.0006
3695.00,0.0006
3694.00,0.0006
3693.00,0.0006
3692.00,0.0007
3691.00,0.0007
3690.00,0.0008
3689.00,0.0008
3688.00,0.0008
3687.00,0.0009
3686.00,0.0009
3685.00,0.0009
3684.00,0.0009
3683.00,0.0009
3682.00,0.0009
3681.00,0.0009
3680.00,0.0009
3679.00,0.0009
3678.00,0.0010
3677.00,0.0010
3676.00,0.0010
3675.00,0.0010
3674.00,0.0011
3673.00,0.0011
3672.00,0.0011
3671.00,0.0012
3670.00,0.0012
3669.00,0.0012
3668.00,0.0011
3667.00,0.0011
3666.00,0.0011
3665.00,0.0011
3664.00,0.0010
3663.00,0.0010
3662.00,0.0010
3661.00,0.0009
3660.00,0.0009
3659.00,0.0010
3658.00,0.0010
3657.00,0.0010
3656.00,0.0010
3655.00,0.0011
3654.00,0.0011
3653.00,0.0012
3652.00,0.0012
3651.00,0.0013
3650.00,0.0014
3649.00,0.0014
3648.00,0.0014
3647.00,0.0014
3646.00,0.0014
3645.00,0.0013
3644.00,0.0013
3643.00,0.0012
3642.00,0.0012
3641.00,0.0012
3640.00,0.0012
3639.00,0.0011
3638.00,0.0011
3637.00,0.0011
3636.00,0.0012
3635.00,0.0012
3634.00,0.0012
3633.00,0.0013
3632.00,0.0014
3631.00,0.0014
3630.00,0.0015
3629.00,0.0015
3628.00,0.0015
3627.00,0.0015
3626.00,0.0015
3625.00,0.0015
3624.00,0.0015
3623.00,0.0015
3622.00,0.0015
3621.00,0.0015
3620.00,0.0015
3619.00,0.0015
3618.00,0.0015
3617.00,0.0015
3616.00,0.0015
3615.00,0.0015
3614.00,0.0015
3613.00,0.0015
3612.00,0.0015
3611.00,0.0015
3610.00,0.0016
3609.00,0.0016
3608.00,0.0017
3607.00,0.0017
3606.00,0.0017
3605.00,0.0017
3604.00,0.0017
3603.00,0.0016
3602.00,0.0016
3601.00,0.0016
3600.00,0.0017
3599.00,0.0017
3598.00,0.0017
3597.00,0.0017
3596.00,0.0017
3595.00,0.0017
3594.00,0.0017
3593.00,0.0017
3592.00,0.0018
3591.00,0.0018
3590.00,0.0019
3589.00,0.0019
3588.00,0.0020
3587.00,0.0020
3586.00,0.0019
3585.00,0.0020
3584.00,0.0020
3583.00,0.0020
3582.00,0.0020
3581.00,0.0020
3580.00,0.0020
3579.00,0.0020
3578.00,0.0020
3577.00,0.0019
3576.00,0.0020
3575.00,0.0020
3574.00,0.0020
3573.00,0.0020
3572.00,0.0021
3571.00,0.0022
3570.00,0.0022
3569.00,0.0023
3568.00,0.0023
3567.00,0.0023
3566.00,0.0023
3565.00,0.0023
3564.00,0.0023
3563.00,0.0023
3562.00,0.0024
3561.00,0.0024
3560.00,0.0024
3559.00,0.0024
3558.00,0.0024
3557.00,0.0024
3556.00,0.0024
3555.00,0.0024
3554.00,0.0025
3553.00,0.0025
3552.00,0.0025
3551.00,0.0025
3550.00,0.0025
3549.00,0.0025
3548.00,0.0025
3547.00,0.0026
3546.00,0.0026
3545.00,0.0026
3544.00,0.0027
3543.00,0.0027
3542.00,0.0027
3541.00,0.0027
3540.00,0.0027
3539.00,0.0027
3538.00,0.0027
3537.00,0.0027
3536.00,0.0027
3535.00,0.0027
3534.00,0.0027
3533.00,0.0028
3532.00,0.0028
3531.00,0.0028
3530.00,0.0028
3529.00,0.0029
3528.00,0.0029
3527.00,0.0029
3526.00,0.0030
3525.00,0.0030
3524.00,0.0030
3523.00,0.0030
3522.00,0.0030
3521.00,0.0030
3520.00,0.0030
3519.00,0.0030
3518.00,0.0030
3517.00,0.0031
3516.00,0.0031
3515.00,0.0031
3514.00,0.0031
3513.00,0.0031
3512.00,0.0031
3511.00,0.0031
3510.00,0.0031
3509.00,0.0032
3508.00,0.0032
3507.00,0.0032
3506.00,0.0032
3505.00,0.0032
3504.00,0.0033
3503.00,0.0033
3502.00,0.0032
3501.00,0.0032
3500.00,0.0032
3499.00,0.0033
3498.00,0.0033
3497.00,0.0033
3496.00,0.0033
3495.00,0.0033
3494.00,0.0034
3493.00,0.0034
3492.00,0.0034
3491.00,0.0034
3490.00,0.0035
3489.00,0.0035
3488.00,0.0035
3487.00,0.0035
3486.00,0.0035
3485.00,0.0035
3484.00,0.0035
3483.00,0.0035
3482.00,0.0035
3481.00,0.0035
3480.00,0.0036
3479.00,0.0036
3478.00,0.0036
3477.00,0.0036
3476.00,0.0037
3475.00,0.0037
3474.00,0.0037
3473.00,0.0037
3472.00,0.0037
3471.00,0.0037
3470.00,0.0037
3469.00,0.0037
3468.00,0.0038
3467.00,0.0038
3466.00,0.0038
3465.00,0.0038
3464.00,0.0038
3463.00,0.0038
3462.00,0.0038
3461.00,0.0038
3460.00,0.0038
3459.00,0.0038
3458.00,0.0038
3457.00,0.0038
3456.00,0.0038
3455.00,0.0039
3454.00,0.0039
3453.00,0.0039
3452.00,0.0039
3451.00,0.0038
3450.00,0.0038
3449.00,0.0039
3448.00,0.0039
3447.00,0.0039
3446.00,0.0039
3445.00,0.0040
3444.00,0.0039
3443.00,0.0039
3442.00,0.0039
3441.00,0.0039
3440.00,0.0039
3439.00,0.0039
3438.00,0.0039
3437.00,0.0039
3436.00,0.0039
3435.00,0.0039
3434.00,0.0039
3433.00,0.0039
3432.00,0.0039
3431.00,0.0039
3430.00,0.0040
3429.00,0.0040
3428.00,0.0040
3427.00,0.0040
3426.00,0.0041
3425.00,0.0041
3424.00,0.0041
3423.00,0.0041
3422.00,0.0041
3421.00,0.0041
3420.00,0.0041
3419.00,0.0041
3418.00,0.0041
3417.00,0.0041
3416.00,0.0041
3415.00,0.0041
3414.00,0.0041
3413.00,0.0041
3412.00,0.0042
3411.00,0.0042
3410.00,0.0042
3409.00,0.0042
3408.00,0.0042
3407.00,0.0042
3406.00,0.0042
3405.00,0.0042
3404.00,0.0042
3403.00,0.0043
3402.00,0.0043
3401.00,0.0043
3400.00,0.0043
3399.00,0.0044
3398.00,0.0044
3397.00,0.0044
3396.00,0.0044
3395.00,0.0044
3394.00,0.0044
3393.00,0.0044
3392.00,0.0044
3391.00,0.0044
3390.00,0.0044
3389.00,0.0044
3388.00,0.0045
3387.00,0.0045
3386.00,0.0045
3385.00,0.0045
3384.00,0.0046
3383.00,0.0046
3382.00,0.0046
3381.00,0.0046
3380.00,0.0046
3379.00,0.0046
3378.00,0.0046
3377.00,0.0046
3376.00,0.0047
3375.00,0.0047
3374.00,0.0047
3373.00,0.0047
3372.00,0.0047
3371.00,0.0047
3370.00,0.0048
3369.00,0.0048
3368.00,0.0048
3367.00,0.0048
3366.00,0.0049
3365.00,0.0049
3364.00,0.0049
3363.00,0.0049
3362.00,0.0050
3361.00,0.0050
3360.00,0.0050
3359.00,0.0050
3358.00,0.0051
3357.00,0.0051
3356.00,0.0052
3355.00,0.0052
3354.00,0.0052
3353.00,0.0052
3352.00,0.0052
3351.00,0.0052
3350.00,0.0052
3349.00,0.0052
3348.00,0.0053
3347.00,0.0053
3346.00,0.0053
3345.00,0.0053
3344.00,0.0053
3343.00,0.0054
3342.00,0.0054
3341.00,0.0055
3340.00,0.0055
3339.00,0.0055
3338.00,0.0055
3337.00,0.0055
3336.00,0.0056
3335.00,0.0056
3334.00,0.0056
3333.00,0.0056
3332.00,0.0056
3331.00,0.0056
3330.00,0.0056
3329.00,0.0057
3328.00,0.0057
3327.00,0.0057
3326.00,0.0057
3325.00,0.0058
3324.00,0.0058
3323.00,0.0058
3322.00,0.0058
3321.00,0.0059
3320.00,0.0059
3319.00,0.0059
3318.00,0.0060
3317.00,0.0060
3316.00,0.0060
3315.00,0.0061
3314.00,0.0061
3313.00,0.0061
3312.00,0.0061
3311.00,0.0061
3310.00,0.0061
3309.00,0.0061
3308.00,0.0061
3307.00,0.0061
3306.00,0.0061
3305.00,0.0062
3304.00,0.0062
3303.00,0.0063
3302.00,0.0064
3301.00,0.0064
3300.00,0.0064
3299.00,0.0065
3298.00,0.0065
3297.00,0.0065
3296.00,0.0065
3295.00,0.0065
3294.00,0.0065
3293.00,0.0065
3292.00,0.0065
3291.00,0.0066
3290.00,0.0066
3289.00,0.0066
3288.00,0.0067
3287.00,0.0067
3286.00,0.0067
3285.00,0.0067
3284.00,0.0067
3283.00,0.0068
3282.00,0.0068
3281.00,0.0068
3280.00,0.0068
3279.00,0.0069
3278.00,0.0069
3277.00,0.0069
3276.00,0.0069
3275.00,0.0069
3274.00,0.0069
3273.00,0.0069
3272.00,0.0069
3271.00,0.0069
3270.00,0.0070
3269.00,0.0070
3268.00,0.0070
3267.00,0.0070
3266.00,0.0070
3265.00,0.0070
3264.00,0.0070
3263.00,0.0071
3262.00,0.0071
3261.00,0.0071
3260.00,0.0072
3259.00,0.0072
3258.00,0.0072
3257.00,0.0073
3256.00,0.0073
3255.00,0.0073
3254.00,0.0073
3253.00,0.0073
3252.00,0.0073
3251.00,0.0073
3250.00,0.0073
3249.00,0.0074
3248.00,0.0074
3247.00,0.0074
3246.00,0.0075
3245.00,0.0075
3244.00,0.0075
3243.00,0.0075
3242.00,0.0075
3241.00,0.0076
3240.00,0.0076
3239.00,0.0076
3238.00,0.0076
3237.00,0.0076
3236.00,0.0075
3235.00,0.0075
3234.00,0.0075
3233.00,0.0075
3232.00,0.0075
3231.00,0.0076
3230.00,0.0076
3229.00,0.0076
3228.00,0.0077
3227.00,0.0077
3226.00,0.0077
3225.00,0.0077
3224.00,0.0077
3223.00,0.0077
3222.00,0.0077
3221.00,0.0077
3220.00,0.0077
3219.00,0.0077
3218.00,0.0078
3217.00,0.0078
3216.00,0.0078
3215.00,0.0078
3214.00,0.0078
3213.00,0.0077
3212.00,0.0077
3211.00,0.0077
3210.00,0.0077
3209.00,0.0077
3208.00,0.0078
3207.00,0.0078
3206.00,0.0078
3205.00,0.0078
3204.00,0.0078
3203.00,0.0078
3202.00,0.0078
3201.00,0.0078
3200.00,0.0079
3199.00,0.0079
3198.00,0.0079
3197.00,0.0079
3196.00,0.0079
3195.00,0.0079
3194.00,0.0079
3193.00,0.0079
3192.00,0.0079
3191.00,0.0079
3190.00,0.0079
3189.00,0.0079
3188.00,0.0079
3187.00,0.0080
3186.00,0.0080
3185.00,0.0080
3184.00,0.0080
3183.00,0.0079
3182.00,0.0079
3181.00,0.0079
3180.00,0.0079
3179.00,0.0079
3178.00,0.0079
3177.00,0.0079
3176.00,0.0079
3175.00,0.0079
3174.00,0.0079
3173.00,0.0079
3172.00,0.0079
3171.00,0.0079
3170.00,0.0079
3169.00,0.0079
3168.00,0.0079
3167.00,0.0079
3166.00,0.0079
3165.00,0.0079
3164.00,0.0079
3163.00,0.0079
3162.00,0.0079
3161.00,0.0079
3160.00,0.0079
3159.00,0.0079
3158.00,0.0079
3157.00,0.0079
3156.00,0.0078
3155.00,0.0078
3154.00,0.0078
3153.00,0.0078
3152.00,0.0078
3151.00,0.0078
3150.00,0.0078
3149.00,0.0078
3148.00,0.0078
3147.00,0.0077
3146.00,0.0077
3145.00,0.0077
3144.00,0.0077
3143.00,0.0077
3142.00,0.0077
3141.00,0.0077
3140.00,0.0077
3139.00,0.0077
3138.00,0.0077
3137.00,0.0077
3136.00,0.0077
3135.00,0.0077
3134.00,0.0077
3133.00,0.0076
3132.00,0.0076
3131.00,0.0076
3130.00,0.0076
3129.00,0.0076
3128.00,0.0076
3127.00,0.0076
3126.00,0.0076
3125.00,0.0076
3124.00,0.0076
3123.00,0.0076
3122.00,0.0076
3121.00,0.0076
3120.00,0.0076
3119.00,0.0076
3118.00,0.0076
3117.00,0.0076
3116.00,0.0076
3115.00,0.0076
3114.00,0.0076
3113.00,0.0076
3112.00,0.0075
3111.00,0.0075
3110.00,0.0075
3109.00,0.0074
3108.00,0.0074
3107.00,0.0074
3106.00,0.0074
3105.00,0.0074
3104.00,0.0073
3103.00,0.0073
3102.00,0.0073
3101.00,0.0073
3100.00,0.0073
3099.00,0.0073
3098.00,0.0072
3097.00,0.0072
3096.00,0.0072
3095.00,0.0072
3094.00,0.0072
3093.00,0.0073
3092.00,0.0073
3091.00,0.0073
3090.00,0.0073
3089.00,0.0073
3088.00,0.0073
3087.00,0.0074
3086.00,0.0074
3085.00,0.0074
3084.00,0.0074
3083.00,0.0074
3082.00,0.0074
3081.00,0.0075
3080.00,0.0075
3079.00,0.0075
3078.00,0.0075
3077.00,0.0074
3076.00,0.0074
3075.00,0.0074
3074.00,0.0074
3073.00,0.0074
3072.00,0.0073
3071.00,0.0073
3070.00,0.0073
3069.00,0.0072
3068.00,0.0072
3067.00,0.0072
3066.00,0.0072
3065.00,0.0072
3064.00,0.0071
3063.00,0.0071
3062.00,0.0071
3061.00,0.0070
3060.00,0.0070
3059.00,0.0070
3058.00,0.0069
3057.00,0.0069
3056.00,0.0069
3055.00,0.0069
3054.00,0.0068
3053.00,0.0068
3052.00,0.0068
3051.00,0.0068
3050.00,0.0068
3049.00,0.0068
3048.00,0.0068
3047.00,0.0068
3046.00,0.0068
3045.00,0.0067
3044.00,0.0067
3043.00,0.0067
3042.00,0.0067
3041.00,0.0067
3040.00,0.0067
3039.00,0.0067
3038.00,0.0067
3037.00,0.0067
3036.00,0.0067
3035.00,0.0067
3034.00,0.0066
3033.00,0.0066
3032.00,0.0066
3031.00,0.0066
3030.00,0.0065
3029.00,0.0065
3028.00,0.0065
3027.00,0.0065
3026.00,0.0065
3025.00,0.0064
3024.00,0.0064
3023.00,0.0064
3022.00,0.0064
3021.00,0.0064
3020.00,0.0064
3019.00,0.0063
3018.00,0.0063
3017.00,0.0063
3016.00,0.0064
3015.00,0.0064
3014.00,0.0064
3013.00,0.0064
3012.00,0.0064
3011.00,0.0064
3010.00,0.0065
3009.00,0.0066
3008.00,0.0067
3007.00,0.0068
3006.00,0.0069
3005.00,0.0070
3004.00,0.0071
3003.00,0.0073
3002.00,0.0074
3001.00,0.0075
3000.00,0.0077
2999.00,0.0080
2998.00,0.0082
2997.00,0.0085
2996.00,0.0088
2995.00,0.0090
2994.00,0.0094
2993.00,0.0097
2992.00,0.0101
2991.00,0.0104
2990.00,0.0108
2989.00,0.0111
2988.00,0.0115
2987.00,0.0118
2986.00,0.0121
2985.00,0.0124
2984.00,0.0127
2983.00,0.0130
2982.00,0.0132
2981.00,0.0134
2980.00,0.0136
2979.00,0.0138
2978.00,0.0140
2977.00,0.0141
2976.00,0.0142
2975.00,0.0143
2974.00,0.0145
2973.00,0.0146
2972.00,0.0147
2971.00,0.0148
2970.00,0.0149
2969.00,0.0151
2968.00,0.0153
2967.00,0.0155
2966.00,0.0157
2965.00,0.0160
2964.00,0.0162
2963.00,0.0165
2962.00,0.0167
2961.00,0.0169
2960.00,0.0172
2959.00,0.0174
2958.00,0.0176
2957.00,0.0178
2956.00,0.0179
2955.00,0.0180
2954.00,0.0180
2953.00,0.0181
2952.00,0.0180
2951.00,0.0180
2950.00,0.0179
2949.00,0.0178
2948.00,0.0177
2947.00,0.0177
2946.00,0.0176
2945.00,0.0176
2944.00,0.0177
2943.00,0.0177
2942.00,0.0178
2941.00,0.0179
2940.00,0.0181
2939.00,0.0184
2938.00,0.0186
2937.00,0.0189
2936.00,0.0191
2935.00,0.0194
2934.00,0.0196
2933.00,0.0199
2932.00,0.0201
2931.00,0.0203
2930.00,0.0205
2929.00,0.0206
2928.00,0.0207
2927.00,0.0208
2926.00,0.0208
2925.00,0.0208
2924.00,0.0206
2923.00,0.0204
2922.00,0.0202
2921.00,0.0199
2920.00,0.0197
2919.00,0.0193
2918.00,0.0190
2917.00,0.0187
2916.00,0.0183
2915.00,0.0180
2914.00,0.0177
2913.00,0.0173
2912.00,0.0170
2911.00,0.0167
2910.00,0.0163
2909.00,0.0160
2908.00,0.0157
2907.00,0.0153
2906.00,0.0150
2905.00,0.0147
2904.00,0.0145
2903.00,0.0143
2902.00,0.0141
2901.00,0.0140
2900.00,0.0138
2899.00,0.0137
2898.00,0.0136
2897.00,0.0136
2896.00,0.0135
2895.00,0.0135
2894.00,0.0134
2893.00,0.0134
2892.00,0.0133
2891.00,0.0133
2890.00,0.0132
2889.00,0.0132
2888.00,0.0131
2887.00,0.0131
2886.00,0.0130
2885.00,0.0130
2884.00,0.0130
2883.00,0.0131
2882.00,0.0131
2881.00,0.0132
2880.00,0.0133
2879.00,0.0134
2878.00,0.0135
2877.00,0.0137
2876.00,0.0138
2875.00,0.0139
2874.00,0.0141
2873.00,0.0143
2872.00,0.0145
2871.00,0.0146
2870.00,0.0146
2869.00,0.0146
2868.00,0.0146
2867.00,0.0146
2866.00,0.0146
2865.00,0.0146
2864.00,0.0146
2863.00,0.0147
2862.00,0.0148
2861.00,0.0149
2860.00,0.0149
2859.00,0.0150
2858.00,0.0150
2857.00,0.0149
2856.00,0.0147
2855.00,0.0145
2854.00,0.0142
2853.00,0.0138
2852.00,0.0133
2851.00,0.0128
2850.00,0.0124
2849.00,0.0119
2848.00,0.0115
2847.00,0.0111
2846.00,0.0107
2845.00,0.0103
2844.00,0.0099
2843.00,0.0096
2842.00,0.0092
2841.00,0.0089
2840.00,0.0085
2839.00,0.0082
2838.00,0.0080
2837.00,0.0077
2836.00,0.0075
2835.00,0.0073
2834.00,0.0071
2833.00,0.0069
2832.00,0.0068
2831.00,0.0066
2830.00,0.0065
2829.00,0.0063
2828.00,0.0062
2827.00,0.0060
2826.00,0.0059
2825.00,0.0057
2824.00,0.0056
2823.00,0.0055
2822.00,0.0054
2821.00,0.0053
2820.00,0.0052
2819.00,0.0051
2818.00,0.0050
2817.00,0.0049
2816.00,0.0049
2815.00,0.0048
2814.00,0.0047
2813.00,0.0046
2812.00,0.0045
2811.00,0.0045
2810.00,0.0044
2809.00,0.0044
2808.00,0.0044
2807.00,0.0043
2806.00,0.0043
2805.00,0.0042
2804.00,0.0042
2803.00,0.0041
2802.00,0.0041
2801.00,0.0041
2800.00,0.0040
2799.00,0.0040
2798.00,0.0040
2797.00,0.0040
2796.00,0.0039
2795.00,0.0039
2794.00,0.0039
2793.00,0.0039
2792.00,0.0038
2791.00,0.0038
2790.00,0.0038
2789.00,0.0037
2788.00,0.0037
2787.00,0.0037
2786.00,0.0037
2785.00,0.0037
2784.00,0.0037
2783.00,0.0036
2782.00,0.0036
2781.00,0.0036
2780.00,0.0036
2779.00,0.0036
2778.00,0.0036
2777.00,0.0036
2776.00,0.0036
2775.00,0.0035
2774.00,0.0035
2773.00,0.0035
2772.00,0.0034
2771.00,0.0034
2770.00,0.0034
2769.00,0.0034
2768.00,0.0034
2767.00,0.0034
2766.00,0.0034
2765.00,0.0034
2764.00,0.0034
2763.00,0.0034
2762.00,0.0034
2761.00,0.0034
2760.00,0.0034
2759.00,0.0034
2758.00,0.0034
2757.00,0.0034
