Created as New Dataset,Sample 845 By YargerLab Date Monday, July 21 2025
cm-1,A
4000.00,0.0078
3999.00,0.0078
3998.00,0.0078
3997.00,0.0078
3996.00,0.0078
3995.00,0.0078
3994.00,0.0078
3993.00,0.0078
3992.00,0.0078
3991.00,0.0078
3990.00,0.0078
3989.00,0.0078
3988.00,0.0078
3987.00,0.0078
3986.00,0.0078
3985.00,0.0078
3984.00,0.0078
3983.00,0.0078
3982.00,0.0078
3981.00,0.0078
3980.00,0.0078
3979.00,0.0078
3978.00,0.0078
3977.00,0.0078
3976.00,0.0078
3975.00,0.0078
3974.00,0.0078
3973.00,0.0078
3972.00,0.0078
3971.00,0.0078
3970.00,0.0078
3969.00,0.0078
3968.00,0.0079
3967.00,0.0079
3966.00,0.0079
3965.00,0.0079
3964.00,0.0079
3963.00,0.0079
3962.00,0.0079
3961.00,0.0079
3960.00,0.0079
3959.00,0.0079
3958.00,0.0079
3957.00,0.0079
3956.00,0.0079
3955.00,0.0079
3954.00,0.0079
3953.00,0.0079
3952.00,0.0079
3951.00,0.0079
3950.00,0.0079
3949.00,0.0079
3948.00,0.0079
3947.00,0.0079
3946.00,0.0079
3945.00,0.0079
3944.00,0.0079
3943.00,0.0079
3942.00,0.0079
3941.00,0.0079
3940.00,0.0079
3939.00,0.0078
3938.00,0.0078
3937.00,0.0078
3936.00,0.0079
3935.00,0.0079
3934.00,0.0079
3933.00,0.0079
3932.00,0.0079
3931.00,0.0079
3930.00,0.0079
3929.00,0.0079
3928.00,0.0079
3927.00,0.0079
3926.00,0.0079
3925.00,0.0079
3924.00,0.0080
3923.00,0.0080
3922.00,0.0080
3921.00,0.0080
3920.00,0.0080
3919.00,0.0080
3918.00,0.0080
3917.00,0.0079
3916.00,0.0079
3915.00,0.0079
3914.00,0.0079
3913.00,0.0079
3912.00,0.0079
3911.00,0.0079
3910.00,0.0079
3909.00,0.0079
3908.00,0.0079
3907.00,0.0079
3906.00,0.0079
3905.00,0.0078
3904.00,0.0078
3903.00,0.0078
3902.00,0.0078
3901.00,0.0078
3900.00,0.0078
3899.00,0.0078
3898.00,0.0078
3897.00,0.0078
3896.00,0.0078
3895.00,0.0077
3894.00,0.0077
3893.00,0.0077
3892.00,0.0077
3891.00,0.0077
3890.00,0.0077
3889.00,0.0077
3888.00,0.0077
3887.00,0.0077
3886.00,0.0077
3885.00,0.0077
3884.00,0.0077
3883.00,0.0077
3882.00,0.0077
3881.00,0.0077
3880.00,0.0077
3879.00,0.0077
3878.00,0.0078
3877.00,0.0078
3876.00,0.0077
3875.00,0.0077
3874.00,0.0077
3873.00,0.0077
3872.00,0.0077
3871.00,0.0077
3870.00,0.0076
3869.00,0.0076
3868.00,0.0076
3867.00,0.0076
3866.00,0.0077
3865.00,0.0077
3864.00,0.0077
3863.00,0.0077
3862.00,0.0077
3861.00,0.0077
3860.00,0.0077
3859.00,0.0077
3858.00,0.0077
3857.00,0.0077
3856.00,0.0077
3855.00,0.0077
3854.00,0.0077
3853.00,0.0077
3852.00,0.0076
3851.00,0.0076
3850.00,0.0076
3849.00,0.0076
3848.00,0.0076
3847.00,0.0076
3846.00,0.0076
3845.00,0.0077
3844.00,0.0077
3843.00,0.0077
3842.00,0.0077
3841.00,0.0077
3840.00,0.0077
3839.00,0.0077
3838.00,0.0077
3837.00,0.0076
3836.00,0.0076
3835.00,0.0076
3834.00,0.0076
3833.00,0.0076
3832.00,0.0076
3831.00,0.0076
3830.00,0.0076
3829.00,0.0076
3828.00,0.0076
3827.00,0.0076
3826.00,0.0076
3825.00,0.0076
3824.00,0.0076
3823.00,0.0076
3822.00,0.0075
3821.00,0.0075
3820.00,0.0075
3819.00,0.0075
3818.00,0.0075
3817.00,0.0075
3816.00,0.0075
3815.00,0.0075
3814.00,0.0075
3813.00,0.0075
3812.00,0.0075
3811.00,0.0075
3810.00,0.0075
3809.00,0.0076
3808.00,0.0075
3807.00,0.0075
3806.00,0.0075
3805.00,0.0076
3804.00,0.0076
3803.00,0.0076
3802.00,0.0075
3801.00,0.0075
3800.00,0.0075
3799.00,0.0075
3798.00,0.0075
3797.00,0.0075
3796.00,0.0075
3795.00,0.0075
3794.00,0.0075
3793.00,0.0075
3792.00,0.0075
3791.00,0.0075
3790.00,0.0075
3789.00,0.0075
3788.00,0.0075
3787.00,0.0075
3786.00,0.0075
3785.00,0.0075
3784.00,0.0075
3783.00,0.0075
3782.00,0.0075
3781.00,0.0075
3780.00,0.0075
3779.00,0.0075
3778.00,0.0075
3777.00,0.0075
3776.00,0.0075
3775.00,0.0075
3774.00,0.0075
3773.00,0.0075
3772.00,0.0075
3771.00,0.0075
3770.00,0.0075
3769.00,0.0075
3768.00,0.0075
3767.00,0.0075
3766.00,0.0075
3765.00,0.0075
3764.00,0.0075
3763.00,0.0075
3762.00,0.0074
3761.00,0.0074
3760.00,0.0074
3759.00,0.0074
3758.00,0.0074
3757.00,0.0074
3756.00,0.0074
3755.00,0.0074
3754.00,0.0074
3753.00,0.0074
3752.00,0.0074
3751.00,0.0075
3750.00,0.0075
3749.00,0.0075
3748.00,0.0075
3747.00,0.0074
3746.00,0.0074
3745.00,0.0074
3744.00,0.0074
3743.00,0.0074
3742.00,0.0074
3741.00,0.0074
3740.00,0.0075
3739.00,0.0075
3738.00,0.0075
3737.00,0.0074
3736.00,0.0074
3735.00,0.0074
3734.00,0.0073
3733.00,0.0073
3732.00,0.0073
3731.00,0.0073
3730.00,0.0073
3729.00,0.0073
3728.00,0.0073
3727.00,0.0073
3726.00,0.0073
3725.00,0.0073
3724.00,0.0073
3723.00,0.0073
3722.00,0.0073
3721.00,0.0072
3720.00,0.0072
3719.00,0.0072
3718.00,0.0072
3717.00,0.0072
3716.00,0.0073
3715.00,0.0073
3714.00,0.0073
3713.00,0.0072
3712.00,0.0072
3711.00,0.0072
3710.00,0.0071
3709.00,0.0071
3708.00,0.0071
3707.00,0.0071
3706.00,0.0071
3705.00,0.0071
3704.00,0.0072
3703.00,0.0072
3702.00,0.0072
3701.00,0.0072
3700.00,0.0072
3699.00,0.0072
3698.00,0.0072
3697.00,0.0072
3696.00,0.0072
3695.00,0.0072
3694.00,0.0072
3693.00,0.0072
3692.00,0.0072
3691.00,0.0072
3690.00,0.0071
3689.00,0.0071
3688.00,0.0071
3687.00,0.0071
3686.00,0.0071
3685.00,0.0071
3684.00,0.0071
3683.00,0.0071
3682.00,0.0072
3681.00,0.0072
3680.00,0.0072
3679.00,0.0073
3678.00,0.0073
3677.00,0.0073
3676.00,0.0072
3675.00,0.0072
3674.00,0.0071
3673.00,0.0071
3672.00,0.0071
3671.00,0.0071
3670.00,0.0070
3669.00,0.0071
3668.00,0.0071
3667.00,0.0071
3666.00,0.0071
3665.00,0.0071
3664.00,0.0071
3663.00,0.0071
3662.00,0.0071
3661.00,0.0071
3660.00,0.0071
3659.00,0.0070
3658.00,0.0070
3657.00,0.0070
3656.00,0.0070
3655.00,0.0070
3654.00,0.0070
3653.00,0.0070
3652.00,0.0070
3651.00,0.0070
3650.00,0.0069
3649.00,0.0069
3648.00,0.0069
3647.00,0.0069
3646.00,0.0069
3645.00,0.0069
3644.00,0.0069
3643.00,0.0069
3642.00,0.0069
3641.00,0.0069
3640.00,0.0069
3639.00,0.0069
3638.00,0.0069
3637.00,0.0070
3636.00,0.0070
3635.00,0.0070
3634.00,0.0070
3633.00,0.0070
3632.00,0.0070
3631.00,0.0070
3630.00,0.0070
3629.00,0.0070
3628.00,0.0070
3627.00,0.0070
3626.00,0.0070
3625.00,0.0070
3624.00,0.0069
3623.00,0.0069
3622.00,0.0069
3621.00,0.0069
3620.00,0.0069
3619.00,0.0070
3618.00,0.0070
3617.00,0.0070
3616.00,0.0070
3615.00,0.0070
3614.00,0.0070
3613.00,0.0070
3612.00,0.0070
3611.00,0.0070
3610.00,0.0070
3609.00,0.0070
3608.00,0.0070
3607.00,0.0070
3606.00,0.0070
3605.00,0.0070
3604.00,0.0070
3603.00,0.0070
3602.00,0.0070
3601.00,0.0070
3600.00,0.0071
3599.00,0.0071
3598.00,0.0071
3597.00,0.0071
3596.00,0.0072
3595.00,0.0072
3594.00,0.0072
3593.00,0.0071
3592.00,0.0071
3591.00,0.0071
3590.00,0.0071
3589.00,0.0071
3588.00,0.0071
3587.00,0.0071
3586.00,0.0071
3585.00,0.0072
3584.00,0.0072
3583.00,0.0072
3582.00,0.0072
3581.00,0.0073
3580.00,0.0073
3579.00,0.0073
3578.00,0.0073
3577.00,0.0074
3576.00,0.0074
3575.00,0.0074
3574.00,0.0074
3573.00,0.0075
3572.00,0.0075
3571.00,0.0076
3570.00,0.0076
3569.00,0.0077
3568.00,0.0077
3567.00,0.0077
3566.00,0.0077
3565.00,0.0078
3564.00,0.0078
3563.00,0.0079
3562.00,0.0079
3561.00,0.0080
3560.00,0.0081
3559.00,0.0081
3558.00,0.0082
3557.00,0.0083
3556.00,0.0084
3555.00,0.0085
3554.00,0.0086
3553.00,0.0087
3552.00,0.0088
3551.00,0.0089
3550.00,0.0090
3549.00,0.0092
3548.00,0.0093
3547.00,0.0096
3546.00,0.0098
3545.00,0.0101
3544.00,0.0103
3543.00,0.0106
3542.00,0.0110
3541.00,0.0113
3540.00,0.0117
3539.00,0.0122
3538.00,0.0127
3537.00,0.0134
3536.00,0.0140
3535.00,0.0148
3534.00,0.0157
3533.00,0.0168
3532.00,0.0181
3531.00,0.0195
3530.00,0.0213
3529.00,0.0233
3528.00,0.0255
3527.00,0.0278
3526.00,0.0301
3525.00,0.0323
3524.00,0.0343
3523.00,0.0360
3522.00,0.0372
3521.00,0.0379
3520.00,0.0382
3519.00,0.0379
3518.00,0.0373
3517.00,0.0363
3516.00,0.0350
3515.00,0.0335
3514.00,0.0319
3513.00,0.0303
3512.00,0.0288
3511.00,0.0273
3510.00,0.0259
3509.00,0.0246
3508.00,0.0236
3507.00,0.0227
3506.00,0.0219
3505.00,0.0213
3504.00,0.0207
3503.00,0.0203
3502.00,0.0199
3501.00,0.0196
3500.00,0.0194
3499.00,0.0193
3498.00,0.0192
3497.00,0.0191
3496.00,0.0191
3495.00,0.0190
3494.00,0.0191
3493.00,0.0191
3492.00,0.0192
3491.00,0.0193
3490.00,0.0194
3489.00,0.0195
3488.00,0.0197
3487.00,0.0198
3486.00,0.0200
3485.00,0.0201
3484.00,0.0203
3483.00,0.0206
3482.00,0.0208
3481.00,0.0211
3480.00,0.0213
3479.00,0.0216
3478.00,0.0219
3477.00,0.0222
3476.00,0.0225
3475.00,0.0228
3474.00,0.0232
3473.00,0.0236
3472.00,0.0239
3471.00,0.0244
3470.00,0.0248
3469.00,0.0252
3468.00,0.0256
3467.00,0.0260
3466.00,0.0264
3465.00,0.0269
3464.00,0.0273
3463.00,0.0278
3462.00,0.0283
3461.00,0.0288
3460.00,0.0293
3459.00,0.0298
3458.00,0.0303
3457.00,0.0308
3456.00,0.0313
3455.00,0.0318
3454.00,0.0322
3453.00,0.0327
3452.00,0.0331
3451.00,0.0336
3450.00,0.0340
3449.00,0.0345
3448.00,0.0349
3447.00,0.0353
3446.00,0.0357
3445.00,0.0362
3444.00,0.0366
3443.00,0.0370
3442.00,0.0374
3441.00,0.0378
3440.00,0.0383
3439.00,0.0387
3438.00,0.0391
3437.00,0.0395
3436.00,0.0399
3435.00,0.0403
3434.00,0.0406
3433.00,0.0410
3432.00,0.0413
3431.00,0.0417
3430.00,0.0420
3429.00,0.0424
3428.00,0.0427
3427.00,0.0431
3426.00,0.0435
3425.00,0.0440
3424.00,0.0445
3423.00,0.0450
3422.00,0.0455
3421.00,0.0461
3420.00,0.0467
3419.00,0.0474
3418.00,0.0481
3417.00,0.0488
3416.00,0.0495
3415.00,0.0502
3414.00,0.0508
3413.00,0.0514
3412.00,0.0518
3411.00,0.0522
3410.00,0.0524
3409.00,0.0524
3408.00,0.0524
3407.00,0.0521
3406.00,0.0517
3405.00,0.0510
3404.00,0.0503
3403.00,0.0494
3402.00,0.0483
3401.00,0.0471
3400.00,0.0458
3399.00,0.0445
3398.00,0.0431
3397.00,0.0417
3396.00,0.0403
3395.00,0.0390
3394.00,0.0376
3393.00,0.0364
3392.00,0.0351
3391.00,0.0340
3390.00,0.0329
3389.00,0.0319
3388.00,0.0310
3387.00,0.0301
3386.00,0.0293
3385.00,0.0285
3384.00,0.0278
3383.00,0.0271
3382.00,0.0265
3381.00,0.0259
3380.00,0.0254
3379.00,0.0248
3378.00,0.0243
3377.00,0.0239
3376.00,0.0234
3375.00,0.0230
3374.00,0.0225
3373.00,0.0221
3372.00,0.0218
3371.00,0.0214
3370.00,0.0210
3369.00,0.0207
3368.00,0.0203
3367.00,0.0200
3366.00,0.0197
3365.00,0.0194
3364.00,0.0191
3363.00,0.0188
3362.00,0.0185
3361.00,0.0182
3360.00,0.0180
3359.00,0.0177
3358.00,0.0174
3357.00,0.0172
3356.00,0.0170
3355.00,0.0167
3354.00,0.0165
3353.00,0.0163
3352.00,0.0161
3351.00,0.0159
3350.00,0.0157
3349.00,0.0156
3348.00,0.0154
3347.00,0.0153
3346.00,0.0151
3345.00,0.0150
3344.00,0.0148
3343.00,0.0146
3342.00,0.0145
3341.00,0.0143
3340.00,0.0142
3339.00,0.0140
3338.00,0.0139
3337.00,0.0138
3336.00,0.0137
3335.00,0.0136
3334.00,0.0135
3333.00,0.0134
3332.00,0.0133
3331.00,0.0132
3330.00,0.0131
3329.00,0.0130
3328.00,0.0128
3327.00,0.0127
3326.00,0.0126
3325.00,0.0125
3324.00,0.0124
3323.00,0.0124
3322.00,0.0123
3321.00,0.0122
3320.00,0.0122
3319.00,0.0121
3318.00,0.0121
3317.00,0.0120
3316.00,0.0119
3315.00,0.0118
3314.00,0.0117
3313.00,0.0116
3312.00,0.0116
3311.00,0.0115
3310.00,0.0114
3309.00,0.0114
3308.00,0.0113
3307.00,0.0113
3306.00,0.0112
3305.00,0.0111
3304.00,0.0111
3303.00,0.0110
3302.00,0.0110
3301.00,0.0110
3300.00,0.0109
3299.00,0.0108
3298.00,0.0108
3297.00,0.0107
3296.00,0.0106
3295.00,0.0106
3294.00,0.0105
3293.00,0.0105
3292.00,0.0105
3291.00,0.0105
3290.00,0.0105
3289.00,0.0104
3288.00,0.0104
3287.00,0.0103
3286.00,0.0102
3285.00,0.0102
3284.00,0.0101
3283.00,0.0101
3282.00,0.0100
3281.00,0.0100
3280.00,0.0100
3279.00,0.0099
3278.00,0.0099
3277.00,0.0098
3276.00,0.0098
3275.00,0.0097
3274.00,0.0097
3273.00,0.0096
3272.00,0.0096
3271.00,0.0096
3270.00,0.0096
3269.00,0.0096
3268.00,0.0096
3267.00,0.0097
3266.00,0.0097
3265.00,0.0096
3264.00,0.0096
3263.00,0.0096
3262.00,0.0096
3261.00,0.0095
3260.00,0.0095
3259.00,0.0095
3258.00,0.0095
3257.00,0.0095
3256.00,0.0094
3255.00,0.0095
3254.00,0.0095
3253.00,0.0095
3252.00,0.0094
3251.00,0.0094
3250.00,0.0094
3249.00,0.0093
3248.00,0.0093
3247.00,0.0093
3246.00,0.0093
3245.00,0.0093
3244.00,0.0093
3243.00,0.0093
3242.00,0.0093
3241.00,0.0093
3240.00,0.0093
3239.00,0.0092
3238.00,0.0092
3237.00,0.0091
3236.00,0.0090
3235.00,0.0090
3234.00,0.0089
3233.00,0.0089
3232.00,0.0089
3231.00,0.0089
3230.00,0.0090
3229.00,0.0090
3228.00,0.0090
3227.00,0.0089
3226.00,0.0089
3225.00,0.0089
3224.00,0.0089
3223.00,0.0089
3222.00,0.0089
3221.00,0.0088
3220.00,0.0088
3219.00,0.0088
3218.00,0.0088
3217.00,0.0088
3216.00,0.0088
3215.00,0.0088
3214.00,0.0089
3213.00,0.0088
3212.00,0.0088
3211.00,0.0088
3210.00,0.0088
3209.00,0.0088
3208.00,0.0088
3207.00,0.0088
3206.00,0.0088
3205.00,0.0088
3204.00,0.0088
3203.00,0.0088
3202.00,0.0088
3201.00,0.0087
3200.00,0.0087
3199.00,0.0087
3198.00,0.0087
3197.00,0.0087
3196.00,0.0087
3195.00,0.0087
3194.00,0.0086
3193.00,0.0086
3192.00,0.0087
3191.00,0.0087
3190.00,0.0087
3189.00,0.0087
3188.00,0.0087
3187.00,0.0087
3186.00,0.0087
3185.00,0.0087
3184.00,0.0087
3183.00,0.0086
3182.00,0.0087
3181.00,0.0087
3180.00,0.0087
3179.00,0.0087
3178.00,0.0087
3177.00,0.0087
3176.00,0.0087
3175.00,0.0087
3174.00,0.0087
3173.00,0.0087
3172.00,0.0087
3171.00,0.0088
3170.00,0.0088
3169.00,0.0088
3168.00,0.0089
3167.00,0.0089
3166.00,0.0089
3165.00,0.0089
3164.00,0.0089
3163.00,0.0089
3162.00,0.0088
3161.00,0.0088
3160.00,0.0088
3159.00,0.0088
3158.00,0.0088
3157.00,0.0087
3156.00,0.0087
3155.00,0.0086
3154.00,0.0086
3153.00,0.0085
3152.00,0.0086
3151.00,0.0086
3150.00,0.0086
3149.00,0.0086
3148.00,0.0086
3147.00,0.0086
3146.00,0.0086
3145.00,0.0086
3144.00,0.0086
3143.00,0.0085
3142.00,0.0085
3141.00,0.0084
3140.00,0.0084
3139.00,0.0084
3138.00,0.0084
3137.00,0.0084
3136.00,0.0085
3135.00,0.0085
3134.00,0.0085
3133.00,0.0084
3132.00,0.0084
3131.00,0.0084
3130.00,0.0084
3129.00,0.0084
3128.00,0.0084
3127.00,0.0084
3126.00,0.0084
3125.00,0.0084
3124.00,0.0084
3123.00,0.0084
3122.00,0.0084
3121.00,0.0083
3120.00,0.0083
3119.00,0.0083
3118.00,0.0083
3117.00,0.0083
3116.00,0.0083
3115.00,0.0084
3114.00,0.0084
3113.00,0.0084
3112.00,0.0084
3111.00,0.0084
3110.00,0.0084
3109.00,0.0084
3108.00,0.0083
3107.00,0.0083
3106.00,0.0083
3105.00,0.0083
3104.00,0.0083
3103.00,0.0084
3102.00,0.0084
3101.00,0.0084
3100.00,0.0084
3099.00,0.0085
3098.00,0.0085
3097.00,0.0085
3096.00,0.0085
3095.00,0.0085
3094.00,0.0085
3093.00,0.0085
3092.00,0.0086
3091.00,0.0086
3090.00,0.0086
3089.00,0.0087
3088.00,0.0087
3087.00,0.0088
3086.00,0.0089
3085.00,0.0090
3084.00,0.0092
3083.00,0.0094
3082.00,0.0098
3081.00,0.0102
3080.00,0.0108
3079.00,0.0116
3078.00,0.0125
3077.00,0.0135
3076.00,0.0143
3075.00,0.0149
3074.00,0.0150
3073.00,0.0148
3072.00,0.0142
3071.00,0.0134
3070.00,0.0125
3069.00,0.0118
3068.00,0.0111
3067.00,0.0107
3066.00,0.0103
3065.00,0.0100
3064.00,0.0098
3063.00,0.0096
3062.00,0.0095
3061.00,0.0094
3060.00,0.0093
3059.00,0.0092
3058.00,0.0092
3057.00,0.0091
3056.00,0.0091
3055.00,0.0090
3054.00,0.0090
3053.00,0.0089
3052.00,0.0089
3051.00,0.0090
3050.00,0.0090
3049.00,0.0091
3048.00,0.0091
3047.00,0.0092
3046.00,0.0093
3045.00,0.0093
3044.00,0.0094
3043.00,0.0095
3042.00,0.0096
3041.00,0.0097
3040.00,0.0098
3039.00,0.0098
3038.00,0.0099
3037.00,0.0100
3036.00,0.0101
3035.00,0.0103
3034.00,0.0104
3033.00,0.0105
3032.00,0.0105
3031.00,0.0105
3030.00,0.0105
3029.00,0.0104
3028.00,0.0103
3027.00,0.0101
3026.00,0.0099
3025.00,0.0098
3024.00,0.0097
3023.00,0.0097
3022.00,0.0096
3021.00,0.0096
3020.00,0.0095
3019.00,0.0095
3018.00,0.0095
3017.00,0.0095
3016.00,0.0095
3015.00,0.0095
3014.00,0.0096
3013.00,0.0096
3012.00,0.0097
3011.00,0.0097
3010.00,0.0098
3009.00,0.0099
3008.00,0.0100
3007.00,0.0101
3006.00,0.0102
3005.00,0.0102
3004.00,0.0103
3003.00,0.0103
3002.00,0.0104
3001.00,0.0105
3000.00,0.0106
2999.00,0.0108
2998.00,0.0109
2997.00,0.0110
2996.00,0.0111
2995.00,0.0112
2994.00,0.0114
2993.00,0.0116
2992.00,0.0118
2991.00,0.0121
2990.00,0.0123
2989.00,0.0126
2988.00,0.0128
2987.00,0.0130
2986.00,0.0131
2985.00,0.0132
2984.00,0.0134
2983.00,0.0137
2982.00,0.0140
2981.00,0.0144
2980.00,0.0150
2979.00,0.0156
2978.00,0.0164
2977.00,0.0173
2976.00,0.0183
2975.00,0.0196
2974.00,0.0211
2973.00,0.0227
2972.00,0.0244
2971.00,0.0262
2970.00,0.0279
2969.00,0.0295
2968.00,0.0309
2967.00,0.0320
2966.00,0.0327
2965.00,0.0331
2964.00,0.0332
2963.00,0.0331
2962.00,0.0330
2961.00,0.0327
2960.00,0.0323
2959.00,0.0318
2958.00,0.0311
2957.00,0.0303
2956.00,0.0294
2955.00,0.0285
2954.00,0.0276
2953.00,0.0268
2952.00,0.0262
2951.00,0.0258
2950.00,0.0256
2949.00,0.0257
2948.00,0.0262
2947.00,0.0270
2946.00,0.0281
2945.00,0.0295
2944.00,0.0311
2943.00,0.0326
2942.00,0.0340
2941.00,0.0354
2940.00,0.0366
2939.00,0.0378
2938.00,0.0390
2937.00,0.0403
2936.00,0.0417
2935.00,0.0433
2934.00,0.0449
2933.00,0.0466
2932.00,0.0484
2931.00,0.0502
2930.00,0.0520
2929.00,0.0538
2928.00,0.0554
2927.00,0.0568
2926.00,0.0578
2925.00,0.0583
2924.00,0.0583
2923.00,0.0580
2922.00,0.0575
2921.00,0.0569
2920.00,0.0563
2919.00,0.0558
2918.00,0.0553
2917.00,0.0548
2916.00,0.0542
2915.00,0.0535
2914.00,0.0526
2913.00,0.0515
2912.00,0.0501
2911.00,0.0486
2910.00,0.0470
2909.00,0.0454
2908.00,0.0438
2907.00,0.0423
2906.00,0.0409
2905.00,0.0397
2904.00,0.0387
2903.00,0.0378
2902.00,0.0370
2901.00,0.0363
2900.00,0.0356
2899.00,0.0348
2898.00,0.0339
2897.00,0.0329
2896.00,0.0319
2895.00,0.0309
2894.00,0.0301
2893.00,0.0293
2892.00,0.0287
2891.00,0.0281
2890.00,0.0277
2889.00,0.0274
2888.00,0.0271
2887.00,0.0269
2886.00,0.0267
2885.00,0.0265
2884.00,0.0265
2883.00,0.0264
2882.00,0.0264
2881.00,0.0265
2880.00,0.0266
2879.00,0.0268
2878.00,0.0271
2877.00,0.0275
2876.00,0.0279
2875.00,0.0284
2874.00,0.0288
2873.00,0.0292
2872.00,0.0295
2871.00,0.0296
2870.00,0.0294
2869.00,0.0291
2868.00,0.0288
2867.00,0.0285
2866.00,0.0285
2865.00,0.0287
2864.00,0.0293
2863.00,0.0303
2862.00,0.0318
2861.00,0.0338
2860.00,0.0362
2859.00,0.0387
2858.00,0.0412
2857.00,0.0431
2856.00,0.0443
2855.00,0.0444
2854.00,0.0434
2853.00,0.0416
2852.00,0.0392
2851.00,0.0366
2850.00,0.0340
2849.00,0.0315
2848.00,0.0292
2847.00,0.0272
2846.00,0.0254
2845.00,0.0239
2844.00,0.0225
2843.00,0.0214
2842.00,0.0206
2841.00,0.0199
2840.00,0.0194
2839.00,0.0190
2838.00,0.0189
2837.00,0.0190
2836.00,0.0194
2835.00,0.0201
2834.00,0.0211
2833.00,0.0223
2832.00,0.0237
2831.00,0.0250
2830.00,0.0259
2829.00,0.0261
2828.00,0.0256
2827.00,0.0245
2826.00,0.0229
2825.00,0.0213
2824.00,0.0197
2823.00,0.0183
2822.00,0.0171
2821.00,0.0162
2820.00,0.0155
2819.00,0.0149
2818.00,0.0145
2817.00,0.0141
2816.00,0.0138
2815.00,0.0135
2814.00,0.0132
2813.00,0.0130
2812.00,0.0128
2811.00,0.0126
2810.00,0.0125
2809.00,0.0123
2808.00,0.0122
2807.00,0.0121
2806.00,0.0120
2805.00,0.0119
2804.00,0.0118
2803.00,0.0117
2802.00,0.0116
2801.00,0.0115
2800.00,0.0114
2799.00,0.0113
2798.00,0.0112
2797.00,0.0111
2796.00,0.0110
2795.00,0.0110
2794.00,0.0109
2793.00,0.0109
2792.00,0.0108
2791.00,0.0108
2790.00,0.0107
2789.00,0.0106
2788.00,0.0106
2787.00,0.0106
2786.00,0.0105
2785.00,0.0105
2784.00,0.0104
2783.00,0.0104
2782.00,0.0103
2781.00,0.0103
2780.00,0.0102
2779.00,0.0102
2778.00,0.0101
2777.00,0.0101
2776.00,0.0100
2775.00,0.0100
2774.00,0.0100
2773.00,0.0099
2772.00,0.0099
2771.00,0.0099
2770.00,0.0099
2769.00,0.0098
2768.00,0.0098
2767.00,0.0098
2766.00,0.0098
2765.00,0.0097
2764.00,0.0097
2763.00,0.0097
2762.00,0.0096
2761.00,0.0096
2760.00,0.0096
2759.00,0.0095
2758.00,0.0095
2757.00,0.0095
