Created as New Dataset,Sample 975 By YargerLab Date Wednesday, July 30 2025
cm-1,A
4000.00,0.0007
3999.00,0.0007
3998.00,0.0008
3997.00,0.0008
3996.00,0.0008
3995.00,0.0008
3994.00,0.0008
3993.00,0.0008
3992.00,0.0008
3991.00,0.0008
3990.00,0.0008
3989.00,0.0008
3988.00,0.0008
3987.00,0.0008
3986.00,0.0008
3985.00,0.0008
3984.00,0.0007
3983.00,0.0007
3982.00,0.0007
3981.00,0.0007
3980.00,0.0008
3979.00,0.0008
3978.00,0.0008
3977.00,0.0008
3976.00,0.0008
3975.00,0.0008
3974.00,0.0008
3973.00,0.0008
3972.00,0.0008
3971.00,0.0008
3970.00,0.0007
3969.00,0.0007
3968.00,0.0007
3967.00,0.0008
3966.00,0.0008
3965.00,0.0008
3964.00,0.0008
3963.00,0.0008
3962.00,0.0007
3961.00,0.0007
3960.00,0.0007
3959.00,0.0007
3958.00,0.0007
3957.00,0.0007
3956.00,0.0007
3955.00,0.0008
3954.00,0.0008
3953.00,0.0008
3952.00,0.0007
3951.00,0.0007
3950.00,0.0007
3949.00,0.0008
3948.00,0.0008
3947.00,0.0008
3946.00,0.0007
3945.00,0.0007
3944.00,0.0007
3943.00,0.0007
3942.00,0.0007
3941.00,0.0007
3940.00,0.0007
3939.00,0.0007
3938.00,0.0007
3937.00,0.0007
3936.00,0.0007
3935.00,0.0007
3934.00,0.0007
3933.00,0.0007
3932.00,0.0007
3931.00,0.0006
3930.00,0.0006
3929.00,0.0007
3928.00,0.0007
3927.00,0.0007
3926.00,0.0007
3925.00,0.0007
3924.00,0.0007
3923.00,0.0007
3922.00,0.0007
3921.00,0.0007
3920.00,0.0007
3919.00,0.0007
3918.00,0.0007
3917.00,0.0007
3916.00,0.0007
3915.00,0.0007
3914.00,0.0007
3913.00,0.0007
3912.00,0.0007
3911.00,0.0007
3910.00,0.0007
3909.00,0.0006
3908.00,0.0006
3907.00,0.0006
3906.00,0.0006
3905.00,0.0007
3904.00,0.0007
3903.00,0.0007
3902.00,0.0007
3901.00,0.0006
3900.00,0.0006
3899.00,0.0006
3898.00,0.0007
3897.00,0.0007
3896.00,0.0007
3895.00,0.0007
3894.00,0.0007
3893.00,0.0007
3892.00,0.0007
3891.00,0.0007
3890.00,0.0007
3889.00,0.0007
3888.00,0.0007
3887.00,0.0007
3886.00,0.0007
3885.00,0.0007
3884.00,0.0007
3883.00,0.0007
3882.00,0.0006
3881.00,0.0007
3880.00,0.0007
3879.00,0.0007
3878.00,0.0006
3877.00,0.0006
3876.00,0.0006
3875.00,0.0006
3874.00,0.0007
3873.00,0.0007
3872.00,0.0007
3871.00,0.0006
3870.00,0.0006
3869.00,0.0006
3868.00,0.0006
3867.00,0.0006
3866.00,0.0005
3865.00,0.0005
3864.00,0.0006
3863.00,0.0006
3862.00,0.0006
3861.00,0.0006
3860.00,0.0007
3859.00,0.0007
3858.00,0.0006
3857.00,0.0006
3856.00,0.0005
3855.00,0.0005
3854.00,0.0005
3853.00,0.0005
3852.00,0.0005
3851.00,0.0005
3850.00,0.0006
3849.00,0.0006
3848.00,0.0006
3847.00,0.0006
3846.00,0.0006
3845.00,0.0006
3844.00,0.0006
3843.00,0.0006
3842.00,0.0006
3841.00,0.0006
3840.00,0.0006
3839.00,0.0006
3838.00,0.0006
3837.00,0.0006
3836.00,0.0006
3835.00,0.0006
3834.00,0.0006
3833.00,0.0006
3832.00,0.0006
3831.00,0.0006
3830.00,0.0007
3829.00,0.0007
3828.00,0.0007
3827.00,0.0007
3826.00,0.0007
3825.00,0.0007
3824.00,0.0007
3823.00,0.0006
3822.00,0.0006
3821.00,0.0007
3820.00,0.0007
3819.00,0.0006
3818.00,0.0006
3817.00,0.0005
3816.00,0.0006
3815.00,0.0006
3814.00,0.0007
3813.00,0.0007
3812.00,0.0007
3811.00,0.0007
3810.00,0.0007
3809.00,0.0006
3808.00,0.0006
3807.00,0.0007
3806.00,0.0007
3805.00,0.0006
3804.00,0.0006
3803.00,0.0005
3802.00,0.0005
3801.00,0.0005
3800.00,0.0005
3799.00,0.0005
3798.00,0.0006
3797.00,0.0006
3796.00,0.0007
3795.00,0.0007
3794.00,0.0007
3793.00,0.0007
3792.00,0.0007
3791.00,0.0007
3790.00,0.0007
3789.00,0.0007
3788.00,0.0007
3787.00,0.0007
3786.00,0.0007
3785.00,0.0007
3784.00,0.0007
3783.00,0.0007
3782.00,0.0007
3781.00,0.0007
3780.00,0.0007
3779.00,0.0007
3778.00,0.0007
3777.00,0.0007
3776.00,0.0007
3775.00,0.0007
3774.00,0.0007
3773.00,0.0007
3772.00,0.0007
3771.00,0.0007
3770.00,0.0007
3769.00,0.0007
3768.00,0.0007
3767.00,0.0007
3766.00,0.0007
3765.00,0.0007
3764.00,0.0007
3763.00,0.0007
3762.00,0.0007
3761.00,0.0007
3760.00,0.0007
3759.00,0.0007
3758.00,0.0007
3757.00,0.0007
3756.00,0.0007
3755.00,0.0007
3754.00,0.0006
3753.00,0.0006
3752.00,0.0006
3751.00,0.0006
3750.00,0.0005
3749.00,0.0005
3748.00,0.0005
3747.00,0.0005
3746.00,0.0005
3745.00,0.0006
3744.00,0.0006
3743.00,0.0006
3742.00,0.0006
3741.00,0.0006
3740.00,0.0006
3739.00,0.0006
3738.00,0.0006
3737.00,0.0006
3736.00,0.0005
3735.00,0.0005
3734.00,0.0005
3733.00,0.0005
3732.00,0.0005
3731.00,0.0005
3730.00,0.0006
3729.00,0.0006
3728.00,0.0006
3727.00,0.0006
3726.00,0.0006
3725.00,0.0006
3724.00,0.0006
3723.00,0.0006
3722.00,0.0006
3721.00,0.0006
3720.00,0.0006
3719.00,0.0006
3718.00,0.0006
3717.00,0.0006
3716.00,0.0006
3715.00,0.0006
3714.00,0.0006
3713.00,0.0006
3712.00,0.0007
3711.00,0.0007
3710.00,0.0006
3709.00,0.0006
3708.00,0.0005
3707.00,0.0005
3706.00,0.0006
3705.00,0.0006
3704.00,0.0006
3703.00,0.0006
3702.00,0.0005
3701.00,0.0005
3700.00,0.0005
3699.00,0.0005
3698.00,0.0005
3697.00,0.0006
3696.00,0.0006
3695.00,0.0006
3694.00,0.0006
3693.00,0.0006
3692.00,0.0006
3691.00,0.0006
3690.00,0.0006
3689.00,0.0006
3688.00,0.0006
3687.00,0.0007
3686.00,0.0007
3685.00,0.0007
3684.00,0.0007
3683.00,0.0007
3682.00,0.0007
3681.00,0.0007
3680.00,0.0007
3679.00,0.0007
3678.00,0.0007
3677.00,0.0007
3676.00,0.0007
3675.00,0.0007
3674.00,0.0007
3673.00,0.0007
3672.00,0.0007
3671.00,0.0007
3670.00,0.0007
3669.00,0.0008
3668.00,0.0008
3667.00,0.0008
3666.00,0.0008
3665.00,0.0008
3664.00,0.0009
3663.00,0.0009
3662.00,0.0009
3661.00,0.0009
3660.00,0.0009
3659.00,0.0009
3658.00,0.0009
3657.00,0.0009
3656.00,0.0009
3655.00,0.0010
3654.00,0.0010
3653.00,0.0010
3652.00,0.0010
3651.00,0.0011
3650.00,0.0011
3649.00,0.0011
3648.00,0.0011
3647.00,0.0011
3646.00,0.0011
3645.00,0.0011
3644.00,0.0011
3643.00,0.0012
3642.00,0.0012
3641.00,0.0013
3640.00,0.0013
3639.00,0.0013
3638.00,0.0013
3637.00,0.0013
3636.00,0.0013
3635.00,0.0013
3634.00,0.0013
3633.00,0.0013
3632.00,0.0013
3631.00,0.0013
3630.00,0.0014
3629.00,0.0014
3628.00,0.0014
3627.00,0.0014
3626.00,0.0014
3625.00,0.0015
3624.00,0.0015
3623.00,0.0015
3622.00,0.0015
3621.00,0.0015
3620.00,0.0015
3619.00,0.0015
3618.00,0.0016
3617.00,0.0017
3616.00,0.0017
3615.00,0.0017
3614.00,0.0017
3613.00,0.0018
3612.00,0.0018
3611.00,0.0018
3610.00,0.0018
3609.00,0.0018
3608.00,0.0019
3607.00,0.0019
3606.00,0.0019
3605.00,0.0020
3604.00,0.0020
3603.00,0.0020
3602.00,0.0021
3601.00,0.0021
3600.00,0.0021
3599.00,0.0021
3598.00,0.0022
3597.00,0.0022
3596.00,0.0023
3595.00,0.0023
3594.00,0.0024
3593.00,0.0024
3592.00,0.0024
3591.00,0.0025
3590.00,0.0025
3589.00,0.0025
3588.00,0.0026
3587.00,0.0026
3586.00,0.0027
3585.00,0.0027
3584.00,0.0028
3583.00,0.0028
3582.00,0.0029
3581.00,0.0029
3580.00,0.0029
3579.00,0.0030
3578.00,0.0030
3577.00,0.0030
3576.00,0.0031
3575.00,0.0031
3574.00,0.0031
3573.00,0.0032
3572.00,0.0032
3571.00,0.0033
3570.00,0.0033
3569.00,0.0034
3568.00,0.0034
3567.00,0.0034
3566.00,0.0035
3565.00,0.0035
3564.00,0.0035
3563.00,0.0036
3562.00,0.0036
3561.00,0.0036
3560.00,0.0037
3559.00,0.0037
3558.00,0.0037
3557.00,0.0038
3556.00,0.0038
3555.00,0.0039
3554.00,0.0039
3553.00,0.0040
3552.00,0.0040
3551.00,0.0041
3550.00,0.0041
3549.00,0.0041
3548.00,0.0042
3547.00,0.0042
3546.00,0.0042
3545.00,0.0042
3544.00,0.0043
3543.00,0.0042
3542.00,0.0042
3541.00,0.0043
3540.00,0.0043
3539.00,0.0043
3538.00,0.0044
3537.00,0.0044
3536.00,0.0045
3535.00,0.0045
3534.00,0.0046
3533.00,0.0046
3532.00,0.0046
3531.00,0.0046
3530.00,0.0046
3529.00,0.0046
3528.00,0.0047
3527.00,0.0047
3526.00,0.0047
3525.00,0.0047
3524.00,0.0047
3523.00,0.0048
3522.00,0.0048
3521.00,0.0048
3520.00,0.0049
3519.00,0.0049
3518.00,0.0049
3517.00,0.0049
3516.00,0.0050
3515.00,0.0050
3514.00,0.0050
3513.00,0.0050
3512.00,0.0050
3511.00,0.0050
3510.00,0.0050
3509.00,0.0050
3508.00,0.0051
3507.00,0.0051
3506.00,0.0051
3505.00,0.0052
3504.00,0.0052
3503.00,0.0052
3502.00,0.0053
3501.00,0.0053
3500.00,0.0053
3499.00,0.0053
3498.00,0.0053
3497.00,0.0053
3496.00,0.0053
3495.00,0.0054
3494.00,0.0054
3493.00,0.0054
3492.00,0.0054
3491.00,0.0055
3490.00,0.0055
3489.00,0.0055
3488.00,0.0055
3487.00,0.0055
3486.00,0.0055
3485.00,0.0055
3484.00,0.0055
3483.00,0.0055
3482.00,0.0056
3481.00,0.0056
3480.00,0.0057
3479.00,0.0057
3478.00,0.0057
3477.00,0.0057
3476.00,0.0057
3475.00,0.0057
3474.00,0.0057
3473.00,0.0058
3472.00,0.0058
3471.00,0.0058
3470.00,0.0058
3469.00,0.0059
3468.00,0.0059
3467.00,0.0059
3466.00,0.0059
3465.00,0.0059
3464.00,0.0059
3463.00,0.0059
3462.00,0.0059
3461.00,0.0059
3460.00,0.0059
3459.00,0.0059
3458.00,0.0059
3457.00,0.0059
3456.00,0.0059
3455.00,0.0059
3454.00,0.0060
3453.00,0.0060
3452.00,0.0060
3451.00,0.0060
3450.00,0.0060
3449.00,0.0060
3448.00,0.0060
3447.00,0.0060
3446.00,0.0060
3445.00,0.0061
3444.00,0.0061
3443.00,0.0060
3442.00,0.0060
3441.00,0.0060
3440.00,0.0060
3439.00,0.0060
3438.00,0.0061
3437.00,0.0061
3436.00,0.0061
3435.00,0.0061
3434.00,0.0061
3433.00,0.0061
3432.00,0.0061
3431.00,0.0061
3430.00,0.0061
3429.00,0.0060
3428.00,0.0060
3427.00,0.0060
3426.00,0.0060
3425.00,0.0060
3424.00,0.0060
3423.00,0.0060
3422.00,0.0060
3421.00,0.0060
3420.00,0.0060
3419.00,0.0060
3418.00,0.0060
3417.00,0.0059
3416.00,0.0059
3415.00,0.0059
3414.00,0.0059
3413.00,0.0059
3412.00,0.0059
3411.00,0.0059
3410.00,0.0059
3409.00,0.0059
3408.00,0.0059
3407.00,0.0059
3406.00,0.0059
3405.00,0.0059
3404.00,0.0059
3403.00,0.0059
3402.00,0.0059
3401.00,0.0059
3400.00,0.0059
3399.00,0.0059
3398.00,0.0059
3397.00,0.0059
3396.00,0.0059
3395.00,0.0059
3394.00,0.0059
3393.00,0.0058
3392.00,0.0058
3391.00,0.0058
3390.00,0.0058
3389.00,0.0058
3388.00,0.0059
3387.00,0.0059
3386.00,0.0059
3385.00,0.0059
3384.00,0.0059
3383.00,0.0059
3382.00,0.0058
3381.00,0.0058
3380.00,0.0058
3379.00,0.0058
3378.00,0.0058
3377.00,0.0058
3376.00,0.0058
3375.00,0.0058
3374.00,0.0058
3373.00,0.0057
3372.00,0.0057
3371.00,0.0057
3370.00,0.0057
3369.00,0.0056
3368.00,0.0056
3367.00,0.0057
3366.00,0.0057
3365.00,0.0057
3364.00,0.0057
3363.00,0.0057
3362.00,0.0057
3361.00,0.0057
3360.00,0.0057
3359.00,0.0057
3358.00,0.0057
3357.00,0.0057
3356.00,0.0057
3355.00,0.0057
3354.00,0.0057
3353.00,0.0056
3352.00,0.0056
3351.00,0.0056
3350.00,0.0056
3349.00,0.0056
3348.00,0.0056
3347.00,0.0056
3346.00,0.0056
3345.00,0.0056
3344.00,0.0056
3343.00,0.0056
3342.00,0.0056
3341.00,0.0055
3340.00,0.0055
3339.00,0.0055
3338.00,0.0055
3337.00,0.0055
3336.00,0.0055
3335.00,0.0056
3334.00,0.0056
3333.00,0.0056
3332.00,0.0056
3331.00,0.0056
3330.00,0.0055
3329.00,0.0055
3328.00,0.0055
3327.00,0.0054
3326.00,0.0054
3325.00,0.0054
3324.00,0.0054
3323.00,0.0055
3322.00,0.0055
3321.00,0.0055
3320.00,0.0055
3319.00,0.0055
3318.00,0.0054
3317.00,0.0054
3316.00,0.0054
3315.00,0.0054
3314.00,0.0054
3313.00,0.0054
3312.00,0.0054
3311.00,0.0053
3310.00,0.0052
3309.00,0.0052
3308.00,0.0051
3307.00,0.0051
3306.00,0.0051
3305.00,0.0052
3304.00,0.0052
3303.00,0.0053
3302.00,0.0053
3301.00,0.0054
3300.00,0.0053
3299.00,0.0053
3298.00,0.0052
3297.00,0.0052
3296.00,0.0052
3295.00,0.0051
3294.00,0.0051
3293.00,0.0051
3292.00,0.0052
3291.00,0.0052
3290.00,0.0052
3289.00,0.0053
3288.00,0.0053
3287.00,0.0052
3286.00,0.0052
3285.00,0.0052
3284.00,0.0052
3283.00,0.0052
3282.00,0.0051
3281.00,0.0051
3280.00,0.0051
3279.00,0.0051
3278.00,0.0052
3277.00,0.0051
3276.00,0.0051
3275.00,0.0051
3274.00,0.0051
3273.00,0.0051
3272.00,0.0051
3271.00,0.0050
3270.00,0.0050
3269.00,0.0050
3268.00,0.0051
3267.00,0.0051
3266.00,0.0051
3265.00,0.0051
3264.00,0.0051
3263.00,0.0051
3262.00,0.0051
3261.00,0.0051
3260.00,0.0051
3259.00,0.0051
3258.00,0.0050
3257.00,0.0050
3256.00,0.0050
3255.00,0.0049
3254.00,0.0049
3253.00,0.0049
3252.00,0.0050
3251.00,0.0050
3250.00,0.0049
3249.00,0.0049
3248.00,0.0049
3247.00,0.0049
3246.00,0.0048
3245.00,0.0049
3244.00,0.0049
3243.00,0.0049
3242.00,0.0048
3241.00,0.0048
3240.00,0.0048
3239.00,0.0048
3238.00,0.0048
3237.00,0.0048
3236.00,0.0048
3235.00,0.0048
3234.00,0.0048
3233.00,0.0048
3232.00,0.0048
3231.00,0.0048
3230.00,0.0048
3229.00,0.0048
3228.00,0.0048
3227.00,0.0047
3226.00,0.0047
3225.00,0.0047
3224.00,0.0047
3223.00,0.0047
3222.00,0.0047
3221.00,0.0047
3220.00,0.0046
3219.00,0.0046
3218.00,0.0046
3217.00,0.0046
3216.00,0.0046
3215.00,0.0046
3214.00,0.0046
3213.00,0.0046
3212.00,0.0046
3211.00,0.0046
3210.00,0.0046
3209.00,0.0046
3208.00,0.0046
3207.00,0.0046
3206.00,0.0045
3205.00,0.0045
3204.00,0.0045
3203.00,0.0045
3202.00,0.0045
3201.00,0.0045
3200.00,0.0045
3199.00,0.0045
3198.00,0.0044
3197.00,0.0044
3196.00,0.0044
3195.00,0.0045
3194.00,0.0045
3193.00,0.0045
3192.00,0.0044
3191.00,0.0044
3190.00,0.0044
3189.00,0.0044
3188.00,0.0044
3187.00,0.0044
3186.00,0.0044
3185.00,0.0044
3184.00,0.0044
3183.00,0.0044
3182.00,0.0043
3181.00,0.0043
3180.00,0.0043
3179.00,0.0043
3178.00,0.0043
3177.00,0.0043
3176.00,0.0043
3175.00,0.0043
3174.00,0.0044
3173.00,0.0044
3172.00,0.0043
3171.00,0.0043
3170.00,0.0043
3169.00,0.0043
3168.00,0.0043
3167.00,0.0043
3166.00,0.0043
3165.00,0.0043
3164.00,0.0043
3163.00,0.0042
3162.00,0.0042
3161.00,0.0042
3160.00,0.0042
3159.00,0.0042
3158.00,0.0041
3157.00,0.0041
3156.00,0.0041
3155.00,0.0041
3154.00,0.0041
3153.00,0.0041
3152.00,0.0041
3151.00,0.0041
3150.00,0.0041
3149.00,0.0041
3148.00,0.0041
3147.00,0.0041
3146.00,0.0041
3145.00,0.0041
3144.00,0.0040
3143.00,0.0040
3142.00,0.0040
3141.00,0.0040
3140.00,0.0040
3139.00,0.0040
3138.00,0.0040
3137.00,0.0040
3136.00,0.0040
3135.00,0.0040
3134.00,0.0040
3133.00,0.0040
3132.00,0.0040
3131.00,0.0040
3130.00,0.0040
3129.00,0.0040
3128.00,0.0039
3127.00,0.0039
3126.00,0.0039
3125.00,0.0039
3124.00,0.0039
3123.00,0.0039
3122.00,0.0039
3121.00,0.0039
3120.00,0.0039
3119.00,0.0039
3118.00,0.0039
3117.00,0.0039
3116.00,0.0039
3115.00,0.0039
3114.00,0.0039
3113.00,0.0039
3112.00,0.0039
3111.00,0.0038
3110.00,0.0038
3109.00,0.0038
3108.00,0.0038
3107.00,0.0038
3106.00,0.0037
3105.00,0.0037
3104.00,0.0037
3103.00,0.0037
3102.00,0.0037
3101.00,0.0037
3100.00,0.0037
3099.00,0.0037
3098.00,0.0037
3097.00,0.0037
3096.00,0.0037
3095.00,0.0037
3094.00,0.0037
3093.00,0.0037
3092.00,0.0037
3091.00,0.0037
3090.00,0.0037
3089.00,0.0037
3088.00,0.0037
3087.00,0.0037
3086.00,0.0037
3085.00,0.0037
3084.00,0.0037
3083.00,0.0037
3082.00,0.0037
3081.00,0.0037
3080.00,0.0037
3079.00,0.0037
3078.00,0.0037
3077.00,0.0037
3076.00,0.0037
3075.00,0.0037
3074.00,0.0037
3073.00,0.0037
3072.00,0.0037
3071.00,0.0037
3070.00,0.0037
3069.00,0.0037
3068.00,0.0036
3067.00,0.0036
3066.00,0.0036
3065.00,0.0036
3064.00,0.0036
3063.00,0.0036
3062.00,0.0036
3061.00,0.0036
3060.00,0.0036
3059.00,0.0036
3058.00,0.0036
3057.00,0.0036
3056.00,0.0036
3055.00,0.0036
3054.00,0.0036
3053.00,0.0036
3052.00,0.0036
3051.00,0.0035
3050.00,0.0035
3049.00,0.0035
3048.00,0.0035
3047.00,0.0035
3046.00,0.0035
3045.00,0.0035
3044.00,0.0035
3043.00,0.0035
3042.00,0.0035
3041.00,0.0035
3040.00,0.0035
3039.00,0.0035
3038.00,0.0035
3037.00,0.0035
3036.00,0.0035
3035.00,0.0035
3034.00,0.0035
3033.00,0.0036
3032.00,0.0036
3031.00,0.0036
3030.00,0.0035
3029.00,0.0035
3028.00,0.0035
3027.00,0.0035
3026.00,0.0035
3025.00,0.0035
3024.00,0.0036
3023.00,0.0036
3022.00,0.0036
3021.00,0.0036
3020.00,0.0036
3019.00,0.0036
3018.00,0.0037
3017.00,0.0037
3016.00,0.0037
3015.00,0.0037
3014.00,0.0038
3013.00,0.0038
3012.00,0.0039
3011.00,0.0039
3010.00,0.0040
3009.00,0.0041
3008.00,0.0042
3007.00,0.0043
3006.00,0.0044
3005.00,0.0045
3004.00,0.0046
3003.00,0.0048
3002.00,0.0049
3001.00,0.0051
3000.00,0.0052
2999.00,0.0054
2998.00,0.0056
2997.00,0.0058
2996.00,0.0061
2995.00,0.0063
2994.00,0.0065
2993.00,0.0068
2992.00,0.0070
2991.00,0.0072
2990.00,0.0075
2989.00,0.0078
2988.00,0.0080
2987.00,0.0083
2986.00,0.0085
2985.00,0.0088
2984.00,0.0090
2983.00,0.0092
2982.00,0.0094
2981.00,0.0095
2980.00,0.0097
2979.00,0.0099
2978.00,0.0101
2977.00,0.0102
2976.00,0.0103
2975.00,0.0104
2974.00,0.0105
2973.00,0.0106
2972.00,0.0107
2971.00,0.0108
2970.00,0.0109
2969.00,0.0110
2968.00,0.0111
2967.00,0.0113
2966.00,0.0114
2965.00,0.0115
2964.00,0.0117
2963.00,0.0118
2962.00,0.0120
2961.00,0.0122
2960.00,0.0123
2959.00,0.0125
2958.00,0.0126
2957.00,0.0127
2956.00,0.0129
2955.00,0.0130
2954.00,0.0131
2953.00,0.0132
2952.00,0.0132
2951.00,0.0132
2950.00,0.0132
2949.00,0.0132
2948.00,0.0131
2947.00,0.0131
2946.00,0.0130
2945.00,0.0130
2944.00,0.0130
2943.00,0.0129
2942.00,0.0129
2941.00,0.0128
2940.00,0.0128
2939.00,0.0128
2938.00,0.0129
2937.00,0.0129
2936.00,0.0129
2935.00,0.0130
2934.00,0.0131
2933.00,0.0131
2932.00,0.0132
2931.00,0.0133
2930.00,0.0134
2929.00,0.0134
2928.00,0.0135
2927.00,0.0135
2926.00,0.0136
2925.00,0.0135
2924.00,0.0135
2923.00,0.0135
2922.00,0.0134
2921.00,0.0133
2920.00,0.0132
2919.00,0.0131
2918.00,0.0130
2917.00,0.0128
2916.00,0.0127
2915.00,0.0125
2914.00,0.0123
2913.00,0.0122
2912.00,0.0120
2911.00,0.0117
2910.00,0.0115
2909.00,0.0113
2908.00,0.0111
2907.00,0.0109
2906.00,0.0108
2905.00,0.0106
2904.00,0.0105
2903.00,0.0104
2902.00,0.0103
2901.00,0.0102
2900.00,0.0102
2899.00,0.0101
2898.00,0.0101
2897.00,0.0101
2896.00,0.0101
2895.00,0.0101
2894.00,0.0101
2893.00,0.0101
2892.00,0.0101
2891.00,0.0101
2890.00,0.0100
2889.00,0.0100
2888.00,0.0100
2887.00,0.0100
2886.00,0.0100
2885.00,0.0100
2884.00,0.0100
2883.00,0.0100
2882.00,0.0100
2881.00,0.0100
2880.00,0.0101
2879.00,0.0101
2878.00,0.0101
2877.00,0.0101
2876.00,0.0102
2875.00,0.0102
2874.00,0.0102
2873.00,0.0102
2872.00,0.0102
2871.00,0.0102
2870.00,0.0102
2869.00,0.0101
2868.00,0.0101
2867.00,0.0100
2866.00,0.0100
2865.00,0.0100
2864.00,0.0099
2863.00,0.0099
2862.00,0.0099
2861.00,0.0098
2860.00,0.0098
2859.00,0.0097
2858.00,0.0096
2857.00,0.0095
2856.00,0.0094
2855.00,0.0092
2854.00,0.0090
2853.00,0.0088
2852.00,0.0085
2851.00,0.0083
2850.00,0.0080
2849.00,0.0077
2848.00,0.0075
2847.00,0.0073
2846.00,0.0071
2845.00,0.0070
2844.00,0.0068
2843.00,0.0066
2842.00,0.0064
2841.00,0.0062
2840.00,0.0061
2839.00,0.0059
2838.00,0.0058
2837.00,0.0057
2836.00,0.0056
2835.00,0.0054
2834.00,0.0053
2833.00,0.0052
2832.00,0.0052
2831.00,0.0051
2830.00,0.0050
2829.00,0.0049
2828.00,0.0048
2827.00,0.0047
2826.00,0.0046
2825.00,0.0045
2824.00,0.0044
2823.00,0.0043
2822.00,0.0043
2821.00,0.0042
2820.00,0.0041
2819.00,0.0041
2818.00,0.0040
2817.00,0.0039
2816.00,0.0039
2815.00,0.0038
2814.00,0.0038
2813.00,0.0037
2812.00,0.0036
2811.00,0.0036
2810.00,0.0035
2809.00,0.0034
2808.00,0.0034
2807.00,0.0033
2806.00,0.0033
2805.00,0.0032
2804.00,0.0032
2803.00,0.0031
2802.00,0.0031
2801.00,0.0030
2800.00,0.0030
2799.00,0.0029
2798.00,0.0029
2797.00,0.0029
2796.00,0.0029
2795.00,0.0028
2794.00,0.0028
2793.00,0.0028
2792.00,0.0028
2791.00,0.0027
2790.00,0.0027
2789.00,0.0027
2788.00,0.0027
2787.00,0.0027
2786.00,0.0026
2785.00,0.0026
2784.00,0.0026
2783.00,0.0026
2782.00,0.0026
2781.00,0.0025
2780.00,0.0025
2779.00,0.0025
2778.00,0.0025
2777.00,0.0024
2776.00,0.0024
2775.00,0.0024
2774.00,0.0024
2773.00,0.0024
2772.00,0.0024
2771.00,0.0023
2770.00,0.0023
2769.00,0.0023
2768.00,0.0023
2767.00,0.0023
2766.00,0.0023
2765.00,0.0023
2764.00,0.0023
2763.00,0.0022
2762.00,0.0022
2761.00,0.0022
2760.00,0.0022
2759.00,0.0022
2758.00,0.0022
2757.00,0.0022
