Created as New Dataset,Sample 1028 By YargerLab Date Friday, August 01 2025
cm-1,A
4000.00,0.0029
3999.00,0.0029
3998.00,0.0029
3997.00,0.0029
3996.00,0.0029
3995.00,0.0029
3994.00,0.0029
3993.00,0.0028
3992.00,0.0028
3991.00,0.0028
3990.00,0.0029
3989.00,0.0029
3988.00,0.0029
3987.00,0.0029
3986.00,0.0029
3985.00,0.0029
3984.00,0.0029
3983.00,0.0029
3982.00,0.0029
3981.00,0.0029
3980.00,0.0029
3979.00,0.0029
3978.00,0.0030
3977.00,0.0030
3976.00,0.0030
3975.00,0.0030
3974.00,0.0030
3973.00,0.0030
3972.00,0.0030
3971.00,0.0030
3970.00,0.0030
3969.00,0.0030
3968.00,0.0030
3967.00,0.0030
3966.00,0.0030
3965.00,0.0030
3964.00,0.0030
3963.00,0.0029
3962.00,0.0029
3961.00,0.0029
3960.00,0.0029
3959.00,0.0029
3958.00,0.0029
3957.00,0.0029
3956.00,0.0029
3955.00,0.0029
3954.00,0.0029
3953.00,0.0029
3952.00,0.0029
3951.00,0.0029
3950.00,0.0029
3949.00,0.0029
3948.00,0.0029
3947.00,0.0029
3946.00,0.0029
3945.00,0.0029
3944.00,0.0029
3943.00,0.0029
3942.00,0.0029
3941.00,0.0029
3940.00,0.0029
3939.00,0.0028
3938.00,0.0028
3937.00,0.0029
3936.00,0.0029
3935.00,0.0029
3934.00,0.0029
3933.00,0.0029
3932.00,0.0028
3931.00,0.0029
3930.00,0.0029
3929.00,0.0029
3928.00,0.0029
3927.00,0.0029
3926.00,0.0029
3925.00,0.0029
3924.00,0.0029
3923.00,0.0029
3922.00,0.0029
3921.00,0.0029
3920.00,0.0029
3919.00,0.0029
3918.00,0.0029
3917.00,0.0029
3916.00,0.0029
3915.00,0.0029
3914.00,0.0029
3913.00,0.0029
3912.00,0.0029
3911.00,0.0029
3910.00,0.0029
3909.00,0.0029
3908.00,0.0028
3907.00,0.0028
3906.00,0.0028
3905.00,0.0028
3904.00,0.0028
3903.00,0.0028
3902.00,0.0028
3901.00,0.0028
3900.00,0.0028
3899.00,0.0028
3898.00,0.0028
3897.00,0.0028
3896.00,0.0028
3895.00,0.0028
3894.00,0.0028
3893.00,0.0028
3892.00,0.0028
3891.00,0.0029
3890.00,0.0029
3889.00,0.0029
3888.00,0.0028
3887.00,0.0028
3886.00,0.0028
3885.00,0.0028
3884.00,0.0028
3883.00,0.0028
3882.00,0.0028
3881.00,0.0028
3880.00,0.0028
3879.00,0.0028
3878.00,0.0028
3877.00,0.0028
3876.00,0.0028
3875.00,0.0028
3874.00,0.0028
3873.00,0.0028
3872.00,0.0027
3871.00,0.0027
3870.00,0.0027
3869.00,0.0028
3868.00,0.0028
3867.00,0.0028
3866.00,0.0028
3865.00,0.0028
3864.00,0.0028
3863.00,0.0028
3862.00,0.0027
3861.00,0.0027
3860.00,0.0028
3859.00,0.0028
3858.00,0.0028
3857.00,0.0028
3856.00,0.0027
3855.00,0.0027
3854.00,0.0027
3853.00,0.0027
3852.00,0.0027
3851.00,0.0027
3850.00,0.0027
3849.00,0.0027
3848.00,0.0028
3847.00,0.0028
3846.00,0.0028
3845.00,0.0029
3844.00,0.0029
3843.00,0.0029
3842.00,0.0028
3841.00,0.0028
3840.00,0.0028
3839.00,0.0028
3838.00,0.0028
3837.00,0.0027
3836.00,0.0027
3835.00,0.0027
3834.00,0.0027
3833.00,0.0028
3832.00,0.0028
3831.00,0.0028
3830.00,0.0028
3829.00,0.0028
3828.00,0.0028
3827.00,0.0028
3826.00,0.0028
3825.00,0.0028
3824.00,0.0028
3823.00,0.0027
3822.00,0.0027
3821.00,0.0027
3820.00,0.0027
3819.00,0.0027
3818.00,0.0027
3817.00,0.0027
3816.00,0.0027
3815.00,0.0028
3814.00,0.0028
3813.00,0.0028
3812.00,0.0028
3811.00,0.0028
3810.00,0.0028
3809.00,0.0028
3808.00,0.0028
3807.00,0.0028
3806.00,0.0028
3805.00,0.0028
3804.00,0.0028
3803.00,0.0027
3802.00,0.0028
3801.00,0.0028
3800.00,0.0028
3799.00,0.0028
3798.00,0.0028
3797.00,0.0028
3796.00,0.0028
3795.00,0.0028
3794.00,0.0028
3793.00,0.0028
3792.00,0.0028
3791.00,0.0029
3790.00,0.0029
3789.00,0.0029
3788.00,0.0029
3787.00,0.0029
3786.00,0.0029
3785.00,0.0028
3784.00,0.0028
3783.00,0.0028
3782.00,0.0028
3781.00,0.0027
3780.00,0.0027
3779.00,0.0027
3778.00,0.0027
3777.00,0.0028
3776.00,0.0028
3775.00,0.0028
3774.00,0.0028
3773.00,0.0029
3772.00,0.0029
3771.00,0.0029
3770.00,0.0029
3769.00,0.0029
3768.00,0.0029
3767.00,0.0028
3766.00,0.0028
3765.00,0.0028
3764.00,0.0029
3763.00,0.0029
3762.00,0.0029
3761.00,0.0029
3760.00,0.0029
3759.00,0.0028
3758.00,0.0028
3757.00,0.0028
3756.00,0.0028
3755.00,0.0028
3754.00,0.0028
3753.00,0.0028
3752.00,0.0028
3751.00,0.0028
3750.00,0.0028
3749.00,0.0028
3748.00,0.0027
3747.00,0.0027
3746.00,0.0027
3745.00,0.0027
3744.00,0.0027
3743.00,0.0027
3742.00,0.0027
3741.00,0.0027
3740.00,0.0027
3739.00,0.0027
3738.00,0.0027
3737.00,0.0026
3736.00,0.0026
3735.00,0.0025
3734.00,0.0025
3733.00,0.0025
3732.00,0.0026
3731.00,0.0027
3730.00,0.0027
3729.00,0.0027
3728.00,0.0027
3727.00,0.0027
3726.00,0.0027
3725.00,0.0027
3724.00,0.0027
3723.00,0.0027
3722.00,0.0027
3721.00,0.0026
3720.00,0.0027
3719.00,0.0027
3718.00,0.0027
3717.00,0.0027
3716.00,0.0027
3715.00,0.0027
3714.00,0.0026
3713.00,0.0026
3712.00,0.0026
3711.00,0.0026
3710.00,0.0026
3709.00,0.0026
3708.00,0.0026
3707.00,0.0026
3706.00,0.0026
3705.00,0.0026
3704.00,0.0026
3703.00,0.0026
3702.00,0.0026
3701.00,0.0026
3700.00,0.0026
3699.00,0.0026
3698.00,0.0026
3697.00,0.0026
3696.00,0.0026
3695.00,0.0026
3694.00,0.0026
3693.00,0.0026
3692.00,0.0026
3691.00,0.0026
3690.00,0.0026
3689.00,0.0026
3688.00,0.0026
3687.00,0.0026
3686.00,0.0026
3685.00,0.0026
3684.00,0.0027
3683.00,0.0027
3682.00,0.0028
3681.00,0.0028
3680.00,0.0028
3679.00,0.0027
3678.00,0.0027
3677.00,0.0027
3676.00,0.0026
3675.00,0.0026
3674.00,0.0027
3673.00,0.0027
3672.00,0.0027
3671.00,0.0027
3670.00,0.0028
3669.00,0.0028
3668.00,0.0029
3667.00,0.0029
3666.00,0.0029
3665.00,0.0029
3664.00,0.0030
3663.00,0.0030
3662.00,0.0030
3661.00,0.0031
3660.00,0.0031
3659.00,0.0031
3658.00,0.0030
3657.00,0.0030
3656.00,0.0030
3655.00,0.0031
3654.00,0.0031
3653.00,0.0031
3652.00,0.0030
3651.00,0.0030
3650.00,0.0029
3649.00,0.0029
3648.00,0.0030
3647.00,0.0030
3646.00,0.0030
3645.00,0.0031
3644.00,0.0031
3643.00,0.0031
3642.00,0.0032
3641.00,0.0032
3640.00,0.0033
3639.00,0.0033
3638.00,0.0033
3637.00,0.0033
3636.00,0.0033
3635.00,0.0033
3634.00,0.0034
3633.00,0.0034
3632.00,0.0034
3631.00,0.0034
3630.00,0.0034
3629.00,0.0035
3628.00,0.0035
3627.00,0.0035
3626.00,0.0035
3625.00,0.0035
3624.00,0.0035
3623.00,0.0036
3622.00,0.0036
3621.00,0.0036
3620.00,0.0037
3619.00,0.0037
3618.00,0.0038
3617.00,0.0038
3616.00,0.0038
3615.00,0.0038
3614.00,0.0039
3613.00,0.0039
3612.00,0.0039
3611.00,0.0040
3610.00,0.0040
3609.00,0.0040
3608.00,0.0040
3607.00,0.0041
3606.00,0.0041
3605.00,0.0041
3604.00,0.0042
3603.00,0.0043
3602.00,0.0043
3601.00,0.0043
3600.00,0.0043
3599.00,0.0043
3598.00,0.0043
3597.00,0.0043
3596.00,0.0044
3595.00,0.0044
3594.00,0.0045
3593.00,0.0045
3592.00,0.0046
3591.00,0.0046
3590.00,0.0047
3589.00,0.0047
3588.00,0.0048
3587.00,0.0048
3586.00,0.0049
3585.00,0.0049
3584.00,0.0049
3583.00,0.0050
3582.00,0.0051
3581.00,0.0051
3580.00,0.0052
3579.00,0.0052
3578.00,0.0052
3577.00,0.0053
3576.00,0.0054
3575.00,0.0054
3574.00,0.0055
3573.00,0.0055
3572.00,0.0055
3571.00,0.0055
3570.00,0.0055
3569.00,0.0056
3568.00,0.0057
3567.00,0.0057
3566.00,0.0058
3565.00,0.0058
3564.00,0.0059
3563.00,0.0059
3562.00,0.0060
3561.00,0.0061
3560.00,0.0061
3559.00,0.0062
3558.00,0.0063
3557.00,0.0064
3556.00,0.0065
3555.00,0.0065
3554.00,0.0066
3553.00,0.0067
3552.00,0.0067
3551.00,0.0067
3550.00,0.0068
3549.00,0.0068
3548.00,0.0069
3547.00,0.0070
3546.00,0.0070
3545.00,0.0071
3544.00,0.0072
3543.00,0.0072
3542.00,0.0073
3541.00,0.0073
3540.00,0.0074
3539.00,0.0075
3538.00,0.0076
3537.00,0.0077
3536.00,0.0077
3535.00,0.0078
3534.00,0.0079
3533.00,0.0079
3532.00,0.0080
3531.00,0.0080
3530.00,0.0080
3529.00,0.0081
3528.00,0.0082
3527.00,0.0082
3526.00,0.0083
3525.00,0.0084
3524.00,0.0085
3523.00,0.0085
3522.00,0.0086
3521.00,0.0087
3520.00,0.0088
3519.00,0.0088
3518.00,0.0089
3517.00,0.0090
3516.00,0.0091
3515.00,0.0092
3514.00,0.0092
3513.00,0.0092
3512.00,0.0092
3511.00,0.0093
3510.00,0.0093
3509.00,0.0094
3508.00,0.0094
3507.00,0.0095
3506.00,0.0095
3505.00,0.0096
3504.00,0.0097
3503.00,0.0098
3502.00,0.0099
3501.00,0.0099
3500.00,0.0100
3499.00,0.0101
3498.00,0.0101
3497.00,0.0102
3496.00,0.0102
3495.00,0.0103
3494.00,0.0103
3493.00,0.0104
3492.00,0.0105
3491.00,0.0106
3490.00,0.0107
3489.00,0.0108
3488.00,0.0109
3487.00,0.0110
3486.00,0.0111
3485.00,0.0111
3484.00,0.0112
3483.00,0.0113
3482.00,0.0114
3481.00,0.0115
3480.00,0.0116
3479.00,0.0117
3478.00,0.0118
3477.00,0.0119
3476.00,0.0121
3475.00,0.0122
3474.00,0.0123
3473.00,0.0125
3472.00,0.0126
3471.00,0.0127
3470.00,0.0128
3469.00,0.0129
3468.00,0.0131
3467.00,0.0132
3466.00,0.0133
3465.00,0.0135
3464.00,0.0136
3463.00,0.0137
3462.00,0.0138
3461.00,0.0140
3460.00,0.0141
3459.00,0.0143
3458.00,0.0144
3457.00,0.0146
3456.00,0.0147
3455.00,0.0149
3454.00,0.0150
3453.00,0.0152
3452.00,0.0153
3451.00,0.0154
3450.00,0.0156
3449.00,0.0157
3448.00,0.0159
3447.00,0.0161
3446.00,0.0163
3445.00,0.0164
3444.00,0.0166
3443.00,0.0168
3442.00,0.0169
3441.00,0.0171
3440.00,0.0173
3439.00,0.0175
3438.00,0.0177
3437.00,0.0179
3436.00,0.0182
3435.00,0.0184
3434.00,0.0186
3433.00,0.0188
3432.00,0.0190
3431.00,0.0193
3430.00,0.0195
3429.00,0.0198
3428.00,0.0200
3427.00,0.0202
3426.00,0.0205
3425.00,0.0207
3424.00,0.0209
3423.00,0.0211
3422.00,0.0214
3421.00,0.0217
3420.00,0.0220
3419.00,0.0223
3418.00,0.0226
3417.00,0.0228
3416.00,0.0231
3415.00,0.0233
3414.00,0.0236
3413.00,0.0238
3412.00,0.0240
3411.00,0.0242
3410.00,0.0244
3409.00,0.0246
3408.00,0.0247
3407.00,0.0249
3406.00,0.0250
3405.00,0.0251
3404.00,0.0252
3403.00,0.0253
3402.00,0.0254
3401.00,0.0254
3400.00,0.0254
3399.00,0.0254
3398.00,0.0254
3397.00,0.0254
3396.00,0.0253
3395.00,0.0253
3394.00,0.0252
3393.00,0.0252
3392.00,0.0251
3391.00,0.0250
3390.00,0.0249
3389.00,0.0247
3388.00,0.0245
3387.00,0.0244
3386.00,0.0242
3385.00,0.0241
3384.00,0.0239
3383.00,0.0238
3382.00,0.0236
3381.00,0.0234
3380.00,0.0232
3379.00,0.0230
3378.00,0.0228
3377.00,0.0226
3376.00,0.0225
3375.00,0.0223
3374.00,0.0221
3373.00,0.0220
3372.00,0.0218
3371.00,0.0216
3370.00,0.0214
3369.00,0.0213
3368.00,0.0211
3367.00,0.0210
3366.00,0.0209
3365.00,0.0207
3364.00,0.0206
3363.00,0.0204
3362.00,0.0202
3361.00,0.0201
3360.00,0.0199
3359.00,0.0198
3358.00,0.0197
3357.00,0.0196
3356.00,0.0195
3355.00,0.0194
3354.00,0.0193
3353.00,0.0192
3352.00,0.0191
3351.00,0.0190
3350.00,0.0189
3349.00,0.0189
3348.00,0.0188
3347.00,0.0187
3346.00,0.0186
3345.00,0.0185
3344.00,0.0184
3343.00,0.0184
3342.00,0.0183
3341.00,0.0182
3340.00,0.0182
3339.00,0.0181
3338.00,0.0181
3337.00,0.0181
3336.00,0.0181
3335.00,0.0181
3334.00,0.0180
3333.00,0.0180
3332.00,0.0180
3331.00,0.0180
3330.00,0.0180
3329.00,0.0180
3328.00,0.0180
3327.00,0.0179
3326.00,0.0179
3325.00,0.0180
3324.00,0.0180
3323.00,0.0181
3322.00,0.0181
3321.00,0.0181
3320.00,0.0181
3319.00,0.0182
3318.00,0.0182
3317.00,0.0183
3316.00,0.0183
3315.00,0.0183
3314.00,0.0183
3313.00,0.0183
3312.00,0.0183
3311.00,0.0183
3310.00,0.0183
3309.00,0.0183
3308.00,0.0184
3307.00,0.0184
3306.00,0.0185
3305.00,0.0186
3304.00,0.0187
3303.00,0.0189
3302.00,0.0190
3301.00,0.0191
3300.00,0.0191
3299.00,0.0192
3298.00,0.0192
3297.00,0.0193
3296.00,0.0193
3295.00,0.0194
3294.00,0.0195
3293.00,0.0196
3292.00,0.0197
3291.00,0.0198
3290.00,0.0199
3289.00,0.0200
3288.00,0.0202
3287.00,0.0203
3286.00,0.0204
3285.00,0.0205
3284.00,0.0206
3283.00,0.0207
3282.00,0.0208
3281.00,0.0209
3280.00,0.0210
3279.00,0.0211
3278.00,0.0212
3277.00,0.0212
3276.00,0.0213
3275.00,0.0213
3274.00,0.0214
3273.00,0.0214
3272.00,0.0215
3271.00,0.0216
3270.00,0.0217
3269.00,0.0219
3268.00,0.0220
3267.00,0.0221
3266.00,0.0222
3265.00,0.0223
3264.00,0.0224
3263.00,0.0225
3262.00,0.0226
3261.00,0.0227
3260.00,0.0227
3259.00,0.0228
3258.00,0.0229
3257.00,0.0229
3256.00,0.0230
3255.00,0.0232
3254.00,0.0233
3253.00,0.0234
3252.00,0.0234
3251.00,0.0235
3250.00,0.0235
3249.00,0.0235
3248.00,0.0236
3247.00,0.0236
3246.00,0.0237
3245.00,0.0238
3244.00,0.0239
3243.00,0.0240
3242.00,0.0240
3241.00,0.0241
3240.00,0.0241
3239.00,0.0241
3238.00,0.0241
3237.00,0.0240
3236.00,0.0240
3235.00,0.0239
3234.00,0.0238
3233.00,0.0238
3232.00,0.0239
3231.00,0.0239
3230.00,0.0239
3229.00,0.0239
3228.00,0.0239
3227.00,0.0239
3226.00,0.0239
3225.00,0.0238
3224.00,0.0238
3223.00,0.0237
3222.00,0.0236
3221.00,0.0236
3220.00,0.0235
3219.00,0.0234
3218.00,0.0233
3217.00,0.0232
3216.00,0.0231
3215.00,0.0230
3214.00,0.0229
3213.00,0.0228
3212.00,0.0227
3211.00,0.0226
3210.00,0.0224
3209.00,0.0222
3208.00,0.0221
3207.00,0.0219
3206.00,0.0218
3205.00,0.0216
3204.00,0.0215
3203.00,0.0213
3202.00,0.0212
3201.00,0.0210
3200.00,0.0209
3199.00,0.0207
3198.00,0.0206
3197.00,0.0204
3196.00,0.0202
3195.00,0.0200
3194.00,0.0198
3193.00,0.0196
3192.00,0.0195
3191.00,0.0193
3190.00,0.0192
3189.00,0.0190
3188.00,0.0188
3187.00,0.0187
3186.00,0.0185
3185.00,0.0183
3184.00,0.0181
3183.00,0.0180
3182.00,0.0178
3181.00,0.0176
3180.00,0.0175
3179.00,0.0173
3178.00,0.0172
3177.00,0.0170
3176.00,0.0169
3175.00,0.0167
3174.00,0.0165
3173.00,0.0164
3172.00,0.0162
3171.00,0.0160
3170.00,0.0158
3169.00,0.0157
3168.00,0.0155
3167.00,0.0153
3166.00,0.0151
3165.00,0.0150
3164.00,0.0148
3163.00,0.0146
3162.00,0.0144
3161.00,0.0142
3160.00,0.0141
3159.00,0.0139
3158.00,0.0137
3157.00,0.0135
3156.00,0.0134
3155.00,0.0132
3154.00,0.0130
3153.00,0.0128
3152.00,0.0127
3151.00,0.0126
3150.00,0.0125
3149.00,0.0124
3148.00,0.0123
3147.00,0.0121
3146.00,0.0120
3145.00,0.0118
3144.00,0.0117
3143.00,0.0115
3142.00,0.0114
3141.00,0.0112
3140.00,0.0111
3139.00,0.0110
3138.00,0.0109
3137.00,0.0108
3136.00,0.0107
3135.00,0.0106
3134.00,0.0105
3133.00,0.0104
3132.00,0.0103
3131.00,0.0102
3130.00,0.0101
3129.00,0.0100
3128.00,0.0099
3127.00,0.0099
3126.00,0.0098
3125.00,0.0097
3124.00,0.0096
3123.00,0.0095
3122.00,0.0094
3121.00,0.0094
3120.00,0.0093
3119.00,0.0092
3118.00,0.0091
3117.00,0.0090
3116.00,0.0090
3115.00,0.0088
3114.00,0.0087
3113.00,0.0086
3112.00,0.0085
3111.00,0.0084
3110.00,0.0083
3109.00,0.0083
3108.00,0.0082
3107.00,0.0082
3106.00,0.0081
3105.00,0.0080
3104.00,0.0079
3103.00,0.0078
3102.00,0.0077
3101.00,0.0076
3100.00,0.0076
3099.00,0.0075
3098.00,0.0075
3097.00,0.0075
3096.00,0.0075
3095.00,0.0075
3094.00,0.0076
3093.00,0.0076
3092.00,0.0076
3091.00,0.0076
3090.00,0.0076
3089.00,0.0077
3088.00,0.0077
3087.00,0.0077
3086.00,0.0077
3085.00,0.0077
3084.00,0.0077
3083.00,0.0077
3082.00,0.0077
3081.00,0.0076
3080.00,0.0076
3079.00,0.0076
3078.00,0.0075
3077.00,0.0075
3076.00,0.0074
3075.00,0.0074
3074.00,0.0073
3073.00,0.0073
3072.00,0.0073
3071.00,0.0073
3070.00,0.0073
3069.00,0.0073
3068.00,0.0072
3067.00,0.0072
3066.00,0.0072
3065.00,0.0072
3064.00,0.0072
3063.00,0.0072
3062.00,0.0072
3061.00,0.0073
3060.00,0.0073
3059.00,0.0073
3058.00,0.0074
3057.00,0.0074
3056.00,0.0074
3055.00,0.0074
3054.00,0.0074
3053.00,0.0074
3052.00,0.0074
3051.00,0.0074
3050.00,0.0074
3049.00,0.0073
3048.00,0.0073
3047.00,0.0073
3046.00,0.0073
3045.00,0.0073
3044.00,0.0073
3043.00,0.0073
3042.00,0.0073
3041.00,0.0074
3040.00,0.0075
3039.00,0.0076
3038.00,0.0077
3037.00,0.0078
3036.00,0.0079
3035.00,0.0080
3034.00,0.0081
3033.00,0.0081
3032.00,0.0081
3031.00,0.0081
3030.00,0.0080
3029.00,0.0079
3028.00,0.0078
3027.00,0.0076
3026.00,0.0075
3025.00,0.0074
3024.00,0.0073
3023.00,0.0072
3022.00,0.0072
3021.00,0.0071
3020.00,0.0070
3019.00,0.0070
3018.00,0.0070
3017.00,0.0069
3016.00,0.0069
3015.00,0.0069
3014.00,0.0069
3013.00,0.0070
3012.00,0.0070
3011.00,0.0071
3010.00,0.0072
3009.00,0.0074
3008.00,0.0075
3007.00,0.0077
3006.00,0.0079
3005.00,0.0082
3004.00,0.0084
3003.00,0.0087
3002.00,0.0090
3001.00,0.0093
3000.00,0.0097
2999.00,0.0101
2998.00,0.0106
2997.00,0.0111
2996.00,0.0115
2995.00,0.0120
2994.00,0.0123
2993.00,0.0126
2992.00,0.0129
2991.00,0.0132
2990.00,0.0134
2989.00,0.0137
2988.00,0.0140
2987.00,0.0142
2986.00,0.0146
2985.00,0.0151
2984.00,0.0156
2983.00,0.0163
2982.00,0.0171
2981.00,0.0179
2980.00,0.0186
2979.00,0.0191
2978.00,0.0194
2977.00,0.0195
2976.00,0.0197
2975.00,0.0201
2974.00,0.0208
2973.00,0.0217
2972.00,0.0228
2971.00,0.0238
2970.00,0.0246
2969.00,0.0253
2968.00,0.0258
2967.00,0.0262
2966.00,0.0267
2965.00,0.0274
2964.00,0.0281
2963.00,0.0289
2962.00,0.0295
2961.00,0.0300
2960.00,0.0301
2959.00,0.0300
2958.00,0.0295
2957.00,0.0288
2956.00,0.0280
2955.00,0.0271
2954.00,0.0262
2953.00,0.0254
2952.00,0.0248
2951.00,0.0243
2950.00,0.0239
2949.00,0.0237
2948.00,0.0238
2947.00,0.0240
2946.00,0.0244
2945.00,0.0249
2944.00,0.0256
2943.00,0.0264
2942.00,0.0273
2941.00,0.0283
2940.00,0.0295
2939.00,0.0308
2938.00,0.0324
2937.00,0.0342
2936.00,0.0362
2935.00,0.0384
2934.00,0.0406
2933.00,0.0429
2932.00,0.0452
2931.00,0.0473
2930.00,0.0492
2929.00,0.0506
2928.00,0.0515
2927.00,0.0519
2926.00,0.0516
2925.00,0.0509
2924.00,0.0497
2923.00,0.0483
2922.00,0.0467
2921.00,0.0450
2920.00,0.0432
2919.00,0.0414
2918.00,0.0396
2917.00,0.0379
2916.00,0.0362
2915.00,0.0347
2914.00,0.0333
2913.00,0.0320
2912.00,0.0308
2911.00,0.0298
2910.00,0.0288
2909.00,0.0279
2908.00,0.0270
2907.00,0.0262
2906.00,0.0255
2905.00,0.0247
2904.00,0.0241
2903.00,0.0234
2902.00,0.0228
2901.00,0.0223
2900.00,0.0217
2899.00,0.0212
2898.00,0.0207
2897.00,0.0203
2896.00,0.0198
2895.00,0.0194
2894.00,0.0191
2893.00,0.0187
2892.00,0.0184
2891.00,0.0181
2890.00,0.0178
2889.00,0.0176
2888.00,0.0173
2887.00,0.0171
2886.00,0.0169
2885.00,0.0168
2884.00,0.0167
2883.00,0.0168
2882.00,0.0169
2881.00,0.0171
2880.00,0.0174
2879.00,0.0179
2878.00,0.0186
2877.00,0.0193
2876.00,0.0200
2875.00,0.0207
2874.00,0.0213
2873.00,0.0217
2872.00,0.0219
2871.00,0.0220
2870.00,0.0219
2869.00,0.0218
2868.00,0.0218
2867.00,0.0219
2866.00,0.0222
2865.00,0.0228
2864.00,0.0237
2863.00,0.0249
2862.00,0.0264
2861.00,0.0281
2860.00,0.0299
2859.00,0.0315
2858.00,0.0328
2857.00,0.0336
2856.00,0.0340
2855.00,0.0340
2854.00,0.0337
2853.00,0.0330
2852.00,0.0321
2851.00,0.0307
2850.00,0.0291
2849.00,0.0271
2848.00,0.0251
2847.00,0.0231
2846.00,0.0212
2845.00,0.0195
2844.00,0.0180
2843.00,0.0166
2842.00,0.0154
2841.00,0.0144
2840.00,0.0135
2839.00,0.0127
2838.00,0.0121
2837.00,0.0115
2836.00,0.0111
2835.00,0.0107
2834.00,0.0104
2833.00,0.0100
2832.00,0.0098
2831.00,0.0095
2830.00,0.0092
2829.00,0.0090
2828.00,0.0087
2827.00,0.0085
2826.00,0.0083
2825.00,0.0081
2824.00,0.0079
2823.00,0.0078
2822.00,0.0076
2821.00,0.0075
2820.00,0.0074
2819.00,0.0072
2818.00,0.0071
2817.00,0.0070
2816.00,0.0069
2815.00,0.0068
2814.00,0.0067
2813.00,0.0067
2812.00,0.0066
2811.00,0.0065
2810.00,0.0064
2809.00,0.0064
2808.00,0.0063
2807.00,0.0063
2806.00,0.0062
2805.00,0.0062
2804.00,0.0062
2803.00,0.0061
2802.00,0.0061
2801.00,0.0060
2800.00,0.0060
2799.00,0.0059
2798.00,0.0058
2797.00,0.0058
2796.00,0.0057
2795.00,0.0057
2794.00,0.0056
2793.00,0.0055
2792.00,0.0055
2791.00,0.0054
2790.00,0.0054
2789.00,0.0053
2788.00,0.0053
2787.00,0.0053
2786.00,0.0053
2785.00,0.0052
2784.00,0.0052
2783.00,0.0052
2782.00,0.0051
2781.00,0.0051
2780.00,0.0050
2779.00,0.0050
2778.00,0.0050
2777.00,0.0049
2776.00,0.0049
2775.00,0.0049
2774.00,0.0049
2773.00,0.0049
2772.00,0.0049
2771.00,0.0049
2770.00,0.0049
2769.00,0.0049
2768.00,0.0049
2767.00,0.0049
2766.00,0.0048
2765.00,0.0048
2764.00,0.0048
2763.00,0.0048
2762.00,0.0048
2761.00,0.0048
2760.00,0.0049
2759.00,0.0049
2758.00,0.0049
2757.00,0.0049
