Created as New Dataset,Sample 090 By YargerLab Date Thursday, August 14 2025
cm-1,A
4000.00,0.0087
3999.00,0.0087
3998.00,0.0087
3997.00,0.0087
3996.00,0.0087
3995.00,0.0087
3994.00,0.0087
3993.00,0.0087
3992.00,0.0087
3991.00,0.0087
3990.00,0.0087
3989.00,0.0087
3988.00,0.0087
3987.00,0.0087
3986.00,0.0087
3985.00,0.0087
3984.00,0.0087
3983.00,0.0087
3982.00,0.0087
3981.00,0.0087
3980.00,0.0087
3979.00,0.0087
3978.00,0.0087
3977.00,0.0087
3976.00,0.0087
3975.00,0.0087
3974.00,0.0087
3973.00,0.0088
3972.00,0.0088
3971.00,0.0088
3970.00,0.0088
3969.00,0.0087
3968.00,0.0087
3967.00,0.0088
3966.00,0.0088
3965.00,0.0088
3964.00,0.0088
3963.00,0.0088
3962.00,0.0088
3961.00,0.0088
3960.00,0.0088
3959.00,0.0088
3958.00,0.0088
3957.00,0.0088
3956.00,0.0088
3955.00,0.0088
3954.00,0.0088
3953.00,0.0087
3952.00,0.0087
3951.00,0.0087
3950.00,0.0087
3949.00,0.0087
3948.00,0.0087
3947.00,0.0087
3946.00,0.0087
3945.00,0.0087
3944.00,0.0087
3943.00,0.0087
3942.00,0.0087
3941.00,0.0087
3940.00,0.0087
3939.00,0.0087
3938.00,0.0087
3937.00,0.0087
3936.00,0.0087
3935.00,0.0087
3934.00,0.0087
3933.00,0.0087
3932.00,0.0087
3931.00,0.0087
3930.00,0.0087
3929.00,0.0087
3928.00,0.0087
3927.00,0.0087
3926.00,0.0087
3925.00,0.0087
3924.00,0.0087
3923.00,0.0087
3922.00,0.0087
3921.00,0.0087
3920.00,0.0087
3919.00,0.0087
3918.00,0.0087
3917.00,0.0087
3916.00,0.0087
3915.00,0.0087
3914.00,0.0087
3913.00,0.0087
3912.00,0.0087
3911.00,0.0087
3910.00,0.0087
3909.00,0.0087
3908.00,0.0087
3907.00,0.0087
3906.00,0.0088
3905.00,0.0088
3904.00,0.0088
3903.00,0.0088
3902.00,0.0088
3901.00,0.0087
3900.00,0.0087
3899.00,0.0087
3898.00,0.0087
3897.00,0.0087
3896.00,0.0087
3895.00,0.0087
3894.00,0.0087
3893.00,0.0087
3892.00,0.0087
3891.00,0.0087
3890.00,0.0087
3889.00,0.0087
3888.00,0.0087
3887.00,0.0087
3886.00,0.0087
3885.00,0.0087
3884.00,0.0087
3883.00,0.0087
3882.00,0.0087
3881.00,0.0087
3880.00,0.0087
3879.00,0.0086
3878.00,0.0087
3877.00,0.0087
3876.00,0.0087
3875.00,0.0087
3874.00,0.0087
3873.00,0.0087
3872.00,0.0087
3871.00,0.0087
3870.00,0.0087
3869.00,0.0087
3868.00,0.0087
3867.00,0.0087
3866.00,0.0087
3865.00,0.0087
3864.00,0.0087
3863.00,0.0087
3862.00,0.0087
3861.00,0.0087
3860.00,0.0087
3859.00,0.0087
3858.00,0.0086
3857.00,0.0086
3856.00,0.0087
3855.00,0.0087
3854.00,0.0088
3853.00,0.0088
3852.00,0.0088
3851.00,0.0088
3850.00,0.0088
3849.00,0.0088
3848.00,0.0087
3847.00,0.0087
3846.00,0.0087
3845.00,0.0087
3844.00,0.0087
3843.00,0.0087
3842.00,0.0087
3841.00,0.0087
3840.00,0.0087
3839.00,0.0087
3838.00,0.0087
3837.00,0.0087
3836.00,0.0087
3835.00,0.0088
3834.00,0.0088
3833.00,0.0088
3832.00,0.0088
3831.00,0.0088
3830.00,0.0088
3829.00,0.0088
3828.00,0.0087
3827.00,0.0087
3826.00,0.0087
3825.00,0.0087
3824.00,0.0087
3823.00,0.0088
3822.00,0.0088
3821.00,0.0088
3820.00,0.0087
3819.00,0.0087
3818.00,0.0088
3817.00,0.0088
3816.00,0.0088
3815.00,0.0088
3814.00,0.0088
3813.00,0.0088
3812.00,0.0088
3811.00,0.0087
3810.00,0.0086
3809.00,0.0086
3808.00,0.0086
3807.00,0.0087
3806.00,0.0087
3805.00,0.0087
3804.00,0.0087
3803.00,0.0087
3802.00,0.0087
3801.00,0.0087
3800.00,0.0087
3799.00,0.0087
3798.00,0.0088
3797.00,0.0087
3796.00,0.0087
3795.00,0.0086
3794.00,0.0086
3793.00,0.0086
3792.00,0.0086
3791.00,0.0086
3790.00,0.0086
3789.00,0.0086
3788.00,0.0086
3787.00,0.0086
3786.00,0.0086
3785.00,0.0086
3784.00,0.0086
3783.00,0.0086
3782.00,0.0086
3781.00,0.0086
3780.00,0.0087
3779.00,0.0086
3778.00,0.0086
3777.00,0.0086
3776.00,0.0086
3775.00,0.0086
3774.00,0.0086
3773.00,0.0086
3772.00,0.0086
3771.00,0.0086
3770.00,0.0086
3769.00,0.0086
3768.00,0.0086
3767.00,0.0086
3766.00,0.0086
3765.00,0.0086
3764.00,0.0086
3763.00,0.0086
3762.00,0.0086
3761.00,0.0086
3760.00,0.0086
3759.00,0.0086
3758.00,0.0086
3757.00,0.0086
3756.00,0.0087
3755.00,0.0087
3754.00,0.0087
3753.00,0.0087
3752.00,0.0088
3751.00,0.0088
3750.00,0.0087
3749.00,0.0087
3748.00,0.0087
3747.00,0.0087
3746.00,0.0087
3745.00,0.0087
3744.00,0.0086
3743.00,0.0086
3742.00,0.0086
3741.00,0.0086
3740.00,0.0086
3739.00,0.0085
3738.00,0.0085
3737.00,0.0085
3736.00,0.0085
3735.00,0.0085
3734.00,0.0085
3733.00,0.0085
3732.00,0.0085
3731.00,0.0085
3730.00,0.0084
3729.00,0.0084
3728.00,0.0084
3727.00,0.0084
3726.00,0.0083
3725.00,0.0084
3724.00,0.0084
3723.00,0.0084
3722.00,0.0084
3721.00,0.0084
3720.00,0.0084
3719.00,0.0084
3718.00,0.0084
3717.00,0.0084
3716.00,0.0084
3715.00,0.0084
3714.00,0.0085
3713.00,0.0085
3712.00,0.0085
3711.00,0.0085
3710.00,0.0085
3709.00,0.0085
3708.00,0.0085
3707.00,0.0085
3706.00,0.0085
3705.00,0.0084
3704.00,0.0084
3703.00,0.0084
3702.00,0.0083
3701.00,0.0083
3700.00,0.0083
3699.00,0.0083
3698.00,0.0083
3697.00,0.0083
3696.00,0.0083
3695.00,0.0083
3694.00,0.0083
3693.00,0.0083
3692.00,0.0083
3691.00,0.0084
3690.00,0.0084
3689.00,0.0084
3688.00,0.0084
3687.00,0.0084
3686.00,0.0085
3685.00,0.0085
3684.00,0.0084
3683.00,0.0084
3682.00,0.0084
3681.00,0.0084
3680.00,0.0084
3679.00,0.0084
3678.00,0.0084
3677.00,0.0085
3676.00,0.0085
3675.00,0.0086
3674.00,0.0086
3673.00,0.0086
3672.00,0.0086
3671.00,0.0086
3670.00,0.0086
3669.00,0.0086
3668.00,0.0085
3667.00,0.0086
3666.00,0.0086
3665.00,0.0085
3664.00,0.0086
3663.00,0.0086
3662.00,0.0086
3661.00,0.0086
3660.00,0.0087
3659.00,0.0087
3658.00,0.0087
3657.00,0.0086
3656.00,0.0086
3655.00,0.0086
3654.00,0.0087
3653.00,0.0087
3652.00,0.0087
3651.00,0.0088
3650.00,0.0088
3649.00,0.0088
3648.00,0.0089
3647.00,0.0090
3646.00,0.0090
3645.00,0.0091
3644.00,0.0091
3643.00,0.0090
3642.00,0.0090
3641.00,0.0090
3640.00,0.0090
3639.00,0.0090
3638.00,0.0090
3637.00,0.0090
3636.00,0.0090
3635.00,0.0090
3634.00,0.0091
3633.00,0.0091
3632.00,0.0092
3631.00,0.0092
3630.00,0.0092
3629.00,0.0092
3628.00,0.0092
3627.00,0.0093
3626.00,0.0093
3625.00,0.0094
3624.00,0.0094
3623.00,0.0095
3622.00,0.0095
3621.00,0.0096
3620.00,0.0096
3619.00,0.0097
3618.00,0.0097
3617.00,0.0098
3616.00,0.0098
3615.00,0.0099
3614.00,0.0099
3613.00,0.0099
3612.00,0.0099
3611.00,0.0100
3610.00,0.0100
3609.00,0.0100
3608.00,0.0101
3607.00,0.0101
3606.00,0.0101
3605.00,0.0102
3604.00,0.0102
3603.00,0.0103
3602.00,0.0103
3601.00,0.0104
3600.00,0.0104
3599.00,0.0104
3598.00,0.0105
3597.00,0.0106
3596.00,0.0106
3595.00,0.0107
3594.00,0.0107
3593.00,0.0108
3592.00,0.0108
3591.00,0.0109
3590.00,0.0110
3589.00,0.0111
3588.00,0.0111
3587.00,0.0111
3586.00,0.0112
3585.00,0.0112
3584.00,0.0113
3583.00,0.0114
3582.00,0.0115
3581.00,0.0116
3580.00,0.0117
3579.00,0.0117
3578.00,0.0118
3577.00,0.0119
3576.00,0.0120
3575.00,0.0121
3574.00,0.0122
3573.00,0.0123
3572.00,0.0124
3571.00,0.0125
3570.00,0.0126
3569.00,0.0127
3568.00,0.0128
3567.00,0.0128
3566.00,0.0129
3565.00,0.0130
3564.00,0.0131
3563.00,0.0132
3562.00,0.0133
3561.00,0.0134
3560.00,0.0135
3559.00,0.0136
3558.00,0.0137
3557.00,0.0138
3556.00,0.0139
3555.00,0.0140
3554.00,0.0141
3553.00,0.0142
3552.00,0.0142
3551.00,0.0143
3550.00,0.0144
3549.00,0.0146
3548.00,0.0147
3547.00,0.0148
3546.00,0.0150
3545.00,0.0151
3544.00,0.0152
3543.00,0.0152
3542.00,0.0153
3541.00,0.0155
3540.00,0.0156
3539.00,0.0157
3538.00,0.0158
3537.00,0.0159
3536.00,0.0160
3535.00,0.0161
3534.00,0.0162
3533.00,0.0163
3532.00,0.0164
3531.00,0.0166
3530.00,0.0167
3529.00,0.0168
3528.00,0.0169
3527.00,0.0171
3526.00,0.0172
3525.00,0.0173
3524.00,0.0175
3523.00,0.0176
3522.00,0.0177
3521.00,0.0179
3520.00,0.0180
3519.00,0.0182
3518.00,0.0183
3517.00,0.0185
3516.00,0.0186
3515.00,0.0187
3514.00,0.0188
3513.00,0.0190
3512.00,0.0191
3511.00,0.0193
3510.00,0.0194
3509.00,0.0196
3508.00,0.0197
3507.00,0.0199
3506.00,0.0200
3505.00,0.0202
3504.00,0.0204
3503.00,0.0205
3502.00,0.0207
3501.00,0.0208
3500.00,0.0210
3499.00,0.0212
3498.00,0.0214
3497.00,0.0216
3496.00,0.0218
3495.00,0.0221
3494.00,0.0223
3493.00,0.0225
3492.00,0.0227
3491.00,0.0229
3490.00,0.0232
3489.00,0.0235
3488.00,0.0237
3487.00,0.0240
3486.00,0.0244
3485.00,0.0247
3484.00,0.0251
3483.00,0.0255
3482.00,0.0259
3481.00,0.0263
3480.00,0.0268
3479.00,0.0273
3478.00,0.0278
3477.00,0.0284
3476.00,0.0290
3475.00,0.0296
3474.00,0.0303
3473.00,0.0310
3472.00,0.0318
3471.00,0.0325
3470.00,0.0334
3469.00,0.0342
3468.00,0.0350
3467.00,0.0359
3466.00,0.0367
3465.00,0.0374
3464.00,0.0382
3463.00,0.0388
3462.00,0.0395
3461.00,0.0400
3460.00,0.0404
3459.00,0.0407
3458.00,0.0408
3457.00,0.0408
3456.00,0.0407
3455.00,0.0405
3454.00,0.0401
3453.00,0.0397
3452.00,0.0393
3451.00,0.0388
3450.00,0.0383
3449.00,0.0378
3448.00,0.0373
3447.00,0.0368
3446.00,0.0364
3445.00,0.0361
3444.00,0.0357
3443.00,0.0354
3442.00,0.0352
3441.00,0.0350
3440.00,0.0349
3439.00,0.0348
3438.00,0.0348
3437.00,0.0348
3436.00,0.0349
3435.00,0.0349
3434.00,0.0350
3433.00,0.0351
3432.00,0.0352
3431.00,0.0353
3430.00,0.0354
3429.00,0.0355
3428.00,0.0355
3427.00,0.0356
3426.00,0.0356
3425.00,0.0356
3424.00,0.0356
3423.00,0.0355
3422.00,0.0354
3421.00,0.0353
3420.00,0.0351
3419.00,0.0349
3418.00,0.0346
3417.00,0.0344
3416.00,0.0341
3415.00,0.0338
3414.00,0.0336
3413.00,0.0333
3412.00,0.0330
3411.00,0.0327
3410.00,0.0324
3409.00,0.0321
3408.00,0.0318
3407.00,0.0316
3406.00,0.0314
3405.00,0.0312
3404.00,0.0310
3403.00,0.0308
3402.00,0.0307
3401.00,0.0305
3400.00,0.0303
3399.00,0.0302
3398.00,0.0301
3397.00,0.0299
3396.00,0.0298
3395.00,0.0297
3394.00,0.0296
3393.00,0.0295
3392.00,0.0295
3391.00,0.0294
3390.00,0.0293
3389.00,0.0292
3388.00,0.0292
3387.00,0.0291
3386.00,0.0291
3385.00,0.0290
3384.00,0.0290
3383.00,0.0289
3382.00,0.0289
3381.00,0.0289
3380.00,0.0289
3379.00,0.0289
3378.00,0.0289
3377.00,0.0289
3376.00,0.0289
3375.00,0.0289
3374.00,0.0289
3373.00,0.0289
3372.00,0.0289
3371.00,0.0289
3370.00,0.0289
3369.00,0.0289
3368.00,0.0289
3367.00,0.0289
3366.00,0.0289
3365.00,0.0289
3364.00,0.0289
3363.00,0.0289
3362.00,0.0289
3361.00,0.0289
3360.00,0.0289
3359.00,0.0289
3358.00,0.0289
3357.00,0.0289
3356.00,0.0289
3355.00,0.0289
3354.00,0.0290
3353.00,0.0290
3352.00,0.0290
3351.00,0.0290
3350.00,0.0290
3349.00,0.0291
3348.00,0.0291
3347.00,0.0291
3346.00,0.0291
3345.00,0.0291
3344.00,0.0292
3343.00,0.0293
3342.00,0.0293
3341.00,0.0294
3340.00,0.0294
3339.00,0.0295
3338.00,0.0295
3337.00,0.0295
3336.00,0.0296
3335.00,0.0297
3334.00,0.0298
3333.00,0.0299
3332.00,0.0300
3331.00,0.0301
3330.00,0.0302
3329.00,0.0303
3328.00,0.0305
3327.00,0.0306
3326.00,0.0307
3325.00,0.0308
3324.00,0.0309
3323.00,0.0310
3322.00,0.0312
3321.00,0.0313
3320.00,0.0315
3319.00,0.0316
3318.00,0.0318
3317.00,0.0320
3316.00,0.0322
3315.00,0.0324
3314.00,0.0326
3313.00,0.0328
3312.00,0.0329
3311.00,0.0331
3310.00,0.0333
3309.00,0.0336
3308.00,0.0338
3307.00,0.0340
3306.00,0.0343
3305.00,0.0345
3304.00,0.0348
3303.00,0.0351
3302.00,0.0354
3301.00,0.0356
3300.00,0.0359
3299.00,0.0362
3298.00,0.0365
3297.00,0.0368
3296.00,0.0371
3295.00,0.0374
3294.00,0.0378
3293.00,0.0381
3292.00,0.0384
3291.00,0.0388
3290.00,0.0391
3289.00,0.0395
3288.00,0.0398
3287.00,0.0402
3286.00,0.0405
3285.00,0.0409
3284.00,0.0412
3283.00,0.0416
3282.00,0.0419
3281.00,0.0422
3280.00,0.0425
3279.00,0.0428
3278.00,0.0431
3277.00,0.0434
3276.00,0.0437
3275.00,0.0440
3274.00,0.0442
3273.00,0.0444
3272.00,0.0447
3271.00,0.0448
3270.00,0.0450
3269.00,0.0452
3268.00,0.0453
3267.00,0.0454
3266.00,0.0454
3265.00,0.0455
3264.00,0.0455
3263.00,0.0455
3262.00,0.0454
3261.00,0.0453
3260.00,0.0453
3259.00,0.0452
3258.00,0.0450
3257.00,0.0449
3256.00,0.0447
3255.00,0.0445
3254.00,0.0443
3253.00,0.0441
3252.00,0.0438
3251.00,0.0436
3250.00,0.0433
3249.00,0.0430
3248.00,0.0427
3247.00,0.0423
3246.00,0.0420
3245.00,0.0416
3244.00,0.0413
3243.00,0.0409
3242.00,0.0405
3241.00,0.0401
3240.00,0.0398
3239.00,0.0394
3238.00,0.0391
3237.00,0.0387
3236.00,0.0384
3235.00,0.0380
3234.00,0.0377
3233.00,0.0373
3232.00,0.0370
3231.00,0.0367
3230.00,0.0364
3229.00,0.0361
3228.00,0.0358
3227.00,0.0355
3226.00,0.0353
3225.00,0.0350
3224.00,0.0348
3223.00,0.0346
3222.00,0.0344
3221.00,0.0342
3220.00,0.0341
3219.00,0.0339
3218.00,0.0337
3217.00,0.0336
3216.00,0.0335
3215.00,0.0333
3214.00,0.0332
3213.00,0.0330
3212.00,0.0329
3211.00,0.0327
3210.00,0.0326
3209.00,0.0325
3208.00,0.0324
3207.00,0.0323
3206.00,0.0322
3205.00,0.0320
3204.00,0.0319
3203.00,0.0318
3202.00,0.0316
3201.00,0.0315
3200.00,0.0315
3199.00,0.0314
3198.00,0.0313
3197.00,0.0312
3196.00,0.0311
3195.00,0.0310
3194.00,0.0309
3193.00,0.0309
3192.00,0.0308
3191.00,0.0307
3190.00,0.0307
3189.00,0.0306
3188.00,0.0305
3187.00,0.0304
3186.00,0.0303
3185.00,0.0302
3184.00,0.0301
3183.00,0.0300
3182.00,0.0299
3181.00,0.0299
3180.00,0.0298
3179.00,0.0297
3178.00,0.0296
3177.00,0.0296
3176.00,0.0295
3175.00,0.0294
3174.00,0.0293
3173.00,0.0292
3172.00,0.0291
3171.00,0.0289
3170.00,0.0288
3169.00,0.0287
3168.00,0.0285
3167.00,0.0284
3166.00,0.0282
3165.00,0.0280
3164.00,0.0278
3163.00,0.0277
3162.00,0.0275
3161.00,0.0273
3160.00,0.0271
3159.00,0.0270
3158.00,0.0268
3157.00,0.0266
3156.00,0.0264
3155.00,0.0262
3154.00,0.0261
3153.00,0.0259
3152.00,0.0258
3151.00,0.0257
3150.00,0.0256
3149.00,0.0255
3148.00,0.0254
3147.00,0.0253
3146.00,0.0252
3145.00,0.0251
3144.00,0.0250
3143.00,0.0249
3142.00,0.0247
3141.00,0.0246
3140.00,0.0245
3139.00,0.0244
3138.00,0.0242
3137.00,0.0241
3136.00,0.0240
3135.00,0.0239
3134.00,0.0237
3133.00,0.0236
3132.00,0.0235
3131.00,0.0233
3130.00,0.0232
3129.00,0.0230
3128.00,0.0229
3127.00,0.0227
3126.00,0.0225
3125.00,0.0224
3124.00,0.0222
3123.00,0.0221
3122.00,0.0220
3121.00,0.0219
3120.00,0.0217
3119.00,0.0216
3118.00,0.0215
3117.00,0.0214
3116.00,0.0212
3115.00,0.0211
3114.00,0.0210
3113.00,0.0209
3112.00,0.0208
3111.00,0.0207
3110.00,0.0207
3109.00,0.0206
3108.00,0.0205
3107.00,0.0204
3106.00,0.0204
3105.00,0.0203
3104.00,0.0202
3103.00,0.0201
3102.00,0.0200
3101.00,0.0200
3100.00,0.0199
3099.00,0.0198
3098.00,0.0198
3097.00,0.0197
3096.00,0.0195
3095.00,0.0194
3094.00,0.0193
3093.00,0.0192
3092.00,0.0190
3091.00,0.0189
3090.00,0.0188
3089.00,0.0188
3088.00,0.0187
3087.00,0.0186
3086.00,0.0185
3085.00,0.0184
3084.00,0.0183
3083.00,0.0182
3082.00,0.0182
3081.00,0.0181
3080.00,0.0181
3079.00,0.0181
3078.00,0.0181
3077.00,0.0181
3076.00,0.0180
3075.00,0.0180
3074.00,0.0180
3073.00,0.0179
3072.00,0.0179
3071.00,0.0178
3070.00,0.0177
3069.00,0.0176
3068.00,0.0175
3067.00,0.0174
3066.00,0.0173
3065.00,0.0173
3064.00,0.0172
3063.00,0.0172
3062.00,0.0172
3061.00,0.0172
3060.00,0.0172
3059.00,0.0172
3058.00,0.0172
3057.00,0.0172
3056.00,0.0172
3055.00,0.0173
3054.00,0.0173
3053.00,0.0173
3052.00,0.0174
3051.00,0.0174
3050.00,0.0174
3049.00,0.0174
3048.00,0.0173
3047.00,0.0173
3046.00,0.0172
3045.00,0.0172
3044.00,0.0172
3043.00,0.0172
3042.00,0.0173
3041.00,0.0173
3040.00,0.0175
3039.00,0.0176
3038.00,0.0177
3037.00,0.0178
3036.00,0.0179
3035.00,0.0179
3034.00,0.0180
3033.00,0.0180
3032.00,0.0181
3031.00,0.0181
3030.00,0.0181
3029.00,0.0180
3028.00,0.0180
3027.00,0.0179
3026.00,0.0179
3025.00,0.0179
3024.00,0.0179
3023.00,0.0179
3022.00,0.0179
3021.00,0.0178
3020.00,0.0178
3019.00,0.0178
3018.00,0.0178
3017.00,0.0178
3016.00,0.0179
3015.00,0.0179
3014.00,0.0181
3013.00,0.0182
3012.00,0.0184
3011.00,0.0186
3010.00,0.0188
3009.00,0.0190
3008.00,0.0192
3007.00,0.0194
3006.00,0.0197
3005.00,0.0200
3004.00,0.0202
3003.00,0.0205
3002.00,0.0208
3001.00,0.0210
3000.00,0.0212
2999.00,0.0214
2998.00,0.0215
2997.00,0.0217
2996.00,0.0219
2995.00,0.0221
2994.00,0.0223
2993.00,0.0225
2992.00,0.0229
2991.00,0.0233
2990.00,0.0238
2989.00,0.0244
2988.00,0.0250
2987.00,0.0257
2986.00,0.0264
2985.00,0.0271
2984.00,0.0277
2983.00,0.0282
2982.00,0.0286
2981.00,0.0288
2980.00,0.0291
2979.00,0.0293
2978.00,0.0294
2977.00,0.0297
2976.00,0.0299
2975.00,0.0303
2974.00,0.0310
2973.00,0.0321
2972.00,0.0338
2971.00,0.0364
2970.00,0.0398
2969.00,0.0441
2968.00,0.0491
2967.00,0.0542
2966.00,0.0589
2965.00,0.0625
2964.00,0.0642
2963.00,0.0639
2962.00,0.0619
2961.00,0.0588
2960.00,0.0554
2959.00,0.0525
2958.00,0.0503
2957.00,0.0491
2956.00,0.0490
2955.00,0.0498
2954.00,0.0512
2953.00,0.0526
2952.00,0.0535
2951.00,0.0533
2950.00,0.0519
2949.00,0.0497
2948.00,0.0472
2947.00,0.0450
2946.00,0.0436
2945.00,0.0430
2944.00,0.0432
2943.00,0.0443
2942.00,0.0461
2941.00,0.0487
2940.00,0.0517
2939.00,0.0551
2938.00,0.0585
2937.00,0.0616
2936.00,0.0640
2935.00,0.0655
2934.00,0.0664
2933.00,0.0670
2932.00,0.0677
2931.00,0.0688
2930.00,0.0708
2929.00,0.0737
2928.00,0.0777
2927.00,0.0826
2926.00,0.0878
2925.00,0.0923
2924.00,0.0953
2923.00,0.0962
2922.00,0.0953
2921.00,0.0932
2920.00,0.0905
2919.00,0.0879
2918.00,0.0854
2917.00,0.0832
2916.00,0.0815
2915.00,0.0802
2914.00,0.0793
2913.00,0.0785
2912.00,0.0777
2911.00,0.0767
2910.00,0.0754
2909.00,0.0737
2908.00,0.0719
2907.00,0.0698
2906.00,0.0676
2905.00,0.0653
2904.00,0.0631
2903.00,0.0609
2902.00,0.0589
2901.00,0.0570
2900.00,0.0553
2899.00,0.0538
2898.00,0.0525
2897.00,0.0515
2896.00,0.0507
2895.00,0.0501
2894.00,0.0495
2893.00,0.0489
2892.00,0.0482
2891.00,0.0474
2890.00,0.0465
2889.00,0.0457
2888.00,0.0449
2887.00,0.0442
2886.00,0.0436
2885.00,0.0431
2884.00,0.0427
2883.00,0.0423
2882.00,0.0421
2881.00,0.0419
2880.00,0.0418
2879.00,0.0418
2878.00,0.0419
2877.00,0.0421
2876.00,0.0426
2875.00,0.0434
2874.00,0.0443
2873.00,0.0454
2872.00,0.0464
2871.00,0.0470
2870.00,0.0471
2869.00,0.0467
2868.00,0.0462
2867.00,0.0457
2866.00,0.0456
2865.00,0.0462
2864.00,0.0474
2863.00,0.0495
2862.00,0.0523
2861.00,0.0558
2860.00,0.0596
2859.00,0.0631
2858.00,0.0659
2857.00,0.0676
2856.00,0.0681
2855.00,0.0676
2854.00,0.0663
2853.00,0.0648
2852.00,0.0631
2851.00,0.0614
2850.00,0.0598
2849.00,0.0583
2848.00,0.0566
2847.00,0.0547
2846.00,0.0524
2845.00,0.0497
2844.00,0.0469
2843.00,0.0440
2842.00,0.0413
2841.00,0.0388
2840.00,0.0367
2839.00,0.0349
2838.00,0.0333
2837.00,0.0319
2836.00,0.0308
2835.00,0.0297
2834.00,0.0288
2833.00,0.0281
2832.00,0.0274
2831.00,0.0268
2830.00,0.0262
2829.00,0.0257
2828.00,0.0253
2827.00,0.0248
2826.00,0.0244
2825.00,0.0239
2824.00,0.0235
2823.00,0.0231
2822.00,0.0227
2821.00,0.0224
2820.00,0.0220
2819.00,0.0217
2818.00,0.0214
2817.00,0.0211
2816.00,0.0209
2815.00,0.0206
2814.00,0.0204
2813.00,0.0202
2812.00,0.0200
2811.00,0.0198
2810.00,0.0197
2809.00,0.0196
2808.00,0.0194
2807.00,0.0193
2806.00,0.0192
2805.00,0.0190
2804.00,0.0189
2803.00,0.0188
2802.00,0.0187
2801.00,0.0186
2800.00,0.0185
2799.00,0.0184
2798.00,0.0183
2797.00,0.0181
2796.00,0.0180
2795.00,0.0179
2794.00,0.0178
2793.00,0.0177
2792.00,0.0176
2791.00,0.0175
2790.00,0.0174
2789.00,0.0173
2788.00,0.0172
2787.00,0.0172
2786.00,0.0171
2785.00,0.0170
2784.00,0.0170
2783.00,0.0169
2782.00,0.0169
2781.00,0.0168
2780.00,0.0168
2779.00,0.0167
2778.00,0.0167
2777.00,0.0166
2776.00,0.0166
2775.00,0.0165
2774.00,0.0165
2773.00,0.0165
2772.00,0.0164
2771.00,0.0164
2770.00,0.0163
2769.00,0.0163
2768.00,0.0163
2767.00,0.0162
2766.00,0.0162
2765.00,0.0162
2764.00,0.0162
2763.00,0.0161
2762.00,0.0161
2761.00,0.0161
2760.00,0.0161
2759.00,0.0162
2758.00,0.0162
2757.00,0.0162
