Created as New Dataset,Sample 972 By YargerLab Date Wednesday, July 30 2025
cm-1,A
4000.00,0.0009
3999.00,0.0009
3998.00,0.0009
3997.00,0.0009
3996.00,0.0009
3995.00,0.0009
3994.00,0.0009
3993.00,0.0009
3992.00,0.0009
3991.00,0.0010
3990.00,0.0010
3989.00,0.0010
3988.00,0.0010
3987.00,0.0010
3986.00,0.0010
3985.00,0.0010
3984.00,0.0010
3983.00,0.0009
3982.00,0.0009
3981.00,0.0009
3980.00,0.0009
3979.00,0.0009
3978.00,0.0009
3977.00,0.0009
3976.00,0.0009
3975.00,0.0009
3974.00,0.0009
3973.00,0.0009
3972.00,0.0009
3971.00,0.0009
3970.00,0.0009
3969.00,0.0009
3968.00,0.0009
3967.00,0.0009
3966.00,0.0009
3965.00,0.0009
3964.00,0.0009
3963.00,0.0009
3962.00,0.0009
3961.00,0.0009
3960.00,0.0009
3959.00,0.0009
3958.00,0.0009
3957.00,0.0009
3956.00,0.0009
3955.00,0.0009
3954.00,0.0009
3953.00,0.0009
3952.00,0.0009
3951.00,0.0009
3950.00,0.0009
3949.00,0.0009
3948.00,0.0009
3947.00,0.0009
3946.00,0.0009
3945.00,0.0009
3944.00,0.0009
3943.00,0.0009
3942.00,0.0009
3941.00,0.0009
3940.00,0.0009
3939.00,0.0009
3938.00,0.0009
3937.00,0.0009
3936.00,0.0009
3935.00,0.0009
3934.00,0.0009
3933.00,0.0009
3932.00,0.0009
3931.00,0.0009
3930.00,0.0009
3929.00,0.0009
3928.00,0.0009
3927.00,0.0009
3926.00,0.0009
3925.00,0.0009
3924.00,0.0009
3923.00,0.0009
3922.00,0.0009
3921.00,0.0009
3920.00,0.0009
3919.00,0.0009
3918.00,0.0008
3917.00,0.0008
3916.00,0.0008
3915.00,0.0009
3914.00,0.0009
3913.00,0.0009
3912.00,0.0009
3911.00,0.0009
3910.00,0.0009
3909.00,0.0009
3908.00,0.0009
3907.00,0.0009
3906.00,0.0009
3905.00,0.0009
3904.00,0.0009
3903.00,0.0008
3902.00,0.0008
3901.00,0.0008
3900.00,0.0007
3899.00,0.0008
3898.00,0.0008
3897.00,0.0008
3896.00,0.0008
3895.00,0.0008
3894.00,0.0009
3893.00,0.0009
3892.00,0.0009
3891.00,0.0009
3890.00,0.0009
3889.00,0.0009
3888.00,0.0009
3887.00,0.0009
3886.00,0.0009
3885.00,0.0009
3884.00,0.0009
3883.00,0.0008
3882.00,0.0008
3881.00,0.0008
3880.00,0.0008
3879.00,0.0008
3878.00,0.0008
3877.00,0.0009
3876.00,0.0008
3875.00,0.0009
3874.00,0.0009
3873.00,0.0009
3872.00,0.0009
3871.00,0.0009
3870.00,0.0008
3869.00,0.0008
3868.00,0.0008
3867.00,0.0008
3866.00,0.0007
3865.00,0.0007
3864.00,0.0008
3863.00,0.0008
3862.00,0.0008
3861.00,0.0008
3860.00,0.0008
3859.00,0.0008
3858.00,0.0009
3857.00,0.0009
3856.00,0.0009
3855.00,0.0008
3854.00,0.0008
3853.00,0.0008
3852.00,0.0008
3851.00,0.0008
3850.00,0.0008
3849.00,0.0008
3848.00,0.0008
3847.00,0.0008
3846.00,0.0009
3845.00,0.0009
3844.00,0.0009
3843.00,0.0009
3842.00,0.0009
3841.00,0.0008
3840.00,0.0008
3839.00,0.0008
3838.00,0.0008
3837.00,0.0008
3836.00,0.0008
3835.00,0.0008
3834.00,0.0008
3833.00,0.0008
3832.00,0.0008
3831.00,0.0008
3830.00,0.0008
3829.00,0.0008
3828.00,0.0008
3827.00,0.0009
3826.00,0.0009
3825.00,0.0009
3824.00,0.0009
3823.00,0.0008
3822.00,0.0008
3821.00,0.0008
3820.00,0.0008
3819.00,0.0008
3818.00,0.0007
3817.00,0.0007
3816.00,0.0007
3815.00,0.0007
3814.00,0.0008
3813.00,0.0008
3812.00,0.0008
3811.00,0.0008
3810.00,0.0008
3809.00,0.0008
3808.00,0.0008
3807.00,0.0009
3806.00,0.0009
3805.00,0.0009
3804.00,0.0008
3803.00,0.0007
3802.00,0.0007
3801.00,0.0007
3800.00,0.0008
3799.00,0.0008
3798.00,0.0008
3797.00,0.0008
3796.00,0.0008
3795.00,0.0008
3794.00,0.0009
3793.00,0.0009
3792.00,0.0009
3791.00,0.0009
3790.00,0.0009
3789.00,0.0009
3788.00,0.0009
3787.00,0.0009
3786.00,0.0008
3785.00,0.0008
3784.00,0.0008
3783.00,0.0008
3782.00,0.0008
3781.00,0.0009
3780.00,0.0009
3779.00,0.0009
3778.00,0.0009
3777.00,0.0008
3776.00,0.0008
3775.00,0.0008
3774.00,0.0009
3773.00,0.0009
3772.00,0.0009
3771.00,0.0009
3770.00,0.0009
3769.00,0.0009
3768.00,0.0009
3767.00,0.0009
3766.00,0.0009
3765.00,0.0008
3764.00,0.0008
3763.00,0.0008
3762.00,0.0008
3761.00,0.0008
3760.00,0.0008
3759.00,0.0008
3758.00,0.0008
3757.00,0.0008
3756.00,0.0008
3755.00,0.0008
3754.00,0.0008
3753.00,0.0008
3752.00,0.0008
3751.00,0.0008
3750.00,0.0008
3749.00,0.0008
3748.00,0.0008
3747.00,0.0008
3746.00,0.0008
3745.00,0.0008
3744.00,0.0008
3743.00,0.0008
3742.00,0.0008
3741.00,0.0008
3740.00,0.0007
3739.00,0.0007
3738.00,0.0007
3737.00,0.0007
3736.00,0.0007
3735.00,0.0006
3734.00,0.0005
3733.00,0.0005
3732.00,0.0005
3731.00,0.0006
3730.00,0.0006
3729.00,0.0007
3728.00,0.0007
3727.00,0.0007
3726.00,0.0007
3725.00,0.0008
3724.00,0.0008
3723.00,0.0008
3722.00,0.0008
3721.00,0.0007
3720.00,0.0007
3719.00,0.0007
3718.00,0.0007
3717.00,0.0007
3716.00,0.0007
3715.00,0.0007
3714.00,0.0007
3713.00,0.0007
3712.00,0.0007
3711.00,0.0007
3710.00,0.0007
3709.00,0.0007
3708.00,0.0007
3707.00,0.0007
3706.00,0.0007
3705.00,0.0007
3704.00,0.0007
3703.00,0.0007
3702.00,0.0007
3701.00,0.0007
3700.00,0.0007
3699.00,0.0007
3698.00,0.0007
3697.00,0.0007
3696.00,0.0007
3695.00,0.0008
3694.00,0.0008
3693.00,0.0008
3692.00,0.0008
3691.00,0.0008
3690.00,0.0008
3689.00,0.0008
3688.00,0.0008
3687.00,0.0008
3686.00,0.0008
3685.00,0.0008
3684.00,0.0008
3683.00,0.0008
3682.00,0.0009
3681.00,0.0009
3680.00,0.0009
3679.00,0.0010
3678.00,0.0010
3677.00,0.0010
3676.00,0.0009
3675.00,0.0010
3674.00,0.0010
3673.00,0.0010
3672.00,0.0009
3671.00,0.0009
3670.00,0.0009
3669.00,0.0009
3668.00,0.0009
3667.00,0.0009
3666.00,0.0009
3665.00,0.0010
3664.00,0.0010
3663.00,0.0010
3662.00,0.0011
3661.00,0.0011
3660.00,0.0011
3659.00,0.0011
3658.00,0.0011
3657.00,0.0011
3656.00,0.0012
3655.00,0.0012
3654.00,0.0013
3653.00,0.0013
3652.00,0.0013
3651.00,0.0013
3650.00,0.0013
3649.00,0.0012
3648.00,0.0012
3647.00,0.0012
3646.00,0.0012
3645.00,0.0013
3644.00,0.0013
3643.00,0.0013
3642.00,0.0014
3641.00,0.0014
3640.00,0.0014
3639.00,0.0014
3638.00,0.0014
3637.00,0.0015
3636.00,0.0015
3635.00,0.0015
3634.00,0.0015
3633.00,0.0016
3632.00,0.0016
3631.00,0.0016
3630.00,0.0015
3629.00,0.0015
3628.00,0.0015
3627.00,0.0016
3626.00,0.0016
3625.00,0.0016
3624.00,0.0016
3623.00,0.0017
3622.00,0.0017
3621.00,0.0017
3620.00,0.0017
3619.00,0.0017
3618.00,0.0017
3617.00,0.0018
3616.00,0.0018
3615.00,0.0019
3614.00,0.0019
3613.00,0.0020
3612.00,0.0020
3611.00,0.0021
3610.00,0.0021
3609.00,0.0021
3608.00,0.0021
3607.00,0.0022
3606.00,0.0022
3605.00,0.0022
3604.00,0.0022
3603.00,0.0022
3602.00,0.0023
3601.00,0.0023
3600.00,0.0023
3599.00,0.0024
3598.00,0.0024
3597.00,0.0024
3596.00,0.0025
3595.00,0.0025
3594.00,0.0026
3593.00,0.0026
3592.00,0.0027
3591.00,0.0027
3590.00,0.0027
3589.00,0.0027
3588.00,0.0028
3587.00,0.0028
3586.00,0.0029
3585.00,0.0030
3584.00,0.0030
3583.00,0.0031
3582.00,0.0031
3581.00,0.0032
3580.00,0.0032
3579.00,0.0033
3578.00,0.0033
3577.00,0.0033
3576.00,0.0033
3575.00,0.0034
3574.00,0.0034
3573.00,0.0035
3572.00,0.0035
3571.00,0.0036
3570.00,0.0036
3569.00,0.0037
3568.00,0.0037
3567.00,0.0037
3566.00,0.0038
3565.00,0.0038
3564.00,0.0038
3563.00,0.0039
3562.00,0.0039
3561.00,0.0039
3560.00,0.0040
3559.00,0.0040
3558.00,0.0040
3557.00,0.0041
3556.00,0.0042
3555.00,0.0042
3554.00,0.0043
3553.00,0.0043
3552.00,0.0044
3551.00,0.0044
3550.00,0.0044
3549.00,0.0045
3548.00,0.0045
3547.00,0.0046
3546.00,0.0046
3545.00,0.0046
3544.00,0.0046
3543.00,0.0046
3542.00,0.0046
3541.00,0.0046
3540.00,0.0046
3539.00,0.0047
3538.00,0.0047
3537.00,0.0048
3536.00,0.0048
3535.00,0.0049
3534.00,0.0049
3533.00,0.0050
3532.00,0.0050
3531.00,0.0050
3530.00,0.0050
3529.00,0.0050
3528.00,0.0051
3527.00,0.0051
3526.00,0.0051
3525.00,0.0051
3524.00,0.0052
3523.00,0.0052
3522.00,0.0052
3521.00,0.0053
3520.00,0.0053
3519.00,0.0053
3518.00,0.0053
3517.00,0.0054
3516.00,0.0054
3515.00,0.0055
3514.00,0.0055
3513.00,0.0055
3512.00,0.0055
3511.00,0.0055
3510.00,0.0055
3509.00,0.0055
3508.00,0.0055
3507.00,0.0056
3506.00,0.0056
3505.00,0.0056
3504.00,0.0057
3503.00,0.0057
3502.00,0.0057
3501.00,0.0057
3500.00,0.0058
3499.00,0.0058
3498.00,0.0058
3497.00,0.0058
3496.00,0.0058
3495.00,0.0058
3494.00,0.0059
3493.00,0.0059
3492.00,0.0059
3491.00,0.0059
3490.00,0.0059
3489.00,0.0059
3488.00,0.0060
3487.00,0.0060
3486.00,0.0060
3485.00,0.0060
3484.00,0.0060
3483.00,0.0060
3482.00,0.0061
3481.00,0.0061
3480.00,0.0061
3479.00,0.0062
3478.00,0.0062
3477.00,0.0062
3476.00,0.0062
3475.00,0.0062
3474.00,0.0062
3473.00,0.0062
3472.00,0.0063
3471.00,0.0063
3470.00,0.0063
3469.00,0.0064
3468.00,0.0064
3467.00,0.0064
3466.00,0.0064
3465.00,0.0064
3464.00,0.0064
3463.00,0.0064
3462.00,0.0064
3461.00,0.0064
3460.00,0.0065
3459.00,0.0065
3458.00,0.0065
3457.00,0.0065
3456.00,0.0065
3455.00,0.0065
3454.00,0.0065
3453.00,0.0065
3452.00,0.0065
3451.00,0.0065
3450.00,0.0065
3449.00,0.0065
3448.00,0.0065
3447.00,0.0066
3446.00,0.0066
3445.00,0.0066
3444.00,0.0066
3443.00,0.0066
3442.00,0.0065
3441.00,0.0065
3440.00,0.0065
3439.00,0.0065
3438.00,0.0066
3437.00,0.0066
3436.00,0.0066
3435.00,0.0066
3434.00,0.0065
3433.00,0.0065
3432.00,0.0065
3431.00,0.0066
3430.00,0.0066
3429.00,0.0066
3428.00,0.0066
3427.00,0.0066
3426.00,0.0066
3425.00,0.0065
3424.00,0.0065
3423.00,0.0065
3422.00,0.0065
3421.00,0.0065
3420.00,0.0065
3419.00,0.0065
3418.00,0.0065
3417.00,0.0065
3416.00,0.0065
3415.00,0.0065
3414.00,0.0065
3413.00,0.0065
3412.00,0.0065
3411.00,0.0065
3410.00,0.0064
3409.00,0.0064
3408.00,0.0064
3407.00,0.0064
3406.00,0.0064
3405.00,0.0064
3404.00,0.0064
3403.00,0.0064
3402.00,0.0064
3401.00,0.0064
3400.00,0.0064
3399.00,0.0064
3398.00,0.0064
3397.00,0.0064
3396.00,0.0064
3395.00,0.0063
3394.00,0.0063
3393.00,0.0063
3392.00,0.0063
3391.00,0.0064
3390.00,0.0064
3389.00,0.0064
3388.00,0.0064
3387.00,0.0064
3386.00,0.0064
3385.00,0.0064
3384.00,0.0064
3383.00,0.0064
3382.00,0.0063
3381.00,0.0063
3380.00,0.0063
3379.00,0.0063
3378.00,0.0063
3377.00,0.0063
3376.00,0.0063
3375.00,0.0063
3374.00,0.0063
3373.00,0.0063
3372.00,0.0063
3371.00,0.0062
3370.00,0.0062
3369.00,0.0061
3368.00,0.0061
3367.00,0.0061
3366.00,0.0062
3365.00,0.0062
3364.00,0.0062
3363.00,0.0062
3362.00,0.0062
3361.00,0.0062
3360.00,0.0062
3359.00,0.0062
3358.00,0.0062
3357.00,0.0062
3356.00,0.0062
3355.00,0.0062
3354.00,0.0061
3353.00,0.0061
3352.00,0.0061
3351.00,0.0061
3350.00,0.0061
3349.00,0.0061
3348.00,0.0061
3347.00,0.0061
3346.00,0.0061
3345.00,0.0060
3344.00,0.0060
3343.00,0.0060
3342.00,0.0060
3341.00,0.0060
3340.00,0.0060
3339.00,0.0060
3338.00,0.0060
3337.00,0.0060
3336.00,0.0060
3335.00,0.0061
3334.00,0.0061
3333.00,0.0060
3332.00,0.0060
3331.00,0.0060
3330.00,0.0060
3329.00,0.0060
3328.00,0.0060
3327.00,0.0059
3326.00,0.0059
3325.00,0.0059
3324.00,0.0060
3323.00,0.0060
3322.00,0.0060
3321.00,0.0060
3320.00,0.0060
3319.00,0.0059
3318.00,0.0059
3317.00,0.0060
3316.00,0.0060
3315.00,0.0060
3314.00,0.0059
3313.00,0.0059
3312.00,0.0059
3311.00,0.0058
3310.00,0.0058
3309.00,0.0057
3308.00,0.0056
3307.00,0.0056
3306.00,0.0056
3305.00,0.0056
3304.00,0.0057
3303.00,0.0057
3302.00,0.0058
3301.00,0.0058
3300.00,0.0058
3299.00,0.0058
3298.00,0.0057
3297.00,0.0057
3296.00,0.0057
3295.00,0.0057
3294.00,0.0057
3293.00,0.0057
3292.00,0.0057
3291.00,0.0057
3290.00,0.0057
3289.00,0.0058
3288.00,0.0058
3287.00,0.0057
3286.00,0.0057
3285.00,0.0057
3284.00,0.0057
3283.00,0.0057
3282.00,0.0057
3281.00,0.0057
3280.00,0.0057
3279.00,0.0057
3278.00,0.0057
3277.00,0.0056
3276.00,0.0056
3275.00,0.0056
3274.00,0.0056
3273.00,0.0056
3272.00,0.0055
3271.00,0.0055
3270.00,0.0055
3269.00,0.0055
3268.00,0.0055
3267.00,0.0056
3266.00,0.0056
3265.00,0.0056
3264.00,0.0056
3263.00,0.0056
3262.00,0.0055
3261.00,0.0055
3260.00,0.0055
3259.00,0.0055
3258.00,0.0055
3257.00,0.0054
3256.00,0.0054
3255.00,0.0054
3254.00,0.0054
3253.00,0.0054
3252.00,0.0054
3251.00,0.0054
3250.00,0.0054
3249.00,0.0054
3248.00,0.0053
3247.00,0.0053
3246.00,0.0053
3245.00,0.0053
3244.00,0.0053
3243.00,0.0053
3242.00,0.0053
3241.00,0.0052
3240.00,0.0052
3239.00,0.0052
3238.00,0.0052
3237.00,0.0052
3236.00,0.0052
3235.00,0.0052
3234.00,0.0052
3233.00,0.0052
3232.00,0.0052
3231.00,0.0052
3230.00,0.0052
3229.00,0.0052
3228.00,0.0052
3227.00,0.0051
3226.00,0.0051
3225.00,0.0051
3224.00,0.0051
3223.00,0.0051
3222.00,0.0051
3221.00,0.0050
3220.00,0.0050
3219.00,0.0050
3218.00,0.0050
3217.00,0.0050
3216.00,0.0050
3215.00,0.0051
3214.00,0.0050
3213.00,0.0050
3212.00,0.0050
3211.00,0.0050
3210.00,0.0050
3209.00,0.0049
3208.00,0.0049
3207.00,0.0049
3206.00,0.0049
3205.00,0.0048
3204.00,0.0048
3203.00,0.0048
3202.00,0.0048
3201.00,0.0048
3200.00,0.0048
3199.00,0.0048
3198.00,0.0048
3197.00,0.0048
3196.00,0.0048
3195.00,0.0048
3194.00,0.0048
3193.00,0.0048
3192.00,0.0048
3191.00,0.0048
3190.00,0.0047
3189.00,0.0047
3188.00,0.0047
3187.00,0.0047
3186.00,0.0047
3185.00,0.0047
3184.00,0.0047
3183.00,0.0047
3182.00,0.0047
3181.00,0.0046
3180.00,0.0046
3179.00,0.0046
3178.00,0.0046
3177.00,0.0046
3176.00,0.0046
3175.00,0.0046
3174.00,0.0046
3173.00,0.0046
3172.00,0.0046
3171.00,0.0045
3170.00,0.0045
3169.00,0.0045
3168.00,0.0045
3167.00,0.0045
3166.00,0.0045
3165.00,0.0045
3164.00,0.0045
3163.00,0.0045
3162.00,0.0045
3161.00,0.0044
3160.00,0.0044
3159.00,0.0044
3158.00,0.0044
3157.00,0.0044
3156.00,0.0044
3155.00,0.0044
3154.00,0.0044
3153.00,0.0044
3152.00,0.0044
3151.00,0.0043
3150.00,0.0043
3149.00,0.0043
3148.00,0.0043
3147.00,0.0043
3146.00,0.0043
3145.00,0.0043
3144.00,0.0043
3143.00,0.0043
3142.00,0.0042
3141.00,0.0042
3140.00,0.0042
3139.00,0.0042
3138.00,0.0042
3137.00,0.0042
3136.00,0.0042
3135.00,0.0042
3134.00,0.0041
3133.00,0.0041
3132.00,0.0041
3131.00,0.0041
3130.00,0.0041
3129.00,0.0041
3128.00,0.0041
3127.00,0.0041
3126.00,0.0041
3125.00,0.0041
3124.00,0.0041
3123.00,0.0041
3122.00,0.0041
3121.00,0.0041
3120.00,0.0041
3119.00,0.0041
3118.00,0.0041
3117.00,0.0041
3116.00,0.0041
3115.00,0.0041
3114.00,0.0041
3113.00,0.0041
3112.00,0.0041
3111.00,0.0040
3110.00,0.0040
3109.00,0.0040
3108.00,0.0040
3107.00,0.0040
3106.00,0.0040
3105.00,0.0040
3104.00,0.0039
3103.00,0.0039
3102.00,0.0039
3101.00,0.0039
3100.00,0.0039
3099.00,0.0039
3098.00,0.0039
3097.00,0.0039
3096.00,0.0039
3095.00,0.0039
3094.00,0.0039
3093.00,0.0039
3092.00,0.0039
3091.00,0.0039
3090.00,0.0039
3089.00,0.0039
3088.00,0.0039
3087.00,0.0039
3086.00,0.0039
3085.00,0.0039
3084.00,0.0039
3083.00,0.0039
3082.00,0.0039
3081.00,0.0039
3080.00,0.0039
3079.00,0.0038
3078.00,0.0038
3077.00,0.0038
3076.00,0.0038
3075.00,0.0038
3074.00,0.0038
3073.00,0.0038
3072.00,0.0038
3071.00,0.0038
3070.00,0.0038
3069.00,0.0038
3068.00,0.0038
3067.00,0.0037
3066.00,0.0037
3065.00,0.0037
3064.00,0.0037
3063.00,0.0037
3062.00,0.0037
3061.00,0.0037
3060.00,0.0037
3059.00,0.0037
3058.00,0.0037
3057.00,0.0037
3056.00,0.0037
3055.00,0.0037
3054.00,0.0037
3053.00,0.0037
3052.00,0.0037
3051.00,0.0037
3050.00,0.0037
3049.00,0.0036
3048.00,0.0036
3047.00,0.0036
3046.00,0.0036
3045.00,0.0036
3044.00,0.0036
3043.00,0.0036
3042.00,0.0036
3041.00,0.0036
3040.00,0.0036
3039.00,0.0036
3038.00,0.0036
3037.00,0.0035
3036.00,0.0035
3035.00,0.0036
3034.00,0.0036
3033.00,0.0036
3032.00,0.0036
3031.00,0.0036
3030.00,0.0036
3029.00,0.0036
3028.00,0.0036
3027.00,0.0036
3026.00,0.0036
3025.00,0.0036
3024.00,0.0036
3023.00,0.0036
3022.00,0.0036
3021.00,0.0036
3020.00,0.0037
3019.00,0.0037
3018.00,0.0037
3017.00,0.0037
3016.00,0.0038
3015.00,0.0038
3014.00,0.0039
3013.00,0.0039
3012.00,0.0039
3011.00,0.0040
3010.00,0.0041
3009.00,0.0042
3008.00,0.0042
3007.00,0.0043
3006.00,0.0044
3005.00,0.0045
3004.00,0.0047
3003.00,0.0048
3002.00,0.0049
3001.00,0.0050
3000.00,0.0052
2999.00,0.0054
2998.00,0.0055
2997.00,0.0057
2996.00,0.0059
2995.00,0.0061
2994.00,0.0063
2993.00,0.0066
2992.00,0.0068
2991.00,0.0070
2990.00,0.0072
2989.00,0.0075
2988.00,0.0077
2987.00,0.0079
2986.00,0.0081
2985.00,0.0083
2984.00,0.0085
2983.00,0.0087
2982.00,0.0088
2981.00,0.0090
2980.00,0.0091
2979.00,0.0093
2978.00,0.0094
2977.00,0.0095
2976.00,0.0096
2975.00,0.0097
2974.00,0.0098
2973.00,0.0099
2972.00,0.0100
2971.00,0.0101
2970.00,0.0103
2969.00,0.0104
2968.00,0.0105
2967.00,0.0106
2966.00,0.0108
2965.00,0.0109
2964.00,0.0111
2963.00,0.0112
2962.00,0.0113
2961.00,0.0115
2960.00,0.0116
2959.00,0.0117
2958.00,0.0119
2957.00,0.0120
2956.00,0.0121
2955.00,0.0122
2954.00,0.0123
2953.00,0.0123
2952.00,0.0124
2951.00,0.0124
2950.00,0.0124
2949.00,0.0124
2948.00,0.0123
2947.00,0.0123
2946.00,0.0123
2945.00,0.0122
2944.00,0.0122
2943.00,0.0122
2942.00,0.0122
2941.00,0.0122
2940.00,0.0122
2939.00,0.0122
2938.00,0.0123
2937.00,0.0123
2936.00,0.0124
2935.00,0.0125
2934.00,0.0126
2933.00,0.0127
2932.00,0.0128
2931.00,0.0128
2930.00,0.0129
2929.00,0.0130
2928.00,0.0130
2927.00,0.0131
2926.00,0.0131
2925.00,0.0131
2924.00,0.0131
2923.00,0.0131
2922.00,0.0130
2921.00,0.0130
2920.00,0.0129
2919.00,0.0128
2918.00,0.0126
2917.00,0.0125
2916.00,0.0124
2915.00,0.0122
2914.00,0.0120
2913.00,0.0118
2912.00,0.0116
2911.00,0.0114
2910.00,0.0112
2909.00,0.0110
2908.00,0.0108
2907.00,0.0107
2906.00,0.0105
2905.00,0.0104
2904.00,0.0103
2903.00,0.0102
2902.00,0.0101
2901.00,0.0101
2900.00,0.0100
2899.00,0.0100
2898.00,0.0100
2897.00,0.0100
2896.00,0.0100
2895.00,0.0100
2894.00,0.0100
2893.00,0.0100
2892.00,0.0100
2891.00,0.0100
2890.00,0.0100
2889.00,0.0100
2888.00,0.0100
2887.00,0.0099
2886.00,0.0099
2885.00,0.0099
2884.00,0.0099
2883.00,0.0099
2882.00,0.0099
2881.00,0.0099
2880.00,0.0099
2879.00,0.0099
2878.00,0.0100
2877.00,0.0100
2876.00,0.0100
2875.00,0.0100
2874.00,0.0100
2873.00,0.0101
2872.00,0.0101
2871.00,0.0101
2870.00,0.0100
2869.00,0.0100
2868.00,0.0099
2867.00,0.0098
2866.00,0.0098
2865.00,0.0098
2864.00,0.0097
2863.00,0.0097
2862.00,0.0097
2861.00,0.0096
2860.00,0.0096
2859.00,0.0096
2858.00,0.0095
2857.00,0.0094
2856.00,0.0093
2855.00,0.0091
2854.00,0.0089
2853.00,0.0087
2852.00,0.0085
2851.00,0.0083
2850.00,0.0081
2849.00,0.0078
2848.00,0.0076
2847.00,0.0073
2846.00,0.0071
2845.00,0.0069
2844.00,0.0067
2843.00,0.0065
2842.00,0.0063
2841.00,0.0062
2840.00,0.0060
2839.00,0.0059
2838.00,0.0057
2837.00,0.0056
2836.00,0.0055
2835.00,0.0054
2834.00,0.0053
2833.00,0.0052
2832.00,0.0051
2831.00,0.0050
2830.00,0.0049
2829.00,0.0048
2828.00,0.0047
2827.00,0.0046
2826.00,0.0046
2825.00,0.0045
2824.00,0.0044
2823.00,0.0043
2822.00,0.0042
2821.00,0.0041
2820.00,0.0041
2819.00,0.0040
2818.00,0.0039
2817.00,0.0039
2816.00,0.0038
2815.00,0.0038
2814.00,0.0037
2813.00,0.0037
2812.00,0.0036
2811.00,0.0035
2810.00,0.0035
2809.00,0.0034
2808.00,0.0034
2807.00,0.0034
2806.00,0.0033
2805.00,0.0033
2804.00,0.0032
2803.00,0.0032
2802.00,0.0031
2801.00,0.0031
2800.00,0.0030
2799.00,0.0030
2798.00,0.0030
2797.00,0.0030
2796.00,0.0030
2795.00,0.0030
2794.00,0.0029
2793.00,0.0029
2792.00,0.0029
2791.00,0.0028
2790.00,0.0028
2789.00,0.0028
2788.00,0.0027
2787.00,0.0027
2786.00,0.0027
2785.00,0.0027
2784.00,0.0027
2783.00,0.0027
2782.00,0.0026
2781.00,0.0026
2780.00,0.0026
2779.00,0.0026
2778.00,0.0026
2777.00,0.0026
2776.00,0.0025
2775.00,0.0025
2774.00,0.0025
2773.00,0.0025
2772.00,0.0025
2771.00,0.0025
2770.00,0.0024
2769.00,0.0024
2768.00,0.0024
2767.00,0.0024
2766.00,0.0024
2765.00,0.0024
2764.00,0.0024
2763.00,0.0024
2762.00,0.0024
2761.00,0.0024
2760.00,0.0024
2759.00,0.0024
2758.00,0.0024
2757.00,0.0024
