Created as New Dataset,Sample 1034 By YargerLab Date Monday, August 04 2025
cm-1,A
4000.00,0.0046
3999.00,0.0046
3998.00,0.0046
3997.00,0.0046
3996.00,0.0046
3995.00,0.0046
3994.00,0.0046
3993.00,0.0046
3992.00,0.0046
3991.00,0.0046
3990.00,0.0046
3989.00,0.0046
3988.00,0.0046
3987.00,0.0046
3986.00,0.0046
3985.00,0.0046
3984.00,0.0046
3983.00,0.0046
3982.00,0.0046
3981.00,0.0046
3980.00,0.0046
3979.00,0.0046
3978.00,0.0046
3977.00,0.0046
3976.00,0.0046
3975.00,0.0046
3974.00,0.0046
3973.00,0.0046
3972.00,0.0046
3971.00,0.0046
3970.00,0.0046
3969.00,0.0047
3968.00,0.0047
3967.00,0.0047
3966.00,0.0047
3965.00,0.0046
3964.00,0.0046
3963.00,0.0046
3962.00,0.0046
3961.00,0.0046
3960.00,0.0046
3959.00,0.0046
3958.00,0.0046
3957.00,0.0046
3956.00,0.0046
3955.00,0.0046
3954.00,0.0046
3953.00,0.0046
3952.00,0.0046
3951.00,0.0046
3950.00,0.0046
3949.00,0.0045
3948.00,0.0045
3947.00,0.0045
3946.00,0.0045
3945.00,0.0045
3944.00,0.0045
3943.00,0.0046
3942.00,0.0046
3941.00,0.0046
3940.00,0.0046
3939.00,0.0046
3938.00,0.0046
3937.00,0.0046
3936.00,0.0046
3935.00,0.0046
3934.00,0.0045
3933.00,0.0045
3932.00,0.0045
3931.00,0.0045
3930.00,0.0045
3929.00,0.0046
3928.00,0.0046
3927.00,0.0046
3926.00,0.0046
3925.00,0.0046
3924.00,0.0046
3923.00,0.0046
3922.00,0.0046
3921.00,0.0045
3920.00,0.0045
3919.00,0.0045
3918.00,0.0045
3917.00,0.0045
3916.00,0.0045
3915.00,0.0045
3914.00,0.0046
3913.00,0.0046
3912.00,0.0046
3911.00,0.0046
3910.00,0.0046
3909.00,0.0046
3908.00,0.0046
3907.00,0.0045
3906.00,0.0045
3905.00,0.0045
3904.00,0.0044
3903.00,0.0044
3902.00,0.0044
3901.00,0.0044
3900.00,0.0044
3899.00,0.0044
3898.00,0.0044
3897.00,0.0044
3896.00,0.0044
3895.00,0.0045
3894.00,0.0045
3893.00,0.0045
3892.00,0.0045
3891.00,0.0045
3890.00,0.0045
3889.00,0.0045
3888.00,0.0044
3887.00,0.0044
3886.00,0.0043
3885.00,0.0044
3884.00,0.0044
3883.00,0.0044
3882.00,0.0044
3881.00,0.0044
3880.00,0.0045
3879.00,0.0045
3878.00,0.0045
3877.00,0.0045
3876.00,0.0044
3875.00,0.0044
3874.00,0.0045
3873.00,0.0045
3872.00,0.0045
3871.00,0.0044
3870.00,0.0044
3869.00,0.0044
3868.00,0.0044
3867.00,0.0044
3866.00,0.0044
3865.00,0.0044
3864.00,0.0044
3863.00,0.0044
3862.00,0.0044
3861.00,0.0044
3860.00,0.0045
3859.00,0.0045
3858.00,0.0046
3857.00,0.0046
3856.00,0.0046
3855.00,0.0045
3854.00,0.0045
3853.00,0.0045
3852.00,0.0044
3851.00,0.0044
3850.00,0.0044
3849.00,0.0044
3848.00,0.0044
3847.00,0.0044
3846.00,0.0044
3845.00,0.0044
3844.00,0.0044
3843.00,0.0044
3842.00,0.0044
3841.00,0.0044
3840.00,0.0044
3839.00,0.0044
3838.00,0.0044
3837.00,0.0044
3836.00,0.0045
3835.00,0.0045
3834.00,0.0045
3833.00,0.0044
3832.00,0.0044
3831.00,0.0044
3830.00,0.0044
3829.00,0.0044
3828.00,0.0044
3827.00,0.0044
3826.00,0.0045
3825.00,0.0045
3824.00,0.0045
3823.00,0.0044
3822.00,0.0043
3821.00,0.0044
3820.00,0.0044
3819.00,0.0044
3818.00,0.0043
3817.00,0.0043
3816.00,0.0043
3815.00,0.0044
3814.00,0.0044
3813.00,0.0044
3812.00,0.0045
3811.00,0.0045
3810.00,0.0045
3809.00,0.0045
3808.00,0.0044
3807.00,0.0044
3806.00,0.0045
3805.00,0.0045
3804.00,0.0045
3803.00,0.0044
3802.00,0.0044
3801.00,0.0045
3800.00,0.0045
3799.00,0.0045
3798.00,0.0045
3797.00,0.0044
3796.00,0.0044
3795.00,0.0044
3794.00,0.0045
3793.00,0.0045
3792.00,0.0045
3791.00,0.0045
3790.00,0.0045
3789.00,0.0045
3788.00,0.0045
3787.00,0.0045
3786.00,0.0045
3785.00,0.0045
3784.00,0.0045
3783.00,0.0045
3782.00,0.0045
3781.00,0.0044
3780.00,0.0044
3779.00,0.0044
3778.00,0.0044
3777.00,0.0044
3776.00,0.0044
3775.00,0.0044
3774.00,0.0044
3773.00,0.0045
3772.00,0.0045
3771.00,0.0045
3770.00,0.0045
3769.00,0.0045
3768.00,0.0045
3767.00,0.0045
3766.00,0.0045
3765.00,0.0045
3764.00,0.0045
3763.00,0.0045
3762.00,0.0044
3761.00,0.0044
3760.00,0.0044
3759.00,0.0045
3758.00,0.0045
3757.00,0.0045
3756.00,0.0045
3755.00,0.0045
3754.00,0.0045
3753.00,0.0045
3752.00,0.0045
3751.00,0.0044
3750.00,0.0043
3749.00,0.0043
3748.00,0.0043
3747.00,0.0042
3746.00,0.0042
3745.00,0.0041
3744.00,0.0041
3743.00,0.0042
3742.00,0.0042
3741.00,0.0042
3740.00,0.0041
3739.00,0.0041
3738.00,0.0041
3737.00,0.0041
3736.00,0.0041
3735.00,0.0041
3734.00,0.0042
3733.00,0.0041
3732.00,0.0041
3731.00,0.0042
3730.00,0.0042
3729.00,0.0042
3728.00,0.0042
3727.00,0.0042
3726.00,0.0042
3725.00,0.0042
3724.00,0.0042
3723.00,0.0042
3722.00,0.0043
3721.00,0.0043
3720.00,0.0043
3719.00,0.0043
3718.00,0.0043
3717.00,0.0044
3716.00,0.0044
3715.00,0.0043
3714.00,0.0043
3713.00,0.0043
3712.00,0.0042
3711.00,0.0042
3710.00,0.0042
3709.00,0.0042
3708.00,0.0042
3707.00,0.0042
3706.00,0.0042
3705.00,0.0042
3704.00,0.0042
3703.00,0.0042
3702.00,0.0043
3701.00,0.0043
3700.00,0.0043
3699.00,0.0043
3698.00,0.0043
3697.00,0.0043
3696.00,0.0043
3695.00,0.0043
3694.00,0.0043
3693.00,0.0043
3692.00,0.0044
3691.00,0.0044
3690.00,0.0044
3689.00,0.0043
3688.00,0.0043
3687.00,0.0042
3686.00,0.0042
3685.00,0.0042
3684.00,0.0043
3683.00,0.0043
3682.00,0.0043
3681.00,0.0043
3680.00,0.0043
3679.00,0.0044
3678.00,0.0043
3677.00,0.0043
3676.00,0.0043
3675.00,0.0043
3674.00,0.0043
3673.00,0.0043
3672.00,0.0043
3671.00,0.0043
3670.00,0.0043
3669.00,0.0044
3668.00,0.0044
3667.00,0.0044
3666.00,0.0044
3665.00,0.0044
3664.00,0.0045
3663.00,0.0045
3662.00,0.0045
3661.00,0.0045
3660.00,0.0045
3659.00,0.0045
3658.00,0.0045
3657.00,0.0044
3656.00,0.0044
3655.00,0.0044
3654.00,0.0044
3653.00,0.0043
3652.00,0.0043
3651.00,0.0042
3650.00,0.0043
3649.00,0.0044
3648.00,0.0044
3647.00,0.0044
3646.00,0.0044
3645.00,0.0045
3644.00,0.0045
3643.00,0.0045
3642.00,0.0046
3641.00,0.0046
3640.00,0.0047
3639.00,0.0047
3638.00,0.0047
3637.00,0.0047
3636.00,0.0047
3635.00,0.0047
3634.00,0.0047
3633.00,0.0047
3632.00,0.0047
3631.00,0.0047
3630.00,0.0047
3629.00,0.0046
3628.00,0.0047
3627.00,0.0047
3626.00,0.0047
3625.00,0.0047
3624.00,0.0048
3623.00,0.0048
3622.00,0.0049
3621.00,0.0049
3620.00,0.0050
3619.00,0.0050
3618.00,0.0050
3617.00,0.0050
3616.00,0.0050
3615.00,0.0050
3614.00,0.0050
3613.00,0.0051
3612.00,0.0051
3611.00,0.0051
3610.00,0.0051
3609.00,0.0051
3608.00,0.0052
3607.00,0.0052
3606.00,0.0053
3605.00,0.0053
3604.00,0.0054
3603.00,0.0054
3602.00,0.0055
3601.00,0.0055
3600.00,0.0056
3599.00,0.0056
3598.00,0.0056
3597.00,0.0056
3596.00,0.0056
3595.00,0.0056
3594.00,0.0056
3593.00,0.0057
3592.00,0.0057
3591.00,0.0057
3590.00,0.0057
3589.00,0.0057
3588.00,0.0058
3587.00,0.0058
3586.00,0.0058
3585.00,0.0059
3584.00,0.0059
3583.00,0.0060
3582.00,0.0061
3581.00,0.0062
3580.00,0.0062
3579.00,0.0063
3578.00,0.0063
3577.00,0.0064
3576.00,0.0064
3575.00,0.0065
3574.00,0.0065
3573.00,0.0066
3572.00,0.0066
3571.00,0.0066
3570.00,0.0066
3569.00,0.0066
3568.00,0.0066
3567.00,0.0066
3566.00,0.0066
3565.00,0.0067
3564.00,0.0068
3563.00,0.0068
3562.00,0.0069
3561.00,0.0070
3560.00,0.0071
3559.00,0.0071
3558.00,0.0072
3557.00,0.0072
3556.00,0.0073
3555.00,0.0073
3554.00,0.0074
3553.00,0.0074
3552.00,0.0074
3551.00,0.0075
3550.00,0.0075
3549.00,0.0075
3548.00,0.0076
3547.00,0.0076
3546.00,0.0077
3545.00,0.0077
3544.00,0.0078
3543.00,0.0078
3542.00,0.0079
3541.00,0.0079
3540.00,0.0079
3539.00,0.0080
3538.00,0.0080
3537.00,0.0081
3536.00,0.0081
3535.00,0.0082
3534.00,0.0082
3533.00,0.0083
3532.00,0.0083
3531.00,0.0083
3530.00,0.0084
3529.00,0.0084
3528.00,0.0085
3527.00,0.0085
3526.00,0.0085
3525.00,0.0086
3524.00,0.0086
3523.00,0.0086
3522.00,0.0086
3521.00,0.0087
3520.00,0.0087
3519.00,0.0087
3518.00,0.0088
3517.00,0.0088
3516.00,0.0089
3515.00,0.0089
3514.00,0.0089
3513.00,0.0089
3512.00,0.0090
3511.00,0.0090
3510.00,0.0090
3509.00,0.0090
3508.00,0.0091
3507.00,0.0091
3506.00,0.0091
3505.00,0.0092
3504.00,0.0092
3503.00,0.0092
3502.00,0.0092
3501.00,0.0093
3500.00,0.0093
3499.00,0.0094
3498.00,0.0094
3497.00,0.0095
3496.00,0.0095
3495.00,0.0095
3494.00,0.0095
3493.00,0.0096
3492.00,0.0096
3491.00,0.0096
3490.00,0.0097
3489.00,0.0097
3488.00,0.0097
3487.00,0.0098
3486.00,0.0098
3485.00,0.0099
3484.00,0.0099
3483.00,0.0100
3482.00,0.0100
3481.00,0.0101
3480.00,0.0101
3479.00,0.0102
3478.00,0.0102
3477.00,0.0103
3476.00,0.0103
3475.00,0.0103
3474.00,0.0104
3473.00,0.0104
3472.00,0.0105
3471.00,0.0106
3470.00,0.0106
3469.00,0.0107
3468.00,0.0107
3467.00,0.0108
3466.00,0.0108
3465.00,0.0109
3464.00,0.0109
3463.00,0.0110
3462.00,0.0110
3461.00,0.0111
3460.00,0.0111
3459.00,0.0112
3458.00,0.0112
3457.00,0.0113
3456.00,0.0113
3455.00,0.0114
3454.00,0.0114
3453.00,0.0115
3452.00,0.0116
3451.00,0.0117
3450.00,0.0117
3449.00,0.0117
3448.00,0.0118
3447.00,0.0118
3446.00,0.0119
3445.00,0.0119
3444.00,0.0120
3443.00,0.0121
3442.00,0.0122
3441.00,0.0122
3440.00,0.0123
3439.00,0.0124
3438.00,0.0125
3437.00,0.0126
3436.00,0.0126
3435.00,0.0127
3434.00,0.0128
3433.00,0.0128
3432.00,0.0129
3431.00,0.0130
3430.00,0.0131
3429.00,0.0132
3428.00,0.0133
3427.00,0.0133
3426.00,0.0134
3425.00,0.0135
3424.00,0.0136
3423.00,0.0137
3422.00,0.0138
3421.00,0.0139
3420.00,0.0140
3419.00,0.0141
3418.00,0.0142
3417.00,0.0142
3416.00,0.0143
3415.00,0.0144
3414.00,0.0145
3413.00,0.0146
3412.00,0.0146
3411.00,0.0147
3410.00,0.0148
3409.00,0.0148
3408.00,0.0149
3407.00,0.0149
3406.00,0.0150
3405.00,0.0150
3404.00,0.0150
3403.00,0.0151
3402.00,0.0151
3401.00,0.0151
3400.00,0.0151
3399.00,0.0151
3398.00,0.0151
3397.00,0.0150
3396.00,0.0150
3395.00,0.0150
3394.00,0.0150
3393.00,0.0149
3392.00,0.0149
3391.00,0.0148
3390.00,0.0148
3389.00,0.0147
3388.00,0.0147
3387.00,0.0147
3386.00,0.0146
3385.00,0.0145
3384.00,0.0144
3383.00,0.0143
3382.00,0.0142
3381.00,0.0142
3380.00,0.0141
3379.00,0.0141
3378.00,0.0140
3377.00,0.0139
3376.00,0.0139
3375.00,0.0138
3374.00,0.0137
3373.00,0.0136
3372.00,0.0136
3371.00,0.0135
3370.00,0.0135
3369.00,0.0134
3368.00,0.0133
3367.00,0.0133
3366.00,0.0132
3365.00,0.0131
3364.00,0.0131
3363.00,0.0130
3362.00,0.0130
3361.00,0.0129
3360.00,0.0128
3359.00,0.0128
3358.00,0.0127
3357.00,0.0127
3356.00,0.0126
3355.00,0.0126
3354.00,0.0125
3353.00,0.0125
3352.00,0.0125
3351.00,0.0125
3350.00,0.0124
3349.00,0.0124
3348.00,0.0124
3347.00,0.0124
3346.00,0.0123
3345.00,0.0123
3344.00,0.0123
3343.00,0.0122
3342.00,0.0122
3341.00,0.0122
3340.00,0.0122
3339.00,0.0121
3338.00,0.0121
3337.00,0.0121
3336.00,0.0121
3335.00,0.0120
3334.00,0.0120
3333.00,0.0120
3332.00,0.0120
3331.00,0.0121
3330.00,0.0121
3329.00,0.0121
3328.00,0.0121
3327.00,0.0120
3326.00,0.0120
3325.00,0.0120
3324.00,0.0120
3323.00,0.0120
3322.00,0.0121
3321.00,0.0121
3320.00,0.0121
3319.00,0.0121
3318.00,0.0121
3317.00,0.0120
3316.00,0.0120
3315.00,0.0120
3314.00,0.0120
3313.00,0.0121
3312.00,0.0121
3311.00,0.0121
3310.00,0.0121
3309.00,0.0121
3308.00,0.0121
3307.00,0.0121
3306.00,0.0121
3305.00,0.0122
3304.00,0.0122
3303.00,0.0123
3302.00,0.0123
3301.00,0.0123
3300.00,0.0123
3299.00,0.0123
3298.00,0.0123
3297.00,0.0123
3296.00,0.0124
3295.00,0.0124
3294.00,0.0124
3293.00,0.0124
3292.00,0.0125
3291.00,0.0125
3290.00,0.0126
3289.00,0.0126
3288.00,0.0127
3287.00,0.0127
3286.00,0.0127
3285.00,0.0127
3284.00,0.0128
3283.00,0.0128
3282.00,0.0128
3281.00,0.0129
3280.00,0.0129
3279.00,0.0129
3278.00,0.0129
3277.00,0.0129
3276.00,0.0129
3275.00,0.0129
3274.00,0.0129
3273.00,0.0130
3272.00,0.0130
3271.00,0.0130
3270.00,0.0131
3269.00,0.0131
3268.00,0.0131
3267.00,0.0132
3266.00,0.0132
3265.00,0.0132
3264.00,0.0132
3263.00,0.0132
3262.00,0.0133
3261.00,0.0133
3260.00,0.0133
3259.00,0.0133
3258.00,0.0133
3257.00,0.0134
3256.00,0.0134
3255.00,0.0134
3254.00,0.0134
3253.00,0.0134
3252.00,0.0135
3251.00,0.0135
3250.00,0.0135
3249.00,0.0135
3248.00,0.0135
3247.00,0.0135
3246.00,0.0135
3245.00,0.0135
3244.00,0.0136
3243.00,0.0136
3242.00,0.0136
3241.00,0.0136
3240.00,0.0136
3239.00,0.0136
3238.00,0.0136
3237.00,0.0136
3236.00,0.0135
3235.00,0.0135
3234.00,0.0135
3233.00,0.0134
3232.00,0.0134
3231.00,0.0134
3230.00,0.0134
3229.00,0.0134
3228.00,0.0133
3227.00,0.0133
3226.00,0.0133
3225.00,0.0133
3224.00,0.0132
3223.00,0.0132
3222.00,0.0132
3221.00,0.0132
3220.00,0.0131
3219.00,0.0131
3218.00,0.0130
3217.00,0.0130
3216.00,0.0129
3215.00,0.0129
3214.00,0.0129
3213.00,0.0128
3212.00,0.0127
3211.00,0.0127
3210.00,0.0126
3209.00,0.0125
3208.00,0.0125
3207.00,0.0125
3206.00,0.0124
3205.00,0.0124
3204.00,0.0123
3203.00,0.0122
3202.00,0.0122
3201.00,0.0121
3200.00,0.0120
3199.00,0.0120
3198.00,0.0119
3197.00,0.0118
3196.00,0.0118
3195.00,0.0117
3194.00,0.0117
3193.00,0.0116
3192.00,0.0115
3191.00,0.0114
3190.00,0.0114
3189.00,0.0113
3188.00,0.0112
3187.00,0.0111
3186.00,0.0111
3185.00,0.0110
3184.00,0.0109
3183.00,0.0109
3182.00,0.0108
3181.00,0.0107
3180.00,0.0107
3179.00,0.0106
3178.00,0.0106
3177.00,0.0105
3176.00,0.0104
3175.00,0.0104
3174.00,0.0103
3173.00,0.0102
3172.00,0.0102
3171.00,0.0101
3170.00,0.0100
3169.00,0.0099
3168.00,0.0098
3167.00,0.0097
3166.00,0.0096
3165.00,0.0096
3164.00,0.0095
3163.00,0.0095
3162.00,0.0094
3161.00,0.0094
3160.00,0.0094
3159.00,0.0093
3158.00,0.0092
3157.00,0.0091
3156.00,0.0091
3155.00,0.0090
3154.00,0.0090
3153.00,0.0089
3152.00,0.0088
3151.00,0.0088
3150.00,0.0087
3149.00,0.0087
3148.00,0.0086
3147.00,0.0086
3146.00,0.0085
3145.00,0.0085
3144.00,0.0084
3143.00,0.0083
3142.00,0.0083
3141.00,0.0082
3140.00,0.0082
3139.00,0.0081
3138.00,0.0081
3137.00,0.0080
3136.00,0.0080
3135.00,0.0080
3134.00,0.0079
3133.00,0.0079
3132.00,0.0079
3131.00,0.0078
3130.00,0.0078
3129.00,0.0077
3128.00,0.0077
3127.00,0.0077
3126.00,0.0077
3125.00,0.0076
3124.00,0.0076
3123.00,0.0076
3122.00,0.0076
3121.00,0.0075
3120.00,0.0075
3119.00,0.0075
3118.00,0.0074
3117.00,0.0074
3116.00,0.0074
3115.00,0.0073
3114.00,0.0073
3113.00,0.0072
3112.00,0.0072
3111.00,0.0072
3110.00,0.0071
3109.00,0.0071
3108.00,0.0070
3107.00,0.0070
3106.00,0.0070
3105.00,0.0069
3104.00,0.0069
3103.00,0.0069
3102.00,0.0068
3101.00,0.0068
3100.00,0.0068
3099.00,0.0068
3098.00,0.0067
3097.00,0.0067
3096.00,0.0067
3095.00,0.0067
3094.00,0.0067
3093.00,0.0067
3092.00,0.0068
3091.00,0.0068
3090.00,0.0068
3089.00,0.0068
3088.00,0.0068
3087.00,0.0068
3086.00,0.0067
3085.00,0.0067
3084.00,0.0067
3083.00,0.0068
3082.00,0.0068
3081.00,0.0068
3080.00,0.0068
3079.00,0.0068
3078.00,0.0068
3077.00,0.0068
3076.00,0.0067
3075.00,0.0067
3074.00,0.0067
3073.00,0.0067
3072.00,0.0066
3071.00,0.0066
3070.00,0.0066
3069.00,0.0066
3068.00,0.0066
3067.00,0.0066
3066.00,0.0065
3065.00,0.0065
3064.00,0.0065
3063.00,0.0065
3062.00,0.0065
3061.00,0.0065
3060.00,0.0065
3059.00,0.0065
3058.00,0.0065
3057.00,0.0065
3056.00,0.0066
3055.00,0.0066
3054.00,0.0066
3053.00,0.0066
3052.00,0.0066
3051.00,0.0066
3050.00,0.0066
3049.00,0.0066
3048.00,0.0065
3047.00,0.0065
3046.00,0.0065
3045.00,0.0065
3044.00,0.0065
3043.00,0.0065
3042.00,0.0065
3041.00,0.0065
3040.00,0.0065
3039.00,0.0066
3038.00,0.0066
3037.00,0.0066
3036.00,0.0067
3035.00,0.0067
3034.00,0.0067
3033.00,0.0068
3032.00,0.0068
3031.00,0.0068
3030.00,0.0068
3029.00,0.0068
3028.00,0.0067
3027.00,0.0067
3026.00,0.0066
3025.00,0.0066
3024.00,0.0065
3023.00,0.0065
3022.00,0.0065
3021.00,0.0064
3020.00,0.0064
3019.00,0.0064
3018.00,0.0064
3017.00,0.0064
3016.00,0.0064
3015.00,0.0064
3014.00,0.0064
3013.00,0.0065
3012.00,0.0065
3011.00,0.0065
3010.00,0.0066
3009.00,0.0066
3008.00,0.0067
3007.00,0.0068
3006.00,0.0070
3005.00,0.0071
3004.00,0.0072
3003.00,0.0074
3002.00,0.0075
3001.00,0.0077
3000.00,0.0079
2999.00,0.0081
2998.00,0.0083
2997.00,0.0085
2996.00,0.0088
2995.00,0.0090
2994.00,0.0093
2993.00,0.0095
2992.00,0.0097
2991.00,0.0099
2990.00,0.0101
2989.00,0.0103
2988.00,0.0105
2987.00,0.0108
2986.00,0.0110
2985.00,0.0113
2984.00,0.0116
2983.00,0.0119
2982.00,0.0123
2981.00,0.0127
2980.00,0.0131
2979.00,0.0134
2978.00,0.0136
2977.00,0.0138
2976.00,0.0139
2975.00,0.0141
2974.00,0.0143
2973.00,0.0147
2972.00,0.0151
2971.00,0.0155
2970.00,0.0159
2969.00,0.0163
2968.00,0.0165
2967.00,0.0167
2966.00,0.0168
2965.00,0.0170
2964.00,0.0172
2963.00,0.0175
2962.00,0.0178
2961.00,0.0180
2960.00,0.0181
2959.00,0.0181
2958.00,0.0180
2957.00,0.0178
2956.00,0.0176
2955.00,0.0173
2954.00,0.0169
2953.00,0.0166
2952.00,0.0163
2951.00,0.0161
2950.00,0.0159
2949.00,0.0157
2948.00,0.0156
2947.00,0.0156
2946.00,0.0157
2945.00,0.0158
2944.00,0.0160
2943.00,0.0162
2942.00,0.0165
2941.00,0.0168
2940.00,0.0171
2939.00,0.0175
2938.00,0.0180
2937.00,0.0185
2936.00,0.0191
2935.00,0.0198
2934.00,0.0206
2933.00,0.0214
2932.00,0.0221
2931.00,0.0229
2930.00,0.0235
2929.00,0.0240
2928.00,0.0243
2927.00,0.0244
2926.00,0.0243
2925.00,0.0241
2924.00,0.0236
2923.00,0.0231
2922.00,0.0225
2921.00,0.0218
2920.00,0.0211
2919.00,0.0205
2918.00,0.0199
2917.00,0.0193
2916.00,0.0187
2915.00,0.0183
2914.00,0.0179
2913.00,0.0175
2912.00,0.0171
2911.00,0.0168
2910.00,0.0164
2909.00,0.0161
2908.00,0.0159
2907.00,0.0156
2906.00,0.0153
2905.00,0.0151
2904.00,0.0148
2903.00,0.0146
2902.00,0.0144
2901.00,0.0142
2900.00,0.0140
2899.00,0.0138
2898.00,0.0137
2897.00,0.0135
2896.00,0.0134
2895.00,0.0133
2894.00,0.0132
2893.00,0.0131
2892.00,0.0130
2891.00,0.0129
2890.00,0.0128
2889.00,0.0127
2888.00,0.0126
2887.00,0.0126
2886.00,0.0125
2885.00,0.0125
2884.00,0.0124
2883.00,0.0125
2882.00,0.0125
2881.00,0.0126
2880.00,0.0127
2879.00,0.0128
2878.00,0.0130
2877.00,0.0132
2876.00,0.0134
2875.00,0.0137
2874.00,0.0139
2873.00,0.0141
2872.00,0.0142
2871.00,0.0142
2870.00,0.0142
2869.00,0.0141
2868.00,0.0140
2867.00,0.0140
2866.00,0.0140
2865.00,0.0141
2864.00,0.0143
2863.00,0.0145
2862.00,0.0149
2861.00,0.0154
2860.00,0.0160
2859.00,0.0165
2858.00,0.0169
2857.00,0.0172
2856.00,0.0173
2855.00,0.0172
2854.00,0.0170
2853.00,0.0167
2852.00,0.0163
2851.00,0.0157
2850.00,0.0152
2849.00,0.0145
2848.00,0.0139
2847.00,0.0133
2846.00,0.0127
2845.00,0.0122
2844.00,0.0117
2843.00,0.0113
2842.00,0.0109
2841.00,0.0105
2840.00,0.0102
2839.00,0.0099
2838.00,0.0096
2837.00,0.0094
2836.00,0.0092
2835.00,0.0090
2834.00,0.0088
2833.00,0.0087
2832.00,0.0085
2831.00,0.0084
2830.00,0.0083
2829.00,0.0082
2828.00,0.0080
2827.00,0.0079
2826.00,0.0078
2825.00,0.0077
2824.00,0.0076
2823.00,0.0075
2822.00,0.0074
2821.00,0.0074
2820.00,0.0073
2819.00,0.0072
2818.00,0.0072
2817.00,0.0071
2816.00,0.0070
2815.00,0.0070
2814.00,0.0069
2813.00,0.0069
2812.00,0.0069
2811.00,0.0068
2810.00,0.0068
2809.00,0.0067
2808.00,0.0067
2807.00,0.0067
2806.00,0.0066
2805.00,0.0066
2804.00,0.0066
2803.00,0.0066
2802.00,0.0065
2801.00,0.0065
2800.00,0.0065
2799.00,0.0064
2798.00,0.0064
2797.00,0.0064
2796.00,0.0064
2795.00,0.0064
2794.00,0.0064
2793.00,0.0063
2792.00,0.0063
2791.00,0.0063
2790.00,0.0063
2789.00,0.0063
2788.00,0.0062
2787.00,0.0062
2786.00,0.0062
2785.00,0.0061
2784.00,0.0061
2783.00,0.0061
2782.00,0.0061
2781.00,0.0061
2780.00,0.0060
2779.00,0.0060
2778.00,0.0060
2777.00,0.0060
2776.00,0.0060
2775.00,0.0060
2774.00,0.0059
2773.00,0.0059
2772.00,0.0059
2771.00,0.0059
2770.00,0.0059
2769.00,0.0059
2768.00,0.0059
2767.00,0.0059
2766.00,0.0059
2765.00,0.0059
2764.00,0.0059
2763.00,0.0059
2762.00,0.0059
2761.00,0.0059
2760.00,0.0059
2759.00,0.0059
2758.00,0.0059
2757.00,0.0058
