Created as New Dataset,Sample 031 By YargerLab Date Tuesday, August 12 2025
cm-1,A
4000.00,0.0084
3999.00,0.0084
3998.00,0.0084
3997.00,0.0084
3996.00,0.0084
3995.00,0.0084
3994.00,0.0084
3993.00,0.0084
3992.00,0.0084
3991.00,0.0084
3990.00,0.0084
3989.00,0.0084
3988.00,0.0084
3987.00,0.0084
3986.00,0.0084
3985.00,0.0084
3984.00,0.0084
3983.00,0.0084
3982.00,0.0085
3981.00,0.0085
3980.00,0.0085
3979.00,0.0085
3978.00,0.0084
3977.00,0.0085
3976.00,0.0085
3975.00,0.0085
3974.00,0.0085
3973.00,0.0085
3972.00,0.0085
3971.00,0.0085
3970.00,0.0085
3969.00,0.0085
3968.00,0.0085
3967.00,0.0085
3966.00,0.0085
3965.00,0.0085
3964.00,0.0085
3963.00,0.0085
3962.00,0.0084
3961.00,0.0084
3960.00,0.0084
3959.00,0.0085
3958.00,0.0085
3957.00,0.0084
3956.00,0.0084
3955.00,0.0084
3954.00,0.0084
3953.00,0.0084
3952.00,0.0084
3951.00,0.0084
3950.00,0.0084
3949.00,0.0084
3948.00,0.0084
3947.00,0.0084
3946.00,0.0083
3945.00,0.0083
3944.00,0.0083
3943.00,0.0083
3942.00,0.0083
3941.00,0.0084
3940.00,0.0084
3939.00,0.0084
3938.00,0.0084
3937.00,0.0084
3936.00,0.0084
3935.00,0.0084
3934.00,0.0084
3933.00,0.0084
3932.00,0.0084
3931.00,0.0084
3930.00,0.0084
3929.00,0.0084
3928.00,0.0084
3927.00,0.0084
3926.00,0.0084
3925.00,0.0084
3924.00,0.0084
3923.00,0.0084
3922.00,0.0084
3921.00,0.0084
3920.00,0.0084
3919.00,0.0084
3918.00,0.0084
3917.00,0.0084
3916.00,0.0084
3915.00,0.0084
3914.00,0.0084
3913.00,0.0084
3912.00,0.0084
3911.00,0.0084
3910.00,0.0084
3909.00,0.0084
3908.00,0.0084
3907.00,0.0084
3906.00,0.0084
3905.00,0.0084
3904.00,0.0084
3903.00,0.0084
3902.00,0.0083
3901.00,0.0083
3900.00,0.0083
3899.00,0.0083
3898.00,0.0083
3897.00,0.0083
3896.00,0.0083
3895.00,0.0084
3894.00,0.0084
3893.00,0.0084
3892.00,0.0084
3891.00,0.0083
3890.00,0.0083
3889.00,0.0083
3888.00,0.0083
3887.00,0.0083
3886.00,0.0082
3885.00,0.0082
3884.00,0.0083
3883.00,0.0083
3882.00,0.0083
3881.00,0.0083
3880.00,0.0083
3879.00,0.0082
3878.00,0.0083
3877.00,0.0083
3876.00,0.0083
3875.00,0.0083
3874.00,0.0083
3873.00,0.0082
3872.00,0.0082
3871.00,0.0083
3870.00,0.0083
3869.00,0.0083
3868.00,0.0083
3867.00,0.0083
3866.00,0.0083
3865.00,0.0083
3864.00,0.0083
3863.00,0.0083
3862.00,0.0083
3861.00,0.0083
3860.00,0.0083
3859.00,0.0083
3858.00,0.0083
3857.00,0.0083
3856.00,0.0082
3855.00,0.0082
3854.00,0.0082
3853.00,0.0082
3852.00,0.0082
3851.00,0.0082
3850.00,0.0082
3849.00,0.0083
3848.00,0.0083
3847.00,0.0083
3846.00,0.0083
3845.00,0.0083
3844.00,0.0083
3843.00,0.0083
3842.00,0.0083
3841.00,0.0083
3840.00,0.0083
3839.00,0.0083
3838.00,0.0083
3837.00,0.0083
3836.00,0.0082
3835.00,0.0082
3834.00,0.0082
3833.00,0.0082
3832.00,0.0082
3831.00,0.0082
3830.00,0.0082
3829.00,0.0083
3828.00,0.0083
3827.00,0.0083
3826.00,0.0083
3825.00,0.0082
3824.00,0.0082
3823.00,0.0082
3822.00,0.0083
3821.00,0.0083
3820.00,0.0083
3819.00,0.0082
3818.00,0.0082
3817.00,0.0082
3816.00,0.0082
3815.00,0.0082
3814.00,0.0082
3813.00,0.0082
3812.00,0.0082
3811.00,0.0081
3810.00,0.0081
3809.00,0.0081
3808.00,0.0081
3807.00,0.0081
3806.00,0.0082
3805.00,0.0082
3804.00,0.0081
3803.00,0.0081
3802.00,0.0081
3801.00,0.0081
3800.00,0.0081
3799.00,0.0082
3798.00,0.0082
3797.00,0.0081
3796.00,0.0081
3795.00,0.0081
3794.00,0.0082
3793.00,0.0082
3792.00,0.0082
3791.00,0.0082
3790.00,0.0081
3789.00,0.0081
3788.00,0.0081
3787.00,0.0081
3786.00,0.0081
3785.00,0.0081
3784.00,0.0081
3783.00,0.0081
3782.00,0.0081
3781.00,0.0081
3780.00,0.0081
3779.00,0.0081
3778.00,0.0081
3777.00,0.0081
3776.00,0.0082
3775.00,0.0082
3774.00,0.0082
3773.00,0.0082
3772.00,0.0082
3771.00,0.0082
3770.00,0.0082
3769.00,0.0081
3768.00,0.0081
3767.00,0.0081
3766.00,0.0081
3765.00,0.0081
3764.00,0.0081
3763.00,0.0081
3762.00,0.0082
3761.00,0.0082
3760.00,0.0082
3759.00,0.0082
3758.00,0.0082
3757.00,0.0082
3756.00,0.0082
3755.00,0.0082
3754.00,0.0081
3753.00,0.0081
3752.00,0.0081
3751.00,0.0081
3750.00,0.0080
3749.00,0.0080
3748.00,0.0080
3747.00,0.0080
3746.00,0.0081
3745.00,0.0081
3744.00,0.0081
3743.00,0.0081
3742.00,0.0081
3741.00,0.0081
3740.00,0.0081
3739.00,0.0080
3738.00,0.0080
3737.00,0.0080
3736.00,0.0080
3735.00,0.0079
3734.00,0.0079
3733.00,0.0079
3732.00,0.0079
3731.00,0.0079
3730.00,0.0079
3729.00,0.0079
3728.00,0.0079
3727.00,0.0079
3726.00,0.0079
3725.00,0.0080
3724.00,0.0080
3723.00,0.0080
3722.00,0.0080
3721.00,0.0080
3720.00,0.0080
3719.00,0.0080
3718.00,0.0080
3717.00,0.0080
3716.00,0.0079
3715.00,0.0079
3714.00,0.0079
3713.00,0.0079
3712.00,0.0079
3711.00,0.0079
3710.00,0.0079
3709.00,0.0079
3708.00,0.0079
3707.00,0.0078
3706.00,0.0078
3705.00,0.0078
3704.00,0.0078
3703.00,0.0078
3702.00,0.0078
3701.00,0.0078
3700.00,0.0078
3699.00,0.0078
3698.00,0.0078
3697.00,0.0078
3696.00,0.0078
3695.00,0.0078
3694.00,0.0078
3693.00,0.0078
3692.00,0.0078
3691.00,0.0078
3690.00,0.0078
3689.00,0.0078
3688.00,0.0078
3687.00,0.0078
3686.00,0.0078
3685.00,0.0078
3684.00,0.0078
3683.00,0.0078
3682.00,0.0079
3681.00,0.0079
3680.00,0.0079
3679.00,0.0079
3678.00,0.0079
3677.00,0.0079
3676.00,0.0079
3675.00,0.0079
3674.00,0.0078
3673.00,0.0078
3672.00,0.0078
3671.00,0.0078
3670.00,0.0078
3669.00,0.0078
3668.00,0.0078
3667.00,0.0078
3666.00,0.0078
3665.00,0.0078
3664.00,0.0078
3663.00,0.0078
3662.00,0.0078
3661.00,0.0078
3660.00,0.0078
3659.00,0.0078
3658.00,0.0078
3657.00,0.0078
3656.00,0.0078
3655.00,0.0078
3654.00,0.0078
3653.00,0.0078
3652.00,0.0079
3651.00,0.0079
3650.00,0.0079
3649.00,0.0079
3648.00,0.0079
3647.00,0.0078
3646.00,0.0078
3645.00,0.0078
3644.00,0.0077
3643.00,0.0077
3642.00,0.0077
3641.00,0.0077
3640.00,0.0077
3639.00,0.0077
3638.00,0.0077
3637.00,0.0077
3636.00,0.0077
3635.00,0.0077
3634.00,0.0077
3633.00,0.0077
3632.00,0.0077
3631.00,0.0077
3630.00,0.0077
3629.00,0.0077
3628.00,0.0077
3627.00,0.0077
3626.00,0.0077
3625.00,0.0078
3624.00,0.0078
3623.00,0.0078
3622.00,0.0078
3621.00,0.0078
3620.00,0.0077
3619.00,0.0077
3618.00,0.0078
3617.00,0.0078
3616.00,0.0078
3615.00,0.0079
3614.00,0.0079
3613.00,0.0079
3612.00,0.0079
3611.00,0.0079
3610.00,0.0079
3609.00,0.0079
3608.00,0.0079
3607.00,0.0079
3606.00,0.0080
3605.00,0.0079
3604.00,0.0079
3603.00,0.0079
3602.00,0.0079
3601.00,0.0078
3600.00,0.0078
3599.00,0.0079
3598.00,0.0079
3597.00,0.0079
3596.00,0.0079
3595.00,0.0079
3594.00,0.0079
3593.00,0.0079
3592.00,0.0079
3591.00,0.0079
3590.00,0.0080
3589.00,0.0080
3588.00,0.0080
3587.00,0.0080
3586.00,0.0080
3585.00,0.0080
3584.00,0.0080
3583.00,0.0080
3582.00,0.0080
3581.00,0.0081
3580.00,0.0081
3579.00,0.0081
3578.00,0.0081
3577.00,0.0081
3576.00,0.0081
3575.00,0.0081
3574.00,0.0082
3573.00,0.0082
3572.00,0.0082
3571.00,0.0082
3570.00,0.0082
3569.00,0.0082
3568.00,0.0082
3567.00,0.0083
3566.00,0.0083
3565.00,0.0083
3564.00,0.0084
3563.00,0.0084
3562.00,0.0084
3561.00,0.0084
3560.00,0.0084
3559.00,0.0085
3558.00,0.0085
3557.00,0.0085
3556.00,0.0086
3555.00,0.0086
3554.00,0.0087
3553.00,0.0087
3552.00,0.0087
3551.00,0.0088
3550.00,0.0088
3549.00,0.0088
3548.00,0.0089
3547.00,0.0089
3546.00,0.0090
3545.00,0.0090
3544.00,0.0090
3543.00,0.0091
3542.00,0.0092
3541.00,0.0092
3540.00,0.0093
3539.00,0.0094
3538.00,0.0094
3537.00,0.0095
3536.00,0.0095
3535.00,0.0095
3534.00,0.0096
3533.00,0.0096
3532.00,0.0096
3531.00,0.0097
3530.00,0.0098
3529.00,0.0099
3528.00,0.0099
3527.00,0.0100
3526.00,0.0101
3525.00,0.0101
3524.00,0.0102
3523.00,0.0102
3522.00,0.0103
3521.00,0.0103
3520.00,0.0104
3519.00,0.0105
3518.00,0.0105
3517.00,0.0106
3516.00,0.0107
3515.00,0.0107
3514.00,0.0108
3513.00,0.0108
3512.00,0.0109
3511.00,0.0110
3510.00,0.0111
3509.00,0.0112
3508.00,0.0113
3507.00,0.0114
3506.00,0.0115
3505.00,0.0116
3504.00,0.0117
3503.00,0.0118
3502.00,0.0119
3501.00,0.0120
3500.00,0.0121
3499.00,0.0121
3498.00,0.0122
3497.00,0.0123
3496.00,0.0124
3495.00,0.0125
3494.00,0.0127
3493.00,0.0128
3492.00,0.0130
3491.00,0.0131
3490.00,0.0133
3489.00,0.0134
3488.00,0.0136
3487.00,0.0137
3486.00,0.0139
3485.00,0.0140
3484.00,0.0142
3483.00,0.0144
3482.00,0.0146
3481.00,0.0148
3480.00,0.0150
3479.00,0.0152
3478.00,0.0154
3477.00,0.0156
3476.00,0.0158
3475.00,0.0160
3474.00,0.0162
3473.00,0.0164
3472.00,0.0166
3471.00,0.0169
3470.00,0.0171
3469.00,0.0174
3468.00,0.0176
3467.00,0.0178
3466.00,0.0180
3465.00,0.0183
3464.00,0.0185
3463.00,0.0188
3462.00,0.0190
3461.00,0.0193
3460.00,0.0195
3459.00,0.0198
3458.00,0.0200
3457.00,0.0203
3456.00,0.0205
3455.00,0.0208
3454.00,0.0211
3453.00,0.0214
3452.00,0.0216
3451.00,0.0219
3450.00,0.0222
3449.00,0.0224
3448.00,0.0227
3447.00,0.0230
3446.00,0.0233
3445.00,0.0237
3444.00,0.0240
3443.00,0.0243
3442.00,0.0247
3441.00,0.0250
3440.00,0.0254
3439.00,0.0257
3438.00,0.0261
3437.00,0.0265
3436.00,0.0269
3435.00,0.0273
3434.00,0.0277
3433.00,0.0281
3432.00,0.0285
3431.00,0.0290
3430.00,0.0295
3429.00,0.0299
3428.00,0.0304
3427.00,0.0308
3426.00,0.0313
3425.00,0.0318
3424.00,0.0323
3423.00,0.0328
3422.00,0.0333
3421.00,0.0338
3420.00,0.0342
3419.00,0.0347
3418.00,0.0352
3417.00,0.0357
3416.00,0.0362
3415.00,0.0366
3414.00,0.0371
3413.00,0.0375
3412.00,0.0378
3411.00,0.0382
3410.00,0.0385
3409.00,0.0388
3408.00,0.0391
3407.00,0.0393
3406.00,0.0395
3405.00,0.0397
3404.00,0.0398
3403.00,0.0400
3402.00,0.0401
3401.00,0.0401
3400.00,0.0401
3399.00,0.0401
3398.00,0.0400
3397.00,0.0399
3396.00,0.0397
3395.00,0.0396
3394.00,0.0394
3393.00,0.0392
3392.00,0.0390
3391.00,0.0387
3390.00,0.0385
3389.00,0.0382
3388.00,0.0379
3387.00,0.0376
3386.00,0.0372
3385.00,0.0369
3384.00,0.0366
3383.00,0.0363
3382.00,0.0360
3381.00,0.0358
3380.00,0.0355
3379.00,0.0351
3378.00,0.0348
3377.00,0.0345
3376.00,0.0342
3375.00,0.0339
3374.00,0.0336
3373.00,0.0333
3372.00,0.0330
3371.00,0.0328
3370.00,0.0325
3369.00,0.0323
3368.00,0.0321
3367.00,0.0318
3366.00,0.0315
3365.00,0.0313
3364.00,0.0311
3363.00,0.0308
3362.00,0.0306
3361.00,0.0305
3360.00,0.0303
3359.00,0.0301
3358.00,0.0299
3357.00,0.0297
3356.00,0.0296
3355.00,0.0294
3354.00,0.0293
3353.00,0.0292
3352.00,0.0291
3351.00,0.0290
3350.00,0.0288
3349.00,0.0287
3348.00,0.0286
3347.00,0.0285
3346.00,0.0285
3345.00,0.0284
3344.00,0.0283
3343.00,0.0283
3342.00,0.0282
3341.00,0.0282
3340.00,0.0282
3339.00,0.0282
3338.00,0.0281
3337.00,0.0281
3336.00,0.0281
3335.00,0.0280
3334.00,0.0280
3333.00,0.0280
3332.00,0.0280
3331.00,0.0281
3330.00,0.0281
3329.00,0.0282
3328.00,0.0282
3327.00,0.0283
3326.00,0.0283
3325.00,0.0284
3324.00,0.0285
3323.00,0.0285
3322.00,0.0286
3321.00,0.0286
3320.00,0.0287
3319.00,0.0289
3318.00,0.0290
3317.00,0.0291
3316.00,0.0292
3315.00,0.0293
3314.00,0.0294
3313.00,0.0295
3312.00,0.0297
3311.00,0.0298
3310.00,0.0300
3309.00,0.0301
3308.00,0.0303
3307.00,0.0304
3306.00,0.0306
3305.00,0.0307
3304.00,0.0308
3303.00,0.0310
3302.00,0.0311
3301.00,0.0313
3300.00,0.0315
3299.00,0.0316
3298.00,0.0318
3297.00,0.0320
3296.00,0.0322
3295.00,0.0324
3294.00,0.0326
3293.00,0.0328
3292.00,0.0330
3291.00,0.0332
3290.00,0.0333
3289.00,0.0335
3288.00,0.0336
3287.00,0.0338
3286.00,0.0340
3285.00,0.0342
3284.00,0.0344
3283.00,0.0346
3282.00,0.0348
3281.00,0.0350
3280.00,0.0352
3279.00,0.0354
3278.00,0.0356
3277.00,0.0358
3276.00,0.0360
3275.00,0.0363
3274.00,0.0365
3273.00,0.0367
3272.00,0.0369
3271.00,0.0370
3270.00,0.0372
3269.00,0.0374
3268.00,0.0375
3267.00,0.0377
3266.00,0.0379
3265.00,0.0381
3264.00,0.0383
3263.00,0.0385
3262.00,0.0387
3261.00,0.0389
3260.00,0.0391
3259.00,0.0393
3258.00,0.0395
3257.00,0.0396
3256.00,0.0398
3255.00,0.0401
3254.00,0.0403
3253.00,0.0405
3252.00,0.0407
3251.00,0.0408
3250.00,0.0410
3249.00,0.0411
3248.00,0.0412
3247.00,0.0414
3246.00,0.0415
3245.00,0.0417
3244.00,0.0419
3243.00,0.0420
3242.00,0.0421
3241.00,0.0421
3240.00,0.0421
3239.00,0.0422
3238.00,0.0422
3237.00,0.0422
3236.00,0.0422
3235.00,0.0422
3234.00,0.0422
3233.00,0.0422
3232.00,0.0422
3231.00,0.0422
3230.00,0.0422
3229.00,0.0422
3228.00,0.0421
3227.00,0.0420
3226.00,0.0420
3225.00,0.0419
3224.00,0.0418
3223.00,0.0417
3222.00,0.0416
3221.00,0.0415
3220.00,0.0413
3219.00,0.0412
3218.00,0.0410
3217.00,0.0408
3216.00,0.0407
3215.00,0.0405
3214.00,0.0402
3213.00,0.0400
3212.00,0.0398
3211.00,0.0395
3210.00,0.0393
3209.00,0.0390
3208.00,0.0388
3207.00,0.0386
3206.00,0.0383
3205.00,0.0381
3204.00,0.0378
3203.00,0.0376
3202.00,0.0373
3201.00,0.0370
3200.00,0.0367
3199.00,0.0364
3198.00,0.0361
3197.00,0.0358
3196.00,0.0355
3195.00,0.0352
3194.00,0.0349
3193.00,0.0347
3192.00,0.0344
3191.00,0.0341
3190.00,0.0339
3189.00,0.0336
3188.00,0.0333
3187.00,0.0330
3186.00,0.0327
3185.00,0.0324
3184.00,0.0321
3183.00,0.0318
3182.00,0.0316
3181.00,0.0313
3180.00,0.0310
3179.00,0.0307
3178.00,0.0304
3177.00,0.0301
3176.00,0.0299
3175.00,0.0296
3174.00,0.0293
3173.00,0.0291
3172.00,0.0288
3171.00,0.0285
3170.00,0.0282
3169.00,0.0279
3168.00,0.0276
3167.00,0.0273
3166.00,0.0271
3165.00,0.0268
3164.00,0.0265
3163.00,0.0262
3162.00,0.0259
3161.00,0.0257
3160.00,0.0254
3159.00,0.0251
3158.00,0.0249
3157.00,0.0246
3156.00,0.0243
3155.00,0.0240
3154.00,0.0237
3153.00,0.0235
3152.00,0.0232
3151.00,0.0230
3150.00,0.0228
3149.00,0.0226
3148.00,0.0224
3147.00,0.0222
3146.00,0.0220
3145.00,0.0218
3144.00,0.0216
3143.00,0.0214
3142.00,0.0211
3141.00,0.0209
3140.00,0.0207
3139.00,0.0205
3138.00,0.0203
3137.00,0.0201
3136.00,0.0200
3135.00,0.0198
3134.00,0.0196
3133.00,0.0194
3132.00,0.0193
3131.00,0.0192
3130.00,0.0190
3129.00,0.0189
3128.00,0.0188
3127.00,0.0187
3126.00,0.0185
3125.00,0.0184
3124.00,0.0183
3123.00,0.0182
3122.00,0.0181
3121.00,0.0180
3120.00,0.0179
3119.00,0.0178
3118.00,0.0176
3117.00,0.0175
3116.00,0.0174
3115.00,0.0173
3114.00,0.0171
3113.00,0.0170
3112.00,0.0168
3111.00,0.0166
3110.00,0.0165
3109.00,0.0163
3108.00,0.0161
3107.00,0.0160
3106.00,0.0158
3105.00,0.0157
3104.00,0.0156
3103.00,0.0155
3102.00,0.0155
3101.00,0.0154
3100.00,0.0153
3099.00,0.0153
3098.00,0.0152
3097.00,0.0152
3096.00,0.0151
3095.00,0.0151
3094.00,0.0151
3093.00,0.0152
3092.00,0.0152
3091.00,0.0152
3090.00,0.0153
3089.00,0.0154
3088.00,0.0155
3087.00,0.0155
3086.00,0.0156
3085.00,0.0156
3084.00,0.0157
3083.00,0.0157
3082.00,0.0157
3081.00,0.0156
3080.00,0.0156
3079.00,0.0155
3078.00,0.0154
3077.00,0.0154
3076.00,0.0153
3075.00,0.0153
3074.00,0.0152
3073.00,0.0152
3072.00,0.0151
3071.00,0.0151
3070.00,0.0151
3069.00,0.0150
3068.00,0.0150
3067.00,0.0150
3066.00,0.0150
3065.00,0.0150
3064.00,0.0150
3063.00,0.0151
3062.00,0.0151
3061.00,0.0151
3060.00,0.0152
3059.00,0.0152
3058.00,0.0153
3057.00,0.0153
3056.00,0.0154
3055.00,0.0154
3054.00,0.0155
3053.00,0.0155
3052.00,0.0155
3051.00,0.0154
3050.00,0.0154
3049.00,0.0154
3048.00,0.0153
3047.00,0.0153
3046.00,0.0153
3045.00,0.0153
3044.00,0.0153
3043.00,0.0153
3042.00,0.0154
3041.00,0.0154
3040.00,0.0156
3039.00,0.0157
3038.00,0.0159
3037.00,0.0161
3036.00,0.0163
3035.00,0.0165
3034.00,0.0166
3033.00,0.0167
3032.00,0.0167
3031.00,0.0167
3030.00,0.0166
3029.00,0.0165
3028.00,0.0163
3027.00,0.0161
3026.00,0.0159
3025.00,0.0156
3024.00,0.0154
3023.00,0.0152
3022.00,0.0150
3021.00,0.0149
3020.00,0.0148
3019.00,0.0146
3018.00,0.0145
3017.00,0.0144
3016.00,0.0144
3015.00,0.0143
3014.00,0.0143
3013.00,0.0144
3012.00,0.0144
3011.00,0.0145
3010.00,0.0146
3009.00,0.0147
3008.00,0.0148
3007.00,0.0150
3006.00,0.0153
3005.00,0.0156
3004.00,0.0159
3003.00,0.0163
3002.00,0.0167
3001.00,0.0172
3000.00,0.0177
2999.00,0.0183
2998.00,0.0189
2997.00,0.0197
2996.00,0.0205
2995.00,0.0214
2994.00,0.0222
2993.00,0.0229
2992.00,0.0235
2991.00,0.0240
2990.00,0.0244
2989.00,0.0248
2988.00,0.0253
2987.00,0.0258
2986.00,0.0264
2985.00,0.0273
2984.00,0.0284
2983.00,0.0297
2982.00,0.0313
2981.00,0.0329
2980.00,0.0344
2979.00,0.0356
2978.00,0.0363
2977.00,0.0366
2976.00,0.0368
2975.00,0.0373
2974.00,0.0383
2973.00,0.0399
2972.00,0.0419
2971.00,0.0439
2970.00,0.0457
2969.00,0.0469
2968.00,0.0477
2967.00,0.0483
2966.00,0.0488
2965.00,0.0496
2964.00,0.0506
2963.00,0.0518
2962.00,0.0530
2961.00,0.0540
2960.00,0.0545
2959.00,0.0545
2958.00,0.0539
2957.00,0.0526
2956.00,0.0508
2955.00,0.0488
2954.00,0.0467
2953.00,0.0447
2952.00,0.0430
2951.00,0.0415
2950.00,0.0405
2949.00,0.0398
2948.00,0.0395
2947.00,0.0397
2946.00,0.0402
2945.00,0.0410
2944.00,0.0422
2943.00,0.0435
2942.00,0.0450
2941.00,0.0467
2940.00,0.0486
2939.00,0.0508
2938.00,0.0534
2937.00,0.0563
2936.00,0.0598
2935.00,0.0635
2934.00,0.0676
2933.00,0.0718
2932.00,0.0761
2931.00,0.0801
2930.00,0.0836
2929.00,0.0865
2928.00,0.0885
2927.00,0.0895
2926.00,0.0894
2925.00,0.0884
2924.00,0.0866
2923.00,0.0843
2922.00,0.0816
2921.00,0.0788
2920.00,0.0758
2919.00,0.0728
2918.00,0.0698
2917.00,0.0668
2916.00,0.0639
2915.00,0.0612
2914.00,0.0586
2913.00,0.0562
2912.00,0.0541
2911.00,0.0521
2910.00,0.0504
2909.00,0.0487
2908.00,0.0473
2907.00,0.0459
2906.00,0.0446
2905.00,0.0434
2904.00,0.0422
2903.00,0.0411
2902.00,0.0400
2901.00,0.0390
2900.00,0.0379
2899.00,0.0369
2898.00,0.0360
2897.00,0.0351
2896.00,0.0343
2895.00,0.0336
2894.00,0.0330
2893.00,0.0323
2892.00,0.0318
2891.00,0.0313
2890.00,0.0308
2889.00,0.0303
2888.00,0.0299
2887.00,0.0295
2886.00,0.0292
2885.00,0.0290
2884.00,0.0288
2883.00,0.0288
2882.00,0.0289
2881.00,0.0293
2880.00,0.0299
2879.00,0.0307
2878.00,0.0318
2877.00,0.0332
2876.00,0.0346
2875.00,0.0361
2874.00,0.0373
2873.00,0.0383
2872.00,0.0388
2871.00,0.0389
2870.00,0.0387
2869.00,0.0384
2868.00,0.0381
2867.00,0.0380
2866.00,0.0383
2865.00,0.0390
2864.00,0.0404
2863.00,0.0424
2862.00,0.0449
2861.00,0.0478
2860.00,0.0510
2859.00,0.0541
2858.00,0.0568
2857.00,0.0588
2856.00,0.0601
2855.00,0.0605
2854.00,0.0602
2853.00,0.0594
2852.00,0.0580
2851.00,0.0559
2850.00,0.0533
2849.00,0.0501
2848.00,0.0467
2847.00,0.0432
2846.00,0.0399
2845.00,0.0369
2844.00,0.0342
2843.00,0.0318
2842.00,0.0298
2841.00,0.0279
2840.00,0.0264
2839.00,0.0251
2838.00,0.0240
2837.00,0.0230
2836.00,0.0222
2835.00,0.0215
2834.00,0.0209
2833.00,0.0203
2832.00,0.0199
2831.00,0.0194
2830.00,0.0190
2829.00,0.0186
2828.00,0.0182
2827.00,0.0179
2826.00,0.0176
2825.00,0.0173
2824.00,0.0170
2823.00,0.0167
2822.00,0.0165
2821.00,0.0163
2820.00,0.0161
2819.00,0.0159
2818.00,0.0158
2817.00,0.0156
2816.00,0.0155
2815.00,0.0154
2814.00,0.0152
2813.00,0.0151
2812.00,0.0150
2811.00,0.0148
2810.00,0.0147
2809.00,0.0146
2808.00,0.0146
2807.00,0.0145
2806.00,0.0144
2805.00,0.0143
2804.00,0.0142
2803.00,0.0142
2802.00,0.0141
2801.00,0.0140
2800.00,0.0139
2799.00,0.0138
2798.00,0.0137
2797.00,0.0137
2796.00,0.0136
2795.00,0.0135
2794.00,0.0135
2793.00,0.0134
2792.00,0.0133
2791.00,0.0132
2790.00,0.0131
2789.00,0.0130
2788.00,0.0129
2787.00,0.0129
2786.00,0.0128
2785.00,0.0128
2784.00,0.0127
2783.00,0.0127
2782.00,0.0126
2781.00,0.0125
2780.00,0.0125
2779.00,0.0124
2778.00,0.0124
2777.00,0.0123
2776.00,0.0122
2775.00,0.0122
2774.00,0.0122
2773.00,0.0122
2772.00,0.0122
2771.00,0.0122
2770.00,0.0122
2769.00,0.0122
2768.00,0.0122
2767.00,0.0121
2766.00,0.0121
2765.00,0.0121
2764.00,0.0121
2763.00,0.0121
2762.00,0.0122
2761.00,0.0122
2760.00,0.0122
2759.00,0.0122
2758.00,0.0122
2757.00,0.0123
