Created as New Dataset,Sample 671 By YargerLab Date Wednesday, June 11 2025
cm-1,A
4000.00,0.0029
3999.00,0.0029
3998.00,0.0029
3997.00,0.0029
3996.00,0.0028
3995.00,0.0028
3994.00,0.0028
3993.00,0.0028
3992.00,0.0028
3991.00,0.0028
3990.00,0.0028
3989.00,0.0027
3988.00,0.0027
3987.00,0.0027
3986.00,0.0027
3985.00,0.0027
3984.00,0.0027
3983.00,0.0027
3982.00,0.0028
3981.00,0.0028
3980.00,0.0028
3979.00,0.0028
3978.00,0.0028
3977.00,0.0028
3976.00,0.0028
3975.00,0.0028
3974.00,0.0028
3973.00,0.0027
3972.00,0.0027
3971.00,0.0027
3970.00,0.0027
3969.00,0.0027
3968.00,0.0027
3967.00,0.0027
3966.00,0.0027
3965.00,0.0027
3964.00,0.0027
3963.00,0.0027
3962.00,0.0028
3961.00,0.0028
3960.00,0.0028
3959.00,0.0028
3958.00,0.0028
3957.00,0.0027
3956.00,0.0027
3955.00,0.0027
3954.00,0.0027
3953.00,0.0027
3952.00,0.0027
3951.00,0.0027
3950.00,0.0027
3949.00,0.0027
3948.00,0.0027
3947.00,0.0027
3946.00,0.0027
3945.00,0.0027
3944.00,0.0027
3943.00,0.0027
3942.00,0.0027
3941.00,0.0027
3940.00,0.0027
3939.00,0.0027
3938.00,0.0027
3937.00,0.0027
3936.00,0.0027
3935.00,0.0027
3934.00,0.0027
3933.00,0.0027
3932.00,0.0027
3931.00,0.0027
3930.00,0.0027
3929.00,0.0027
3928.00,0.0027
3927.00,0.0027
3926.00,0.0027
3925.00,0.0027
3924.00,0.0027
3923.00,0.0027
3922.00,0.0026
3921.00,0.0026
3920.00,0.0026
3919.00,0.0026
3918.00,0.0026
3917.00,0.0026
3916.00,0.0026
3915.00,0.0026
3914.00,0.0027
3913.00,0.0027
3912.00,0.0027
3911.00,0.0027
3910.00,0.0027
3909.00,0.0027
3908.00,0.0027
3907.00,0.0026
3906.00,0.0026
3905.00,0.0026
3904.00,0.0025
3903.00,0.0025
3902.00,0.0024
3901.00,0.0024
3900.00,0.0025
3899.00,0.0025
3898.00,0.0026
3897.00,0.0026
3896.00,0.0026
3895.00,0.0026
3894.00,0.0026
3893.00,0.0026
3892.00,0.0026
3891.00,0.0026
3890.00,0.0026
3889.00,0.0025
3888.00,0.0025
3887.00,0.0025
3886.00,0.0026
3885.00,0.0026
3884.00,0.0025
3883.00,0.0025
3882.00,0.0025
3881.00,0.0025
3880.00,0.0025
3879.00,0.0025
3878.00,0.0025
3877.00,0.0025
3876.00,0.0025
3875.00,0.0026
3874.00,0.0026
3873.00,0.0026
3872.00,0.0025
3871.00,0.0025
3870.00,0.0025
3869.00,0.0025
3868.00,0.0025
3867.00,0.0025
3866.00,0.0025
3865.00,0.0025
3864.00,0.0025
3863.00,0.0025
3862.00,0.0025
3861.00,0.0025
3860.00,0.0025
3859.00,0.0025
3858.00,0.0025
3857.00,0.0024
3856.00,0.0024
3855.00,0.0024
3854.00,0.0024
3853.00,0.0024
3852.00,0.0024
3851.00,0.0024
3850.00,0.0025
3849.00,0.0025
3848.00,0.0025
3847.00,0.0026
3846.00,0.0026
3845.00,0.0026
3844.00,0.0026
3843.00,0.0026
3842.00,0.0025
3841.00,0.0025
3840.00,0.0025
3839.00,0.0025
3838.00,0.0025
3837.00,0.0025
3836.00,0.0025
3835.00,0.0025
3834.00,0.0025
3833.00,0.0025
3832.00,0.0025
3831.00,0.0026
3830.00,0.0026
3829.00,0.0026
3828.00,0.0026
3827.00,0.0026
3826.00,0.0026
3825.00,0.0026
3824.00,0.0025
3823.00,0.0025
3822.00,0.0025
3821.00,0.0025
3820.00,0.0025
3819.00,0.0025
3818.00,0.0025
3817.00,0.0025
3816.00,0.0026
3815.00,0.0026
3814.00,0.0026
3813.00,0.0026
3812.00,0.0026
3811.00,0.0026
3810.00,0.0026
3809.00,0.0026
3808.00,0.0026
3807.00,0.0027
3806.00,0.0026
3805.00,0.0026
3804.00,0.0026
3803.00,0.0026
3802.00,0.0026
3801.00,0.0026
3800.00,0.0026
3799.00,0.0026
3798.00,0.0026
3797.00,0.0026
3796.00,0.0026
3795.00,0.0026
3794.00,0.0026
3793.00,0.0026
3792.00,0.0026
3791.00,0.0026
3790.00,0.0027
3789.00,0.0027
3788.00,0.0027
3787.00,0.0027
3786.00,0.0027
3785.00,0.0026
3784.00,0.0026
3783.00,0.0026
3782.00,0.0026
3781.00,0.0026
3780.00,0.0026
3779.00,0.0026
3778.00,0.0027
3777.00,0.0027
3776.00,0.0027
3775.00,0.0027
3774.00,0.0027
3773.00,0.0026
3772.00,0.0026
3771.00,0.0026
3770.00,0.0026
3769.00,0.0026
3768.00,0.0026
3767.00,0.0026
3766.00,0.0026
3765.00,0.0026
3764.00,0.0026
3763.00,0.0026
3762.00,0.0026
3761.00,0.0026
3760.00,0.0026
3759.00,0.0026
3758.00,0.0026
3757.00,0.0026
3756.00,0.0026
3755.00,0.0026
3754.00,0.0025
3753.00,0.0025
3752.00,0.0025
3751.00,0.0025
3750.00,0.0024
3749.00,0.0024
3748.00,0.0023
3747.00,0.0023
3746.00,0.0023
3745.00,0.0023
3744.00,0.0024
3743.00,0.0024
3742.00,0.0024
3741.00,0.0024
3740.00,0.0024
3739.00,0.0024
3738.00,0.0024
3737.00,0.0024
3736.00,0.0024
3735.00,0.0024
3734.00,0.0024
3733.00,0.0024
3732.00,0.0024
3731.00,0.0024
3730.00,0.0025
3729.00,0.0025
3728.00,0.0025
3727.00,0.0025
3726.00,0.0025
3725.00,0.0025
3724.00,0.0025
3723.00,0.0024
3722.00,0.0025
3721.00,0.0025
3720.00,0.0025
3719.00,0.0025
3718.00,0.0025
3717.00,0.0025
3716.00,0.0025
3715.00,0.0025
3714.00,0.0025
3713.00,0.0025
3712.00,0.0025
3711.00,0.0025
3710.00,0.0025
3709.00,0.0025
3708.00,0.0025
3707.00,0.0025
3706.00,0.0025
3705.00,0.0025
3704.00,0.0025
3703.00,0.0025
3702.00,0.0025
3701.00,0.0025
3700.00,0.0025
3699.00,0.0025
3698.00,0.0025
3697.00,0.0026
3696.00,0.0026
3695.00,0.0025
3694.00,0.0025
3693.00,0.0025
3692.00,0.0024
3691.00,0.0023
3690.00,0.0023
3689.00,0.0022
3688.00,0.0022
3687.00,0.0023
3686.00,0.0023
3685.00,0.0023
3684.00,0.0023
3683.00,0.0022
3682.00,0.0022
3681.00,0.0022
3680.00,0.0021
3679.00,0.0021
3678.00,0.0020
3677.00,0.0019
3676.00,0.0019
3675.00,0.0018
3674.00,0.0018
3673.00,0.0017
3672.00,0.0017
3671.00,0.0017
3670.00,0.0017
3669.00,0.0017
3668.00,0.0016
3667.00,0.0017
3666.00,0.0017
3665.00,0.0017
3664.00,0.0017
3663.00,0.0018
3662.00,0.0018
3661.00,0.0017
3660.00,0.0017
3659.00,0.0017
3658.00,0.0017
3657.00,0.0017
3656.00,0.0017
3655.00,0.0017
3654.00,0.0017
3653.00,0.0017
3652.00,0.0017
3651.00,0.0017
3650.00,0.0017
3649.00,0.0017
3648.00,0.0017
3647.00,0.0018
3646.00,0.0018
3645.00,0.0019
3644.00,0.0019
3643.00,0.0020
3642.00,0.0020
3641.00,0.0020
3640.00,0.0020
3639.00,0.0020
3638.00,0.0020
3637.00,0.0020
3636.00,0.0020
3635.00,0.0021
3634.00,0.0021
3633.00,0.0022
3632.00,0.0022
3631.00,0.0022
3630.00,0.0022
3629.00,0.0022
3628.00,0.0022
3627.00,0.0022
3626.00,0.0023
3625.00,0.0023
3624.00,0.0024
3623.00,0.0025
3622.00,0.0025
3621.00,0.0025
3620.00,0.0024
3619.00,0.0024
3618.00,0.0024
3617.00,0.0024
3616.00,0.0025
3615.00,0.0025
3614.00,0.0025
3613.00,0.0024
3612.00,0.0024
3611.00,0.0024
3610.00,0.0024
3609.00,0.0024
3608.00,0.0025
3607.00,0.0025
3606.00,0.0025
3605.00,0.0026
3604.00,0.0026
3603.00,0.0026
3602.00,0.0026
3601.00,0.0026
3600.00,0.0026
3599.00,0.0026
3598.00,0.0026
3597.00,0.0026
3596.00,0.0026
3595.00,0.0026
3594.00,0.0026
3593.00,0.0026
3592.00,0.0026
3591.00,0.0026
3590.00,0.0026
3589.00,0.0026
3588.00,0.0026
3587.00,0.0026
3586.00,0.0026
3585.00,0.0026
3584.00,0.0027
3583.00,0.0027
3582.00,0.0027
3581.00,0.0028
3580.00,0.0028
3579.00,0.0028
3578.00,0.0028
3577.00,0.0027
3576.00,0.0027
3575.00,0.0027
3574.00,0.0027
3573.00,0.0027
3572.00,0.0027
3571.00,0.0027
3570.00,0.0026
3569.00,0.0026
3568.00,0.0026
3567.00,0.0026
3566.00,0.0026
3565.00,0.0026
3564.00,0.0026
3563.00,0.0027
3562.00,0.0027
3561.00,0.0027
3560.00,0.0026
3559.00,0.0026
3558.00,0.0026
3557.00,0.0026
3556.00,0.0026
3555.00,0.0027
3554.00,0.0027
3553.00,0.0027
3552.00,0.0027
3551.00,0.0027
3550.00,0.0027
3549.00,0.0027
3548.00,0.0028
3547.00,0.0028
3546.00,0.0028
3545.00,0.0028
3544.00,0.0028
3543.00,0.0028
3542.00,0.0028
3541.00,0.0028
3540.00,0.0028
3539.00,0.0028
3538.00,0.0028
3537.00,0.0028
3536.00,0.0028
3535.00,0.0028
3534.00,0.0028
3533.00,0.0028
3532.00,0.0028
3531.00,0.0028
3530.00,0.0028
3529.00,0.0028
3528.00,0.0028
3527.00,0.0029
3526.00,0.0029
3525.00,0.0029
3524.00,0.0029
3523.00,0.0029
3522.00,0.0029
3521.00,0.0029
3520.00,0.0029
3519.00,0.0029
3518.00,0.0029
3517.00,0.0029
3516.00,0.0030
3515.00,0.0030
3514.00,0.0030
3513.00,0.0030
3512.00,0.0030
3511.00,0.0030
3510.00,0.0030
3509.00,0.0030
3508.00,0.0030
3507.00,0.0030
3506.00,0.0030
3505.00,0.0030
3504.00,0.0031
3503.00,0.0031
3502.00,0.0031
3501.00,0.0031
3500.00,0.0031
3499.00,0.0031
3498.00,0.0030
3497.00,0.0030
3496.00,0.0030
3495.00,0.0030
3494.00,0.0030
3493.00,0.0031
3492.00,0.0031
3491.00,0.0031
3490.00,0.0031
3489.00,0.0031
3488.00,0.0031
3487.00,0.0031
3486.00,0.0031
3485.00,0.0031
3484.00,0.0031
3483.00,0.0031
3482.00,0.0031
3481.00,0.0031
3480.00,0.0031
3479.00,0.0032
3478.00,0.0032
3477.00,0.0032
3476.00,0.0032
3475.00,0.0032
3474.00,0.0032
3473.00,0.0032
3472.00,0.0032
3471.00,0.0032
3470.00,0.0032
3469.00,0.0033
3468.00,0.0032
3467.00,0.0032
3466.00,0.0032
3465.00,0.0032
3464.00,0.0032
3463.00,0.0032
3462.00,0.0032
3461.00,0.0032
3460.00,0.0032
3459.00,0.0032
3458.00,0.0032
3457.00,0.0032
3456.00,0.0032
3455.00,0.0032
3454.00,0.0032
3453.00,0.0032
3452.00,0.0033
3451.00,0.0033
3450.00,0.0032
3449.00,0.0032
3448.00,0.0032
3447.00,0.0032
3446.00,0.0032
3445.00,0.0033
3444.00,0.0033
3443.00,0.0033
3442.00,0.0033
3441.00,0.0033
3440.00,0.0033
3439.00,0.0033
3438.00,0.0033
3437.00,0.0033
3436.00,0.0033
3435.00,0.0033
3434.00,0.0033
3433.00,0.0032
3432.00,0.0032
3431.00,0.0032
3430.00,0.0032
3429.00,0.0032
3428.00,0.0032
3427.00,0.0032
3426.00,0.0032
3425.00,0.0032
3424.00,0.0032
3423.00,0.0032
3422.00,0.0032
3421.00,0.0032
3420.00,0.0032
3419.00,0.0032
3418.00,0.0032
3417.00,0.0032
3416.00,0.0032
3415.00,0.0032
3414.00,0.0032
3413.00,0.0032
3412.00,0.0032
3411.00,0.0032
3410.00,0.0032
3409.00,0.0032
3408.00,0.0032
3407.00,0.0032
3406.00,0.0032
3405.00,0.0032
3404.00,0.0032
3403.00,0.0032
3402.00,0.0032
3401.00,0.0032
3400.00,0.0032
3399.00,0.0032
3398.00,0.0032
3397.00,0.0032
3396.00,0.0033
3395.00,0.0033
3394.00,0.0033
3393.00,0.0033
3392.00,0.0032
3391.00,0.0032
3390.00,0.0032
3389.00,0.0032
3388.00,0.0032
3387.00,0.0032
3386.00,0.0032
3385.00,0.0032
3384.00,0.0032
3383.00,0.0033
3382.00,0.0032
3381.00,0.0032
3380.00,0.0032
3379.00,0.0032
3378.00,0.0032
3377.00,0.0032
3376.00,0.0032
3375.00,0.0032
3374.00,0.0032
3373.00,0.0032
3372.00,0.0032
3371.00,0.0032
3370.00,0.0033
3369.00,0.0033
3368.00,0.0033
3367.00,0.0032
3366.00,0.0032
3365.00,0.0032
3364.00,0.0032
3363.00,0.0032
3362.00,0.0032
3361.00,0.0032
3360.00,0.0032
3359.00,0.0032
3358.00,0.0032
3357.00,0.0032
3356.00,0.0031
3355.00,0.0031
3354.00,0.0031
3353.00,0.0031
3352.00,0.0031
3351.00,0.0032
3350.00,0.0032
3349.00,0.0032
3348.00,0.0032
3347.00,0.0032
3346.00,0.0032
3345.00,0.0032
3344.00,0.0032
3343.00,0.0032
3342.00,0.0032
3341.00,0.0032
3340.00,0.0032
3339.00,0.0032
3338.00,0.0032
3337.00,0.0032
3336.00,0.0032
3335.00,0.0031
3334.00,0.0031
3333.00,0.0031
3332.00,0.0031
3331.00,0.0031
3330.00,0.0031
3329.00,0.0031
3328.00,0.0031
3327.00,0.0031
3326.00,0.0031
3325.00,0.0031
3324.00,0.0031
3323.00,0.0031
3322.00,0.0031
3321.00,0.0031
3320.00,0.0031
3319.00,0.0031
3318.00,0.0031
3317.00,0.0032
3316.00,0.0032
3315.00,0.0032
3314.00,0.0032
3313.00,0.0032
3312.00,0.0032
3311.00,0.0031
3310.00,0.0031
3309.00,0.0031
3308.00,0.0031
3307.00,0.0031
3306.00,0.0031
3305.00,0.0031
3304.00,0.0031
3303.00,0.0031
3302.00,0.0031
3301.00,0.0031
3300.00,0.0031
3299.00,0.0031
3298.00,0.0031
3297.00,0.0031
3296.00,0.0031
3295.00,0.0031
3294.00,0.0031
3293.00,0.0031
3292.00,0.0031
3291.00,0.0031
3290.00,0.0031
3289.00,0.0031
3288.00,0.0031
3287.00,0.0031
3286.00,0.0031
3285.00,0.0031
3284.00,0.0031
3283.00,0.0031
3282.00,0.0031
3281.00,0.0031
3280.00,0.0031
3279.00,0.0031
3278.00,0.0031
3277.00,0.0031
3276.00,0.0031
3275.00,0.0031
3274.00,0.0031
3273.00,0.0031
3272.00,0.0031
3271.00,0.0031
3270.00,0.0031
3269.00,0.0031
3268.00,0.0030
3267.00,0.0030
3266.00,0.0030
3265.00,0.0030
3264.00,0.0031
3263.00,0.0030
3262.00,0.0030
3261.00,0.0030
3260.00,0.0030
3259.00,0.0030
3258.00,0.0030
3257.00,0.0030
3256.00,0.0030
3255.00,0.0030
3254.00,0.0030
3253.00,0.0030
3252.00,0.0030
3251.00,0.0030
3250.00,0.0030
3249.00,0.0030
3248.00,0.0030
3247.00,0.0030
3246.00,0.0030
3245.00,0.0030
3244.00,0.0030
3243.00,0.0030
3242.00,0.0029
3241.00,0.0029
3240.00,0.0029
3239.00,0.0029
3238.00,0.0029
3237.00,0.0029
3236.00,0.0030
3235.00,0.0030
3234.00,0.0029
3233.00,0.0029
3232.00,0.0029
3231.00,0.0029
3230.00,0.0029
3229.00,0.0029
3228.00,0.0029
3227.00,0.0029
3226.00,0.0029
3225.00,0.0029
3224.00,0.0029
3223.00,0.0029
3222.00,0.0029
3221.00,0.0029
3220.00,0.0029
3219.00,0.0029
3218.00,0.0029
3217.00,0.0030
3216.00,0.0030
3215.00,0.0030
3214.00,0.0030
3213.00,0.0030
3212.00,0.0030
3211.00,0.0030
3210.00,0.0030
3209.00,0.0030
3208.00,0.0030
3207.00,0.0030
3206.00,0.0030
3205.00,0.0030
3204.00,0.0030
3203.00,0.0030
3202.00,0.0030
3201.00,0.0030
3200.00,0.0030
3199.00,0.0030
3198.00,0.0030
3197.00,0.0030
3196.00,0.0030
3195.00,0.0030
3194.00,0.0030
3193.00,0.0029
3192.00,0.0029
3191.00,0.0029
3190.00,0.0029
3189.00,0.0029
3188.00,0.0029
3187.00,0.0029
3186.00,0.0028
3185.00,0.0028
3184.00,0.0028
3183.00,0.0028
3182.00,0.0028
3181.00,0.0028
3180.00,0.0028
3179.00,0.0028
3178.00,0.0028
3177.00,0.0028
3176.00,0.0028
3175.00,0.0028
3174.00,0.0029
3173.00,0.0029
3172.00,0.0029
3171.00,0.0029
3170.00,0.0030
3169.00,0.0030
3168.00,0.0030
3167.00,0.0031
3166.00,0.0031
3165.00,0.0031
3164.00,0.0031
3163.00,0.0031
3162.00,0.0031
3161.00,0.0031
3160.00,0.0031
3159.00,0.0031
3158.00,0.0030
3157.00,0.0030
3156.00,0.0030
3155.00,0.0030
3154.00,0.0029
3153.00,0.0029
3152.00,0.0028
3151.00,0.0028
3150.00,0.0028
3149.00,0.0028
3148.00,0.0028
3147.00,0.0028
3146.00,0.0028
3145.00,0.0029
3144.00,0.0029
3143.00,0.0029
3142.00,0.0029
3141.00,0.0029
3140.00,0.0028
3139.00,0.0028
3138.00,0.0028
3137.00,0.0029
3136.00,0.0029
3135.00,0.0029
3134.00,0.0029
3133.00,0.0029
3132.00,0.0029
3131.00,0.0029
3130.00,0.0029
3129.00,0.0030
3128.00,0.0030
3127.00,0.0030
3126.00,0.0030
3125.00,0.0030
3124.00,0.0030
3123.00,0.0031
3122.00,0.0031
3121.00,0.0032
3120.00,0.0033
3119.00,0.0033
3118.00,0.0034
3117.00,0.0035
3116.00,0.0036
3115.00,0.0037
3114.00,0.0039
3113.00,0.0041
3112.00,0.0044
3111.00,0.0047
3110.00,0.0050
3109.00,0.0054
3108.00,0.0057
3107.00,0.0060
3106.00,0.0063
3105.00,0.0065
3104.00,0.0066
3103.00,0.0067
3102.00,0.0067
3101.00,0.0066
3100.00,0.0065
3099.00,0.0064
3098.00,0.0063
3097.00,0.0062
3096.00,0.0063
3095.00,0.0064
3094.00,0.0066
3093.00,0.0070
3092.00,0.0075
3091.00,0.0082
3090.00,0.0090
3089.00,0.0099
3088.00,0.0110
3087.00,0.0122
3086.00,0.0133
3085.00,0.0143
3084.00,0.0150
3083.00,0.0154
3082.00,0.0155
3081.00,0.0152
3080.00,0.0146
3079.00,0.0139
3078.00,0.0132
3077.00,0.0125
3076.00,0.0120
3075.00,0.0117
3074.00,0.0115
3073.00,0.0115
3072.00,0.0116
3071.00,0.0119
3070.00,0.0124
3069.00,0.0131
3068.00,0.0139
3067.00,0.0149
3066.00,0.0160
3065.00,0.0172
3064.00,0.0184
3063.00,0.0195
3062.00,0.0204
3061.00,0.0210
3060.00,0.0212
3059.00,0.0211
3058.00,0.0205
3057.00,0.0196
3056.00,0.0185
3055.00,0.0173
3054.00,0.0162
3053.00,0.0151
3052.00,0.0141
3051.00,0.0132
3050.00,0.0125
3049.00,0.0119
3048.00,0.0115
3047.00,0.0112
3046.00,0.0110
3045.00,0.0110
3044.00,0.0111
3043.00,0.0113
3042.00,0.0117
3041.00,0.0123
3040.00,0.0129
3039.00,0.0138
3038.00,0.0148
3037.00,0.0160
3036.00,0.0175
3035.00,0.0193
3034.00,0.0214
3033.00,0.0238
3032.00,0.0264
3031.00,0.0293
3030.00,0.0323
3029.00,0.0352
3028.00,0.0377
3027.00,0.0396
3026.00,0.0406
3025.00,0.0406
3024.00,0.0394
3023.00,0.0373
3022.00,0.0343
3021.00,0.0310
3020.00,0.0275
3019.00,0.0241
3018.00,0.0211
3017.00,0.0185
3016.00,0.0162
3015.00,0.0144
3014.00,0.0129
3013.00,0.0117
3012.00,0.0108
3011.00,0.0100
3010.00,0.0095
3009.00,0.0092
3008.00,0.0090
3007.00,0.0090
3006.00,0.0090
3005.00,0.0091
3004.00,0.0092
3003.00,0.0092
3002.00,0.0091
3001.00,0.0087
3000.00,0.0082
2999.00,0.0075
2998.00,0.0066
2997.00,0.0057
2996.00,0.0049
2995.00,0.0041
2994.00,0.0035
2993.00,0.0029
2992.00,0.0025
2991.00,0.0021
2990.00,0.0019
2989.00,0.0017
2988.00,0.0015
2987.00,0.0012
2986.00,0.0008
2985.00,0.0002
2984.00,-0.0005
2983.00,-0.0012
2982.00,-0.0017
2981.00,-0.0018
2980.00,-0.0015
2979.00,-0.0011
2978.00,-0.0005
2977.00,-0.0001
2976.00,0.0003
2975.00,0.0005
2974.00,0.0006
2973.00,0.0006
2972.00,0.0007
2971.00,0.0009
2970.00,0.0013
2969.00,0.0018
2968.00,0.0023
2967.00,0.0027
2966.00,0.0032
2965.00,0.0036
2964.00,0.0040
2963.00,0.0044
2962.00,0.0048
2961.00,0.0052
2960.00,0.0056
2959.00,0.0060
2958.00,0.0065
2957.00,0.0070
2956.00,0.0076
2955.00,0.0082
2954.00,0.0088
2953.00,0.0094
2952.00,0.0102
2951.00,0.0109
2950.00,0.0117
2949.00,0.0126
2948.00,0.0135
2947.00,0.0145
2946.00,0.0156
2945.00,0.0168
2944.00,0.0180
2943.00,0.0192
2942.00,0.0205
2941.00,0.0219
2940.00,0.0234
2939.00,0.0249
2938.00,0.0265
2937.00,0.0282
2936.00,0.0299
2935.00,0.0316
2934.00,0.0334
2933.00,0.0352
2932.00,0.0369
2931.00,0.0387
2930.00,0.0403
2929.00,0.0419
2928.00,0.0433
2927.00,0.0446
2926.00,0.0456
2925.00,0.0464
2924.00,0.0470
2923.00,0.0474
2922.00,0.0476
2921.00,0.0475
2920.00,0.0472
2919.00,0.0468
2918.00,0.0461
2917.00,0.0454
2916.00,0.0445
2915.00,0.0435
2914.00,0.0424
2913.00,0.0413
2912.00,0.0401
2911.00,0.0388
2910.00,0.0376
2909.00,0.0363
2908.00,0.0350
2907.00,0.0338
2906.00,0.0325
2905.00,0.0312
2904.00,0.0299
2903.00,0.0286
2902.00,0.0274
2901.00,0.0261
2900.00,0.0249
2899.00,0.0237
2898.00,0.0226
2897.00,0.0215
2896.00,0.0206
2895.00,0.0197
2894.00,0.0189
2893.00,0.0182
2892.00,0.0175
2891.00,0.0169
2890.00,0.0163
2889.00,0.0158
2888.00,0.0154
2887.00,0.0150
2886.00,0.0146
2885.00,0.0142
2884.00,0.0138
2883.00,0.0135
2882.00,0.0132
2881.00,0.0130
2880.00,0.0127
2879.00,0.0125
2878.00,0.0123
2877.00,0.0121
2876.00,0.0119
2875.00,0.0117
2874.00,0.0115
2873.00,0.0114
2872.00,0.0113
2871.00,0.0112
2870.00,0.0112
2869.00,0.0112
2868.00,0.0113
2867.00,0.0115
2866.00,0.0117
2865.00,0.0121
2864.00,0.0125
2863.00,0.0130
2862.00,0.0136
2861.00,0.0143
2860.00,0.0150
2859.00,0.0158
2858.00,0.0166
2857.00,0.0174
2856.00,0.0182
2855.00,0.0189
2854.00,0.0196
2853.00,0.0202
2852.00,0.0207
2851.00,0.0211
2850.00,0.0213
2849.00,0.0213
2848.00,0.0212
2847.00,0.0208
2846.00,0.0202
2845.00,0.0194
2844.00,0.0185
2843.00,0.0174
2842.00,0.0162
2841.00,0.0150
2840.00,0.0137
2839.00,0.0125
2838.00,0.0114
2837.00,0.0104
2836.00,0.0095
2835.00,0.0088
2834.00,0.0081
2833.00,0.0076
2832.00,0.0072
2831.00,0.0068
2830.00,0.0065
2829.00,0.0063
2828.00,0.0061
2827.00,0.0059
2826.00,0.0058
2825.00,0.0057
2824.00,0.0055
2823.00,0.0055
2822.00,0.0054
2821.00,0.0053
2820.00,0.0053
2819.00,0.0052
2818.00,0.0052
2817.00,0.0052
2816.00,0.0051
2815.00,0.0051
2814.00,0.0050
2813.00,0.0050
2812.00,0.0050
2811.00,0.0049
2810.00,0.0049
2809.00,0.0049
2808.00,0.0049
2807.00,0.0049
2806.00,0.0048
2805.00,0.0048
2804.00,0.0047
2803.00,0.0047
2802.00,0.0046
2801.00,0.0046
2800.00,0.0045
2799.00,0.0045
2798.00,0.0045
2797.00,0.0044
2796.00,0.0044
2795.00,0.0044
2794.00,0.0043
2793.00,0.0043
2792.00,0.0043
2791.00,0.0043
2790.00,0.0042
2789.00,0.0042
2788.00,0.0042
2787.00,0.0042
2786.00,0.0042
2785.00,0.0042
2784.00,0.0042
2783.00,0.0042
2782.00,0.0042
2781.00,0.0042
2780.00,0.0042
2779.00,0.0042
2778.00,0.0041
2777.00,0.0041
2776.00,0.0041
2775.00,0.0040
2774.00,0.0040
2773.00,0.0040
2772.00,0.0040
2771.00,0.0039
2770.00,0.0039
2769.00,0.0039
2768.00,0.0039
2767.00,0.0039
2766.00,0.0039
2765.00,0.0038
2764.00,0.0038
2763.00,0.0038
2762.00,0.0038
2761.00,0.0038
2760.00,0.0038
2759.00,0.0038
2758.00,0.0037
2757.00,0.0037
