Created as New Dataset,Sample 1040 By YargerLab Date Monday, August 04 2025
cm-1,A
4000.00,0.0067
3999.00,0.0067
3998.00,0.0067
3997.00,0.0067
3996.00,0.0067
3995.00,0.0068
3994.00,0.0068
3993.00,0.0068
3992.00,0.0068
3991.00,0.0068
3990.00,0.0068
3989.00,0.0068
3988.00,0.0068
3987.00,0.0068
3986.00,0.0068
3985.00,0.0068
3984.00,0.0068
3983.00,0.0068
3982.00,0.0068
3981.00,0.0068
3980.00,0.0068
3979.00,0.0068
3978.00,0.0068
3977.00,0.0068
3976.00,0.0068
3975.00,0.0068
3974.00,0.0068
3973.00,0.0068
3972.00,0.0068
3971.00,0.0068
3970.00,0.0069
3969.00,0.0069
3968.00,0.0069
3967.00,0.0068
3966.00,0.0068
3965.00,0.0068
3964.00,0.0068
3963.00,0.0068
3962.00,0.0068
3961.00,0.0068
3960.00,0.0068
3959.00,0.0068
3958.00,0.0068
3957.00,0.0068
3956.00,0.0068
3955.00,0.0068
3954.00,0.0068
3953.00,0.0068
3952.00,0.0068
3951.00,0.0068
3950.00,0.0068
3949.00,0.0068
3948.00,0.0068
3947.00,0.0068
3946.00,0.0068
3945.00,0.0068
3944.00,0.0068
3943.00,0.0068
3942.00,0.0067
3941.00,0.0067
3940.00,0.0067
3939.00,0.0067
3938.00,0.0067
3937.00,0.0067
3936.00,0.0068
3935.00,0.0068
3934.00,0.0068
3933.00,0.0068
3932.00,0.0068
3931.00,0.0068
3930.00,0.0068
3929.00,0.0068
3928.00,0.0068
3927.00,0.0068
3926.00,0.0068
3925.00,0.0068
3924.00,0.0068
3923.00,0.0068
3922.00,0.0068
3921.00,0.0068
3920.00,0.0068
3919.00,0.0068
3918.00,0.0068
3917.00,0.0068
3916.00,0.0068
3915.00,0.0068
3914.00,0.0068
3913.00,0.0068
3912.00,0.0068
3911.00,0.0068
3910.00,0.0068
3909.00,0.0068
3908.00,0.0068
3907.00,0.0068
3906.00,0.0068
3905.00,0.0068
3904.00,0.0068
3903.00,0.0069
3902.00,0.0069
3901.00,0.0069
3900.00,0.0068
3899.00,0.0068
3898.00,0.0068
3897.00,0.0068
3896.00,0.0068
3895.00,0.0068
3894.00,0.0068
3893.00,0.0068
3892.00,0.0068
3891.00,0.0068
3890.00,0.0068
3889.00,0.0068
3888.00,0.0068
3887.00,0.0068
3886.00,0.0068
3885.00,0.0068
3884.00,0.0068
3883.00,0.0068
3882.00,0.0068
3881.00,0.0068
3880.00,0.0068
3879.00,0.0068
3878.00,0.0068
3877.00,0.0068
3876.00,0.0068
3875.00,0.0068
3874.00,0.0068
3873.00,0.0068
3872.00,0.0068
3871.00,0.0068
3870.00,0.0068
3869.00,0.0068
3868.00,0.0068
3867.00,0.0068
3866.00,0.0068
3865.00,0.0068
3864.00,0.0068
3863.00,0.0068
3862.00,0.0068
3861.00,0.0068
3860.00,0.0068
3859.00,0.0068
3858.00,0.0068
3857.00,0.0068
3856.00,0.0068
3855.00,0.0069
3854.00,0.0069
3853.00,0.0069
3852.00,0.0069
3851.00,0.0069
3850.00,0.0068
3849.00,0.0068
3848.00,0.0068
3847.00,0.0068
3846.00,0.0068
3845.00,0.0068
3844.00,0.0068
3843.00,0.0068
3842.00,0.0068
3841.00,0.0069
3840.00,0.0069
3839.00,0.0069
3838.00,0.0069
3837.00,0.0069
3836.00,0.0068
3835.00,0.0068
3834.00,0.0068
3833.00,0.0068
3832.00,0.0068
3831.00,0.0068
3830.00,0.0068
3829.00,0.0068
3828.00,0.0068
3827.00,0.0068
3826.00,0.0068
3825.00,0.0068
3824.00,0.0068
3823.00,0.0068
3822.00,0.0068
3821.00,0.0068
3820.00,0.0068
3819.00,0.0068
3818.00,0.0069
3817.00,0.0069
3816.00,0.0069
3815.00,0.0069
3814.00,0.0068
3813.00,0.0068
3812.00,0.0068
3811.00,0.0068
3810.00,0.0068
3809.00,0.0068
3808.00,0.0068
3807.00,0.0068
3806.00,0.0068
3805.00,0.0068
3804.00,0.0068
3803.00,0.0068
3802.00,0.0068
3801.00,0.0068
3800.00,0.0068
3799.00,0.0068
3798.00,0.0068
3797.00,0.0068
3796.00,0.0068
3795.00,0.0068
3794.00,0.0067
3793.00,0.0067
3792.00,0.0067
3791.00,0.0067
3790.00,0.0067
3789.00,0.0067
3788.00,0.0067
3787.00,0.0067
3786.00,0.0067
3785.00,0.0067
3784.00,0.0067
3783.00,0.0067
3782.00,0.0067
3781.00,0.0067
3780.00,0.0068
3779.00,0.0068
3778.00,0.0068
3777.00,0.0068
3776.00,0.0067
3775.00,0.0067
3774.00,0.0067
3773.00,0.0067
3772.00,0.0067
3771.00,0.0067
3770.00,0.0068
3769.00,0.0068
3768.00,0.0068
3767.00,0.0068
3766.00,0.0068
3765.00,0.0067
3764.00,0.0067
3763.00,0.0067
3762.00,0.0067
3761.00,0.0067
3760.00,0.0068
3759.00,0.0068
3758.00,0.0068
3757.00,0.0068
3756.00,0.0068
3755.00,0.0069
3754.00,0.0069
3753.00,0.0069
3752.00,0.0070
3751.00,0.0069
3750.00,0.0069
3749.00,0.0069
3748.00,0.0069
3747.00,0.0069
3746.00,0.0069
3745.00,0.0069
3744.00,0.0069
3743.00,0.0069
3742.00,0.0069
3741.00,0.0069
3740.00,0.0069
3739.00,0.0070
3738.00,0.0070
3737.00,0.0070
3736.00,0.0070
3735.00,0.0069
3734.00,0.0069
3733.00,0.0069
3732.00,0.0068
3731.00,0.0068
3730.00,0.0068
3729.00,0.0067
3728.00,0.0067
3727.00,0.0067
3726.00,0.0067
3725.00,0.0067
3724.00,0.0067
3723.00,0.0067
3722.00,0.0067
3721.00,0.0067
3720.00,0.0067
3719.00,0.0066
3718.00,0.0067
3717.00,0.0067
3716.00,0.0067
3715.00,0.0067
3714.00,0.0067
3713.00,0.0067
3712.00,0.0067
3711.00,0.0067
3710.00,0.0067
3709.00,0.0067
3708.00,0.0067
3707.00,0.0067
3706.00,0.0067
3705.00,0.0067
3704.00,0.0067
3703.00,0.0066
3702.00,0.0066
3701.00,0.0066
3700.00,0.0066
3699.00,0.0067
3698.00,0.0067
3697.00,0.0067
3696.00,0.0067
3695.00,0.0067
3694.00,0.0067
3693.00,0.0067
3692.00,0.0067
3691.00,0.0067
3690.00,0.0067
3689.00,0.0067
3688.00,0.0068
3687.00,0.0068
3686.00,0.0068
3685.00,0.0069
3684.00,0.0069
3683.00,0.0069
3682.00,0.0069
3681.00,0.0069
3680.00,0.0069
3679.00,0.0070
3678.00,0.0070
3677.00,0.0070
3676.00,0.0070
3675.00,0.0070
3674.00,0.0071
3673.00,0.0071
3672.00,0.0072
3671.00,0.0072
3670.00,0.0072
3669.00,0.0072
3668.00,0.0072
3667.00,0.0072
3666.00,0.0072
3665.00,0.0072
3664.00,0.0072
3663.00,0.0072
3662.00,0.0072
3661.00,0.0072
3660.00,0.0073
3659.00,0.0073
3658.00,0.0073
3657.00,0.0074
3656.00,0.0074
3655.00,0.0074
3654.00,0.0075
3653.00,0.0075
3652.00,0.0076
3651.00,0.0076
3650.00,0.0077
3649.00,0.0077
3648.00,0.0078
3647.00,0.0079
3646.00,0.0079
3645.00,0.0079
3644.00,0.0079
3643.00,0.0079
3642.00,0.0079
3641.00,0.0079
3640.00,0.0080
3639.00,0.0080
3638.00,0.0081
3637.00,0.0081
3636.00,0.0081
3635.00,0.0082
3634.00,0.0082
3633.00,0.0083
3632.00,0.0083
3631.00,0.0084
3630.00,0.0084
3629.00,0.0085
3628.00,0.0086
3627.00,0.0087
3626.00,0.0087
3625.00,0.0088
3624.00,0.0088
3623.00,0.0088
3622.00,0.0089
3621.00,0.0089
3620.00,0.0090
3619.00,0.0090
3618.00,0.0091
3617.00,0.0092
3616.00,0.0093
3615.00,0.0094
3614.00,0.0095
3613.00,0.0095
3612.00,0.0096
3611.00,0.0097
3610.00,0.0097
3609.00,0.0098
3608.00,0.0098
3607.00,0.0099
3606.00,0.0100
3605.00,0.0101
3604.00,0.0101
3603.00,0.0102
3602.00,0.0103
3601.00,0.0103
3600.00,0.0104
3599.00,0.0105
3598.00,0.0106
3597.00,0.0107
3596.00,0.0108
3595.00,0.0109
3594.00,0.0110
3593.00,0.0110
3592.00,0.0111
3591.00,0.0112
3590.00,0.0112
3589.00,0.0114
3588.00,0.0115
3587.00,0.0116
3586.00,0.0117
3585.00,0.0118
3584.00,0.0119
3583.00,0.0120
3582.00,0.0121
3581.00,0.0122
3580.00,0.0123
3579.00,0.0124
3578.00,0.0125
3577.00,0.0126
3576.00,0.0127
3575.00,0.0128
3574.00,0.0129
3573.00,0.0129
3572.00,0.0130
3571.00,0.0131
3570.00,0.0132
3569.00,0.0134
3568.00,0.0135
3567.00,0.0137
3566.00,0.0139
3565.00,0.0140
3564.00,0.0141
3563.00,0.0142
3562.00,0.0142
3561.00,0.0143
3560.00,0.0144
3559.00,0.0145
3558.00,0.0146
3557.00,0.0147
3556.00,0.0148
3555.00,0.0149
3554.00,0.0150
3553.00,0.0152
3552.00,0.0153
3551.00,0.0155
3550.00,0.0156
3549.00,0.0156
3548.00,0.0157
3547.00,0.0158
3546.00,0.0159
3545.00,0.0161
3544.00,0.0162
3543.00,0.0163
3542.00,0.0164
3541.00,0.0164
3540.00,0.0165
3539.00,0.0166
3538.00,0.0167
3537.00,0.0168
3536.00,0.0169
3535.00,0.0170
3534.00,0.0171
3533.00,0.0172
3532.00,0.0173
3531.00,0.0173
3530.00,0.0174
3529.00,0.0175
3528.00,0.0176
3527.00,0.0177
3526.00,0.0178
3525.00,0.0179
3524.00,0.0180
3523.00,0.0181
3522.00,0.0182
3521.00,0.0183
3520.00,0.0183
3519.00,0.0184
3518.00,0.0185
3517.00,0.0185
3516.00,0.0186
3515.00,0.0186
3514.00,0.0187
3513.00,0.0187
3512.00,0.0188
3511.00,0.0189
3510.00,0.0190
3509.00,0.0190
3508.00,0.0191
3507.00,0.0192
3506.00,0.0193
3505.00,0.0194
3504.00,0.0195
3503.00,0.0195
3502.00,0.0196
3501.00,0.0197
3500.00,0.0198
3499.00,0.0198
3498.00,0.0199
3497.00,0.0200
3496.00,0.0201
3495.00,0.0202
3494.00,0.0203
3493.00,0.0203
3492.00,0.0204
3491.00,0.0205
3490.00,0.0206
3489.00,0.0206
3488.00,0.0207
3487.00,0.0208
3486.00,0.0209
3485.00,0.0210
3484.00,0.0211
3483.00,0.0212
3482.00,0.0213
3481.00,0.0215
3480.00,0.0216
3479.00,0.0217
3478.00,0.0217
3477.00,0.0218
3476.00,0.0219
3475.00,0.0221
3474.00,0.0222
3473.00,0.0223
3472.00,0.0224
3471.00,0.0225
3470.00,0.0226
3469.00,0.0227
3468.00,0.0228
3467.00,0.0229
3466.00,0.0230
3465.00,0.0231
3464.00,0.0232
3463.00,0.0234
3462.00,0.0235
3461.00,0.0236
3460.00,0.0237
3459.00,0.0238
3458.00,0.0239
3457.00,0.0240
3456.00,0.0241
3455.00,0.0243
3454.00,0.0244
3453.00,0.0245
3452.00,0.0246
3451.00,0.0247
3450.00,0.0248
3449.00,0.0250
3448.00,0.0251
3447.00,0.0252
3446.00,0.0254
3445.00,0.0255
3444.00,0.0257
3443.00,0.0258
3442.00,0.0259
3441.00,0.0261
3440.00,0.0262
3439.00,0.0263
3438.00,0.0264
3437.00,0.0266
3436.00,0.0267
3435.00,0.0269
3434.00,0.0270
3433.00,0.0272
3432.00,0.0274
3431.00,0.0275
3430.00,0.0277
3429.00,0.0279
3428.00,0.0281
3427.00,0.0282
3426.00,0.0284
3425.00,0.0286
3424.00,0.0288
3423.00,0.0290
3422.00,0.0292
3421.00,0.0293
3420.00,0.0295
3419.00,0.0297
3418.00,0.0299
3417.00,0.0300
3416.00,0.0302
3415.00,0.0304
3414.00,0.0306
3413.00,0.0307
3412.00,0.0308
3411.00,0.0310
3410.00,0.0311
3409.00,0.0311
3408.00,0.0312
3407.00,0.0313
3406.00,0.0314
3405.00,0.0315
3404.00,0.0315
3403.00,0.0316
3402.00,0.0316
3401.00,0.0316
3400.00,0.0315
3399.00,0.0315
3398.00,0.0315
3397.00,0.0314
3396.00,0.0314
3395.00,0.0313
3394.00,0.0312
3393.00,0.0311
3392.00,0.0311
3391.00,0.0310
3390.00,0.0309
3389.00,0.0308
3388.00,0.0306
3387.00,0.0305
3386.00,0.0304
3385.00,0.0302
3384.00,0.0301
3383.00,0.0300
3382.00,0.0298
3381.00,0.0297
3380.00,0.0296
3379.00,0.0294
3378.00,0.0293
3377.00,0.0291
3376.00,0.0290
3375.00,0.0289
3374.00,0.0287
3373.00,0.0286
3372.00,0.0284
3371.00,0.0282
3370.00,0.0280
3369.00,0.0279
3368.00,0.0277
3367.00,0.0276
3366.00,0.0276
3365.00,0.0275
3364.00,0.0274
3363.00,0.0273
3362.00,0.0272
3361.00,0.0271
3360.00,0.0270
3359.00,0.0269
3358.00,0.0268
3357.00,0.0268
3356.00,0.0267
3355.00,0.0266
3354.00,0.0264
3353.00,0.0263
3352.00,0.0261
3351.00,0.0260
3350.00,0.0260
3349.00,0.0260
3348.00,0.0259
3347.00,0.0259
3346.00,0.0258
3345.00,0.0257
3344.00,0.0257
3343.00,0.0256
3342.00,0.0255
3341.00,0.0254
3340.00,0.0253
3339.00,0.0253
3338.00,0.0253
3337.00,0.0253
3336.00,0.0253
3335.00,0.0254
3334.00,0.0254
3333.00,0.0254
3332.00,0.0253
3331.00,0.0253
3330.00,0.0253
3329.00,0.0252
3328.00,0.0252
3327.00,0.0251
3326.00,0.0251
3325.00,0.0251
3324.00,0.0252
3323.00,0.0252
3322.00,0.0253
3321.00,0.0253
3320.00,0.0254
3319.00,0.0254
3318.00,0.0254
3317.00,0.0254
3316.00,0.0254
3315.00,0.0254
3314.00,0.0254
3313.00,0.0254
3312.00,0.0254
3311.00,0.0253
3310.00,0.0252
3309.00,0.0251
3308.00,0.0251
3307.00,0.0251
3306.00,0.0252
3305.00,0.0253
3304.00,0.0254
3303.00,0.0256
3302.00,0.0257
3301.00,0.0258
3300.00,0.0258
3299.00,0.0258
3298.00,0.0258
3297.00,0.0258
3296.00,0.0258
3295.00,0.0258
3294.00,0.0259
3293.00,0.0259
3292.00,0.0260
3291.00,0.0261
3290.00,0.0263
3289.00,0.0264
3288.00,0.0265
3287.00,0.0265
3286.00,0.0266
3285.00,0.0266
3284.00,0.0267
3283.00,0.0267
3282.00,0.0268
3281.00,0.0268
3280.00,0.0268
3279.00,0.0268
3278.00,0.0268
3277.00,0.0268
3276.00,0.0268
3275.00,0.0268
3274.00,0.0268
3273.00,0.0268
3272.00,0.0268
3271.00,0.0268
3270.00,0.0269
3269.00,0.0270
3268.00,0.0271
3267.00,0.0272
3266.00,0.0273
3265.00,0.0273
3264.00,0.0274
3263.00,0.0274
3262.00,0.0274
3261.00,0.0274
3260.00,0.0274
3259.00,0.0274
3258.00,0.0274
3257.00,0.0274
3256.00,0.0274
3255.00,0.0275
3254.00,0.0276
3253.00,0.0277
3252.00,0.0277
3251.00,0.0277
3250.00,0.0277
3249.00,0.0276
3248.00,0.0276
3247.00,0.0276
3246.00,0.0276
3245.00,0.0277
3244.00,0.0277
3243.00,0.0277
3242.00,0.0277
3241.00,0.0277
3240.00,0.0277
3239.00,0.0276
3238.00,0.0276
3237.00,0.0275
3236.00,0.0274
3235.00,0.0273
3234.00,0.0273
3233.00,0.0272
3232.00,0.0272
3231.00,0.0272
3230.00,0.0272
3229.00,0.0272
3228.00,0.0271
3227.00,0.0271
3226.00,0.0270
3225.00,0.0269
3224.00,0.0269
3223.00,0.0268
3222.00,0.0267
3221.00,0.0266
3220.00,0.0265
3219.00,0.0264
3218.00,0.0263
3217.00,0.0262
3216.00,0.0261
3215.00,0.0260
3214.00,0.0259
3213.00,0.0257
3212.00,0.0256
3211.00,0.0255
3210.00,0.0253
3209.00,0.0252
3208.00,0.0250
3207.00,0.0249
3206.00,0.0248
3205.00,0.0246
3204.00,0.0245
3203.00,0.0243
3202.00,0.0242
3201.00,0.0241
3200.00,0.0239
3199.00,0.0238
3198.00,0.0236
3197.00,0.0234
3196.00,0.0233
3195.00,0.0231
3194.00,0.0230
3193.00,0.0228
3192.00,0.0227
3191.00,0.0225
3190.00,0.0224
3189.00,0.0222
3188.00,0.0221
3187.00,0.0219
3186.00,0.0218
3185.00,0.0217
3184.00,0.0215
3183.00,0.0214
3182.00,0.0212
3181.00,0.0211
3180.00,0.0210
3179.00,0.0209
3178.00,0.0208
3177.00,0.0207
3176.00,0.0205
3175.00,0.0204
3174.00,0.0202
3173.00,0.0201
3172.00,0.0199
3171.00,0.0198
3170.00,0.0197
3169.00,0.0195
3168.00,0.0193
3167.00,0.0192
3166.00,0.0191
3165.00,0.0189
3164.00,0.0188
3163.00,0.0187
3162.00,0.0185
3161.00,0.0184
3160.00,0.0183
3159.00,0.0181
3158.00,0.0180
3157.00,0.0178
3156.00,0.0177
3155.00,0.0175
3154.00,0.0173
3153.00,0.0172
3152.00,0.0171
3151.00,0.0170
3150.00,0.0169
3149.00,0.0168
3148.00,0.0167
3147.00,0.0166
3146.00,0.0165
3145.00,0.0164
3144.00,0.0162
3143.00,0.0161
3142.00,0.0160
3141.00,0.0159
3140.00,0.0158
3139.00,0.0157
3138.00,0.0157
3137.00,0.0156
3136.00,0.0155
3135.00,0.0154
3134.00,0.0153
3133.00,0.0152
3132.00,0.0151
3131.00,0.0151
3130.00,0.0150
3129.00,0.0149
3128.00,0.0148
3127.00,0.0148
3126.00,0.0147
3125.00,0.0146
3124.00,0.0146
3123.00,0.0145
3122.00,0.0144
3121.00,0.0143
3120.00,0.0142
3119.00,0.0142
3118.00,0.0141
3117.00,0.0140
3116.00,0.0140
3115.00,0.0139
3114.00,0.0138
3113.00,0.0138
3112.00,0.0137
3111.00,0.0136
3110.00,0.0135
3109.00,0.0134
3108.00,0.0134
3107.00,0.0133
3106.00,0.0132
3105.00,0.0131
3104.00,0.0131
3103.00,0.0130
3102.00,0.0130
3101.00,0.0129
3100.00,0.0129
3099.00,0.0128
3098.00,0.0128
3097.00,0.0128
3096.00,0.0127
3095.00,0.0127
3094.00,0.0127
3093.00,0.0127
3092.00,0.0127
3091.00,0.0127
3090.00,0.0127
3089.00,0.0127
3088.00,0.0127
3087.00,0.0127
3086.00,0.0126
3085.00,0.0126
3084.00,0.0126
3083.00,0.0126
3082.00,0.0126
3081.00,0.0125
3080.00,0.0125
3079.00,0.0125
3078.00,0.0124
3077.00,0.0124
3076.00,0.0124
3075.00,0.0124
3074.00,0.0123
3073.00,0.0123
3072.00,0.0122
3071.00,0.0122
3070.00,0.0121
3069.00,0.0121
3068.00,0.0121
3067.00,0.0121
3066.00,0.0121
3065.00,0.0121
3064.00,0.0121
3063.00,0.0121
3062.00,0.0121
3061.00,0.0120
3060.00,0.0120
3059.00,0.0121
3058.00,0.0121
3057.00,0.0121
3056.00,0.0121
3055.00,0.0121
3054.00,0.0121
3053.00,0.0121
3052.00,0.0120
3051.00,0.0120
3050.00,0.0120
3049.00,0.0120
3048.00,0.0120
3047.00,0.0119
3046.00,0.0119
3045.00,0.0119
3044.00,0.0120
3043.00,0.0120
3042.00,0.0120
3041.00,0.0120
3040.00,0.0120
3039.00,0.0121
3038.00,0.0122
3037.00,0.0123
3036.00,0.0123
3035.00,0.0124
3034.00,0.0125
3033.00,0.0125
3032.00,0.0125
3031.00,0.0125
3030.00,0.0124
3029.00,0.0124
3028.00,0.0123
3027.00,0.0122
3026.00,0.0121
3025.00,0.0121
3024.00,0.0120
3023.00,0.0119
3022.00,0.0119
3021.00,0.0118
3020.00,0.0118
3019.00,0.0117
3018.00,0.0117
3017.00,0.0117
3016.00,0.0118
3015.00,0.0118
3014.00,0.0119
3013.00,0.0120
3012.00,0.0121
3011.00,0.0122
3010.00,0.0123
3009.00,0.0125
3008.00,0.0127
3007.00,0.0129
3006.00,0.0131
3005.00,0.0134
3004.00,0.0137
3003.00,0.0140
3002.00,0.0143
3001.00,0.0146
3000.00,0.0150
2999.00,0.0154
2998.00,0.0159
2997.00,0.0164
2996.00,0.0169
2995.00,0.0174
2994.00,0.0179
2993.00,0.0183
2992.00,0.0188
2991.00,0.0192
2990.00,0.0196
2989.00,0.0200
2988.00,0.0203
2987.00,0.0207
2986.00,0.0212
2985.00,0.0217
2984.00,0.0223
2983.00,0.0230
2982.00,0.0238
2981.00,0.0246
2980.00,0.0253
2979.00,0.0258
2978.00,0.0261
2977.00,0.0264
2976.00,0.0267
2975.00,0.0270
2974.00,0.0276
2973.00,0.0284
2972.00,0.0293
2971.00,0.0302
2970.00,0.0309
2969.00,0.0315
2968.00,0.0320
2967.00,0.0324
2966.00,0.0328
2965.00,0.0333
2964.00,0.0338
2963.00,0.0343
2962.00,0.0349
2961.00,0.0353
2960.00,0.0356
2959.00,0.0356
2958.00,0.0355
2957.00,0.0350
2956.00,0.0345
2955.00,0.0338
2954.00,0.0331
2953.00,0.0325
2952.00,0.0319
2951.00,0.0315
2950.00,0.0311
2949.00,0.0308
2948.00,0.0307
2947.00,0.0307
2946.00,0.0309
2945.00,0.0311
2944.00,0.0314
2943.00,0.0319
2942.00,0.0324
2941.00,0.0330
2940.00,0.0336
2939.00,0.0344
2938.00,0.0354
2937.00,0.0365
2936.00,0.0378
2935.00,0.0392
2934.00,0.0407
2933.00,0.0423
2932.00,0.0438
2931.00,0.0453
2930.00,0.0465
2929.00,0.0476
2928.00,0.0483
2927.00,0.0486
2926.00,0.0485
2925.00,0.0481
2924.00,0.0474
2923.00,0.0464
2922.00,0.0454
2921.00,0.0443
2920.00,0.0431
2919.00,0.0419
2918.00,0.0407
2917.00,0.0395
2916.00,0.0383
2915.00,0.0372
2914.00,0.0362
2913.00,0.0353
2912.00,0.0345
2911.00,0.0338
2910.00,0.0330
2909.00,0.0323
2908.00,0.0317
2907.00,0.0311
2906.00,0.0305
2905.00,0.0300
2904.00,0.0296
2903.00,0.0292
2902.00,0.0288
2901.00,0.0284
2900.00,0.0280
2899.00,0.0277
2898.00,0.0273
2897.00,0.0270
2896.00,0.0268
2895.00,0.0266
2894.00,0.0264
2893.00,0.0262
2892.00,0.0260
2891.00,0.0258
2890.00,0.0257
2889.00,0.0255
2888.00,0.0254
2887.00,0.0252
2886.00,0.0251
2885.00,0.0250
2884.00,0.0250
2883.00,0.0249
2882.00,0.0250
2881.00,0.0251
2880.00,0.0253
2879.00,0.0256
2878.00,0.0260
2877.00,0.0264
2876.00,0.0268
2875.00,0.0272
2874.00,0.0276
2873.00,0.0278
2872.00,0.0280
2871.00,0.0280
2870.00,0.0278
2869.00,0.0276
2868.00,0.0275
2867.00,0.0274
2866.00,0.0275
2865.00,0.0278
2864.00,0.0284
2863.00,0.0291
2862.00,0.0299
2861.00,0.0310
2860.00,0.0320
2859.00,0.0330
2858.00,0.0338
2857.00,0.0343
2856.00,0.0345
2855.00,0.0344
2854.00,0.0341
2853.00,0.0336
2852.00,0.0328
2851.00,0.0318
2850.00,0.0305
2849.00,0.0291
2848.00,0.0276
2847.00,0.0262
2846.00,0.0249
2845.00,0.0237
2844.00,0.0227
2843.00,0.0217
2842.00,0.0208
2841.00,0.0200
2840.00,0.0193
2839.00,0.0187
2838.00,0.0182
2837.00,0.0178
2836.00,0.0174
2835.00,0.0171
2834.00,0.0167
2833.00,0.0164
2832.00,0.0161
2831.00,0.0159
2830.00,0.0156
2829.00,0.0153
2828.00,0.0151
2827.00,0.0148
2826.00,0.0146
2825.00,0.0144
2824.00,0.0142
2823.00,0.0140
2822.00,0.0139
2821.00,0.0137
2820.00,0.0135
2819.00,0.0134
2818.00,0.0132
2817.00,0.0131
2816.00,0.0130
2815.00,0.0129
2814.00,0.0128
2813.00,0.0127
2812.00,0.0125
2811.00,0.0125
2810.00,0.0124
2809.00,0.0123
2808.00,0.0123
2807.00,0.0122
2806.00,0.0122
2805.00,0.0121
2804.00,0.0121
2803.00,0.0120
2802.00,0.0120
2801.00,0.0119
2800.00,0.0118
2799.00,0.0118
2798.00,0.0117
2797.00,0.0116
2796.00,0.0116
2795.00,0.0115
2794.00,0.0115
2793.00,0.0114
2792.00,0.0114
2791.00,0.0113
2790.00,0.0113
2789.00,0.0112
2788.00,0.0112
2787.00,0.0112
2786.00,0.0111
2785.00,0.0111
2784.00,0.0110
2783.00,0.0110
2782.00,0.0110
2781.00,0.0109
2780.00,0.0109
2779.00,0.0109
2778.00,0.0108
2777.00,0.0108
2776.00,0.0108
2775.00,0.0107
2774.00,0.0107
2773.00,0.0107
2772.00,0.0107
2771.00,0.0107
2770.00,0.0106
2769.00,0.0106
2768.00,0.0106
2767.00,0.0106
2766.00,0.0106
2765.00,0.0106
2764.00,0.0105
2763.00,0.0105
2762.00,0.0105
2761.00,0.0105
2760.00,0.0105
2759.00,0.0105
2758.00,0.0105
2757.00,0.0106
