Created as New Dataset,Sample 622 By YargerLab Date Friday, June 06 2025
cm-1,A
4000.00,0.0029
3999.00,0.0029
3998.00,0.0029
3997.00,0.0029
3996.00,0.0030
3995.00,0.0030
3994.00,0.0030
3993.00,0.0030
3992.00,0.0030
3991.00,0.0030
3990.00,0.0030
3989.00,0.0030
3988.00,0.0030
3987.00,0.0030
3986.00,0.0030
3985.00,0.0030
3984.00,0.0030
3983.00,0.0029
3982.00,0.0029
3981.00,0.0029
3980.00,0.0029
3979.00,0.0029
3978.00,0.0029
3977.00,0.0030
3976.00,0.0030
3975.00,0.0030
3974.00,0.0030
3973.00,0.0030
3972.00,0.0030
3971.00,0.0029
3970.00,0.0029
3969.00,0.0029
3968.00,0.0030
3967.00,0.0030
3966.00,0.0030
3965.00,0.0030
3964.00,0.0030
3963.00,0.0030
3962.00,0.0030
3961.00,0.0030
3960.00,0.0030
3959.00,0.0030
3958.00,0.0030
3957.00,0.0029
3956.00,0.0029
3955.00,0.0029
3954.00,0.0029
3953.00,0.0030
3952.00,0.0030
3951.00,0.0030
3950.00,0.0030
3949.00,0.0030
3948.00,0.0030
3947.00,0.0030
3946.00,0.0029
3945.00,0.0029
3944.00,0.0029
3943.00,0.0029
3942.00,0.0029
3941.00,0.0030
3940.00,0.0030
3939.00,0.0030
3938.00,0.0030
3937.00,0.0030
3936.00,0.0030
3935.00,0.0030
3934.00,0.0030
3933.00,0.0030
3932.00,0.0030
3931.00,0.0029
3930.00,0.0029
3929.00,0.0029
3928.00,0.0029
3927.00,0.0029
3926.00,0.0029
3925.00,0.0029
3924.00,0.0030
3923.00,0.0030
3922.00,0.0030
3921.00,0.0029
3920.00,0.0029
3919.00,0.0029
3918.00,0.0029
3917.00,0.0029
3916.00,0.0029
3915.00,0.0029
3914.00,0.0029
3913.00,0.0029
3912.00,0.0029
3911.00,0.0029
3910.00,0.0029
3909.00,0.0029
3908.00,0.0029
3907.00,0.0029
3906.00,0.0029
3905.00,0.0029
3904.00,0.0028
3903.00,0.0028
3902.00,0.0028
3901.00,0.0027
3900.00,0.0027
3899.00,0.0027
3898.00,0.0028
3897.00,0.0028
3896.00,0.0028
3895.00,0.0028
3894.00,0.0028
3893.00,0.0028
3892.00,0.0028
3891.00,0.0028
3890.00,0.0028
3889.00,0.0028
3888.00,0.0027
3887.00,0.0027
3886.00,0.0027
3885.00,0.0027
3884.00,0.0027
3883.00,0.0027
3882.00,0.0027
3881.00,0.0028
3880.00,0.0028
3879.00,0.0028
3878.00,0.0028
3877.00,0.0028
3876.00,0.0028
3875.00,0.0028
3874.00,0.0027
3873.00,0.0027
3872.00,0.0027
3871.00,0.0027
3870.00,0.0027
3869.00,0.0027
3868.00,0.0027
3867.00,0.0027
3866.00,0.0027
3865.00,0.0027
3864.00,0.0027
3863.00,0.0027
3862.00,0.0028
3861.00,0.0028
3860.00,0.0028
3859.00,0.0028
3858.00,0.0028
3857.00,0.0027
3856.00,0.0027
3855.00,0.0026
3854.00,0.0026
3853.00,0.0025
3852.00,0.0025
3851.00,0.0025
3850.00,0.0026
3849.00,0.0027
3848.00,0.0027
3847.00,0.0028
3846.00,0.0028
3845.00,0.0028
3844.00,0.0028
3843.00,0.0028
3842.00,0.0028
3841.00,0.0027
3840.00,0.0027
3839.00,0.0027
3838.00,0.0027
3837.00,0.0026
3836.00,0.0026
3835.00,0.0026
3834.00,0.0026
3833.00,0.0026
3832.00,0.0027
3831.00,0.0027
3830.00,0.0027
3829.00,0.0027
3828.00,0.0027
3827.00,0.0027
3826.00,0.0028
3825.00,0.0027
3824.00,0.0027
3823.00,0.0027
3822.00,0.0027
3821.00,0.0027
3820.00,0.0027
3819.00,0.0026
3818.00,0.0026
3817.00,0.0027
3816.00,0.0027
3815.00,0.0027
3814.00,0.0027
3813.00,0.0027
3812.00,0.0028
3811.00,0.0028
3810.00,0.0028
3809.00,0.0028
3808.00,0.0028
3807.00,0.0028
3806.00,0.0028
3805.00,0.0027
3804.00,0.0027
3803.00,0.0027
3802.00,0.0027
3801.00,0.0027
3800.00,0.0027
3799.00,0.0027
3798.00,0.0027
3797.00,0.0028
3796.00,0.0028
3795.00,0.0028
3794.00,0.0028
3793.00,0.0028
3792.00,0.0028
3791.00,0.0028
3790.00,0.0029
3789.00,0.0029
3788.00,0.0029
3787.00,0.0029
3786.00,0.0029
3785.00,0.0029
3784.00,0.0029
3783.00,0.0029
3782.00,0.0029
3781.00,0.0029
3780.00,0.0029
3779.00,0.0029
3778.00,0.0028
3777.00,0.0028
3776.00,0.0028
3775.00,0.0028
3774.00,0.0028
3773.00,0.0028
3772.00,0.0028
3771.00,0.0028
3770.00,0.0028
3769.00,0.0028
3768.00,0.0027
3767.00,0.0027
3766.00,0.0027
3765.00,0.0028
3764.00,0.0028
3763.00,0.0028
3762.00,0.0028
3761.00,0.0028
3760.00,0.0028
3759.00,0.0028
3758.00,0.0028
3757.00,0.0027
3756.00,0.0027
3755.00,0.0027
3754.00,0.0026
3753.00,0.0026
3752.00,0.0026
3751.00,0.0026
3750.00,0.0026
3749.00,0.0025
3748.00,0.0025
3747.00,0.0024
3746.00,0.0025
3745.00,0.0025
3744.00,0.0026
3743.00,0.0026
3742.00,0.0026
3741.00,0.0026
3740.00,0.0026
3739.00,0.0026
3738.00,0.0026
3737.00,0.0026
3736.00,0.0026
3735.00,0.0025
3734.00,0.0025
3733.00,0.0025
3732.00,0.0025
3731.00,0.0025
3730.00,0.0026
3729.00,0.0026
3728.00,0.0026
3727.00,0.0026
3726.00,0.0026
3725.00,0.0026
3724.00,0.0026
3723.00,0.0026
3722.00,0.0026
3721.00,0.0026
3720.00,0.0026
3719.00,0.0026
3718.00,0.0027
3717.00,0.0027
3716.00,0.0027
3715.00,0.0027
3714.00,0.0027
3713.00,0.0026
3712.00,0.0026
3711.00,0.0026
3710.00,0.0026
3709.00,0.0025
3708.00,0.0025
3707.00,0.0025
3706.00,0.0026
3705.00,0.0026
3704.00,0.0026
3703.00,0.0025
3702.00,0.0025
3701.00,0.0025
3700.00,0.0025
3699.00,0.0025
3698.00,0.0025
3697.00,0.0026
3696.00,0.0026
3695.00,0.0026
3694.00,0.0026
3693.00,0.0025
3692.00,0.0025
3691.00,0.0025
3690.00,0.0025
3689.00,0.0025
3688.00,0.0025
3687.00,0.0025
3686.00,0.0025
3685.00,0.0025
3684.00,0.0025
3683.00,0.0025
3682.00,0.0026
3681.00,0.0026
3680.00,0.0026
3679.00,0.0025
3678.00,0.0025
3677.00,0.0024
3676.00,0.0024
3675.00,0.0023
3674.00,0.0023
3673.00,0.0022
3672.00,0.0022
3671.00,0.0023
3670.00,0.0023
3669.00,0.0024
3668.00,0.0024
3667.00,0.0025
3666.00,0.0026
3665.00,0.0026
3664.00,0.0026
3663.00,0.0026
3662.00,0.0026
3661.00,0.0026
3660.00,0.0026
3659.00,0.0025
3658.00,0.0025
3657.00,0.0025
3656.00,0.0025
3655.00,0.0025
3654.00,0.0025
3653.00,0.0025
3652.00,0.0025
3651.00,0.0025
3650.00,0.0024
3649.00,0.0024
3648.00,0.0023
3647.00,0.0024
3646.00,0.0024
3645.00,0.0025
3644.00,0.0025
3643.00,0.0025
3642.00,0.0026
3641.00,0.0026
3640.00,0.0026
3639.00,0.0026
3638.00,0.0026
3637.00,0.0026
3636.00,0.0026
3635.00,0.0026
3634.00,0.0026
3633.00,0.0026
3632.00,0.0026
3631.00,0.0026
3630.00,0.0026
3629.00,0.0026
3628.00,0.0026
3627.00,0.0025
3626.00,0.0025
3625.00,0.0026
3624.00,0.0026
3623.00,0.0027
3622.00,0.0026
3621.00,0.0026
3620.00,0.0026
3619.00,0.0026
3618.00,0.0026
3617.00,0.0027
3616.00,0.0027
3615.00,0.0027
3614.00,0.0027
3613.00,0.0027
3612.00,0.0027
3611.00,0.0027
3610.00,0.0027
3609.00,0.0027
3608.00,0.0028
3607.00,0.0028
3606.00,0.0028
3605.00,0.0028
3604.00,0.0028
3603.00,0.0028
3602.00,0.0029
3601.00,0.0029
3600.00,0.0029
3599.00,0.0029
3598.00,0.0029
3597.00,0.0029
3596.00,0.0029
3595.00,0.0029
3594.00,0.0029
3593.00,0.0029
3592.00,0.0029
3591.00,0.0029
3590.00,0.0029
3589.00,0.0029
3588.00,0.0029
3587.00,0.0029
3586.00,0.0029
3585.00,0.0029
3584.00,0.0030
3583.00,0.0030
3582.00,0.0030
3581.00,0.0030
3580.00,0.0030
3579.00,0.0030
3578.00,0.0030
3577.00,0.0030
3576.00,0.0030
3575.00,0.0030
3574.00,0.0030
3573.00,0.0030
3572.00,0.0030
3571.00,0.0030
3570.00,0.0030
3569.00,0.0030
3568.00,0.0031
3567.00,0.0031
3566.00,0.0031
3565.00,0.0031
3564.00,0.0031
3563.00,0.0031
3562.00,0.0032
3561.00,0.0032
3560.00,0.0032
3559.00,0.0033
3558.00,0.0033
3557.00,0.0033
3556.00,0.0033
3555.00,0.0033
3554.00,0.0033
3553.00,0.0033
3552.00,0.0033
3551.00,0.0033
3550.00,0.0033
3549.00,0.0033
3548.00,0.0033
3547.00,0.0033
3546.00,0.0033
3545.00,0.0033
3544.00,0.0033
3543.00,0.0033
3542.00,0.0033
3541.00,0.0033
3540.00,0.0033
3539.00,0.0033
3538.00,0.0033
3537.00,0.0033
3536.00,0.0034
3535.00,0.0034
3534.00,0.0034
3533.00,0.0034
3532.00,0.0033
3531.00,0.0033
3530.00,0.0033
3529.00,0.0033
3528.00,0.0033
3527.00,0.0034
3526.00,0.0034
3525.00,0.0034
3524.00,0.0033
3523.00,0.0033
3522.00,0.0033
3521.00,0.0033
3520.00,0.0033
3519.00,0.0033
3518.00,0.0033
3517.00,0.0034
3516.00,0.0034
3515.00,0.0034
3514.00,0.0034
3513.00,0.0034
3512.00,0.0034
3511.00,0.0034
3510.00,0.0034
3509.00,0.0034
3508.00,0.0034
3507.00,0.0034
3506.00,0.0034
3505.00,0.0034
3504.00,0.0034
3503.00,0.0034
3502.00,0.0034
3501.00,0.0033
3500.00,0.0033
3499.00,0.0033
3498.00,0.0033
3497.00,0.0033
3496.00,0.0034
3495.00,0.0034
3494.00,0.0034
3493.00,0.0033
3492.00,0.0033
3491.00,0.0033
3490.00,0.0033
3489.00,0.0033
3488.00,0.0033
3487.00,0.0033
3486.00,0.0033
3485.00,0.0033
3484.00,0.0033
3483.00,0.0033
3482.00,0.0033
3481.00,0.0033
3480.00,0.0033
3479.00,0.0033
3478.00,0.0033
3477.00,0.0033
3476.00,0.0033
3475.00,0.0033
3474.00,0.0033
3473.00,0.0033
3472.00,0.0033
3471.00,0.0033
3470.00,0.0033
3469.00,0.0032
3468.00,0.0032
3467.00,0.0033
3466.00,0.0033
3465.00,0.0033
3464.00,0.0033
3463.00,0.0033
3462.00,0.0033
3461.00,0.0033
3460.00,0.0033
3459.00,0.0033
3458.00,0.0033
3457.00,0.0034
3456.00,0.0034
3455.00,0.0034
3454.00,0.0034
3453.00,0.0034
3452.00,0.0035
3451.00,0.0035
3450.00,0.0036
3449.00,0.0036
3448.00,0.0036
3447.00,0.0036
3446.00,0.0036
3445.00,0.0036
3444.00,0.0037
3443.00,0.0037
3442.00,0.0038
3441.00,0.0038
3440.00,0.0039
3439.00,0.0040
3438.00,0.0040
3437.00,0.0041
3436.00,0.0041
3435.00,0.0042
3434.00,0.0042
3433.00,0.0043
3432.00,0.0043
3431.00,0.0044
3430.00,0.0044
3429.00,0.0045
3428.00,0.0046
3427.00,0.0046
3426.00,0.0047
3425.00,0.0047
3424.00,0.0048
3423.00,0.0048
3422.00,0.0049
3421.00,0.0050
3420.00,0.0050
3419.00,0.0050
3418.00,0.0051
3417.00,0.0051
3416.00,0.0051
3415.00,0.0052
3414.00,0.0052
3413.00,0.0052
3412.00,0.0052
3411.00,0.0052
3410.00,0.0052
3409.00,0.0053
3408.00,0.0053
3407.00,0.0054
3406.00,0.0054
3405.00,0.0054
3404.00,0.0054
3403.00,0.0054
3402.00,0.0054
3401.00,0.0055
3400.00,0.0055
3399.00,0.0056
3398.00,0.0057
3397.00,0.0058
3396.00,0.0059
3395.00,0.0060
3394.00,0.0060
3393.00,0.0061
3392.00,0.0062
3391.00,0.0063
3390.00,0.0065
3389.00,0.0066
3388.00,0.0068
3387.00,0.0069
3386.00,0.0071
3385.00,0.0072
3384.00,0.0074
3383.00,0.0075
3382.00,0.0077
3381.00,0.0078
3380.00,0.0080
3379.00,0.0082
3378.00,0.0084
3377.00,0.0086
3376.00,0.0088
3375.00,0.0091
3374.00,0.0093
3373.00,0.0096
3372.00,0.0098
3371.00,0.0100
3370.00,0.0102
3369.00,0.0104
3368.00,0.0107
3367.00,0.0110
3366.00,0.0113
3365.00,0.0117
3364.00,0.0120
3363.00,0.0123
3362.00,0.0126
3361.00,0.0129
3360.00,0.0132
3359.00,0.0135
3358.00,0.0138
3357.00,0.0141
3356.00,0.0144
3355.00,0.0147
3354.00,0.0150
3353.00,0.0152
3352.00,0.0154
3351.00,0.0157
3350.00,0.0159
3349.00,0.0161
3348.00,0.0164
3347.00,0.0166
3346.00,0.0168
3345.00,0.0170
3344.00,0.0171
3343.00,0.0172
3342.00,0.0173
3341.00,0.0174
3340.00,0.0175
3339.00,0.0175
3338.00,0.0176
3337.00,0.0176
3336.00,0.0177
3335.00,0.0177
3334.00,0.0177
3333.00,0.0177
3332.00,0.0176
3331.00,0.0176
3330.00,0.0175
3329.00,0.0174
3328.00,0.0173
3327.00,0.0172
3326.00,0.0171
3325.00,0.0170
3324.00,0.0170
3323.00,0.0169
3322.00,0.0168
3321.00,0.0167
3320.00,0.0165
3319.00,0.0164
3318.00,0.0162
3317.00,0.0161
3316.00,0.0159
3315.00,0.0158
3314.00,0.0156
3313.00,0.0154
3312.00,0.0152
3311.00,0.0150
3310.00,0.0147
3309.00,0.0145
3308.00,0.0143
3307.00,0.0140
3306.00,0.0138
3305.00,0.0136
3304.00,0.0134
3303.00,0.0132
3302.00,0.0130
3301.00,0.0128
3300.00,0.0126
3299.00,0.0124
3298.00,0.0122
3297.00,0.0119
3296.00,0.0117
3295.00,0.0115
3294.00,0.0113
3293.00,0.0111
3292.00,0.0109
3291.00,0.0108
3290.00,0.0107
3289.00,0.0105
3288.00,0.0103
3287.00,0.0102
3286.00,0.0101
3285.00,0.0099
3284.00,0.0098
3283.00,0.0096
3282.00,0.0095
3281.00,0.0093
3280.00,0.0092
3279.00,0.0091
3278.00,0.0090
3277.00,0.0089
3276.00,0.0088
3275.00,0.0087
3274.00,0.0086
3273.00,0.0085
3272.00,0.0084
3271.00,0.0083
3270.00,0.0082
3269.00,0.0082
3268.00,0.0081
3267.00,0.0081
3266.00,0.0080
3265.00,0.0080
3264.00,0.0080
3263.00,0.0079
3262.00,0.0079
3261.00,0.0079
3260.00,0.0078
3259.00,0.0078
3258.00,0.0078
3257.00,0.0078
3256.00,0.0078
3255.00,0.0078
3254.00,0.0078
3253.00,0.0078
3252.00,0.0078
3251.00,0.0077
3250.00,0.0077
3249.00,0.0077
3248.00,0.0077
3247.00,0.0076
3246.00,0.0076
3245.00,0.0077
3244.00,0.0077
3243.00,0.0076
3242.00,0.0076
3241.00,0.0076
3240.00,0.0076
3239.00,0.0076
3238.00,0.0075
3237.00,0.0074
3236.00,0.0074
3235.00,0.0073
3234.00,0.0072
3233.00,0.0072
3232.00,0.0071
3231.00,0.0071
3230.00,0.0071
3229.00,0.0070
3228.00,0.0070
3227.00,0.0069
3226.00,0.0069
3225.00,0.0068
3224.00,0.0067
3223.00,0.0066
3222.00,0.0066
3221.00,0.0065
3220.00,0.0064
3219.00,0.0063
3218.00,0.0062
3217.00,0.0061
3216.00,0.0060
3215.00,0.0060
3214.00,0.0059
3213.00,0.0058
3212.00,0.0058
3211.00,0.0057
3210.00,0.0056
3209.00,0.0056
3208.00,0.0055
3207.00,0.0055
3206.00,0.0054
3205.00,0.0054
3204.00,0.0053
3203.00,0.0053
3202.00,0.0052
3201.00,0.0052
3200.00,0.0051
3199.00,0.0051
3198.00,0.0051
3197.00,0.0050
3196.00,0.0050
3195.00,0.0050
3194.00,0.0049
3193.00,0.0049
3192.00,0.0048
3191.00,0.0048
3190.00,0.0047
3189.00,0.0047
3188.00,0.0046
3187.00,0.0046
3186.00,0.0046
3185.00,0.0046
3184.00,0.0046
3183.00,0.0046
3182.00,0.0046
3181.00,0.0046
3180.00,0.0045
3179.00,0.0045
3178.00,0.0045
3177.00,0.0045
3176.00,0.0045
3175.00,0.0044
3174.00,0.0044
3173.00,0.0044
3172.00,0.0044
3171.00,0.0044
3170.00,0.0043
3169.00,0.0043
3168.00,0.0043
3167.00,0.0043
3166.00,0.0043
3165.00,0.0043
3164.00,0.0043
3163.00,0.0043
3162.00,0.0043
3161.00,0.0043
3160.00,0.0043
3159.00,0.0043
3158.00,0.0043
3157.00,0.0043
3156.00,0.0043
3155.00,0.0043
3154.00,0.0043
3153.00,0.0043
3152.00,0.0043
3151.00,0.0043
3150.00,0.0043
3149.00,0.0043
3148.00,0.0043
3147.00,0.0043
3146.00,0.0043
3145.00,0.0044
3144.00,0.0044
3143.00,0.0044
3142.00,0.0044
3141.00,0.0044
3140.00,0.0044
3139.00,0.0044
3138.00,0.0044
3137.00,0.0045
3136.00,0.0045
3135.00,0.0046
3134.00,0.0046
3133.00,0.0046
3132.00,0.0046
3131.00,0.0047
3130.00,0.0047
3129.00,0.0047
3128.00,0.0048
3127.00,0.0049
3126.00,0.0049
3125.00,0.0050
3124.00,0.0050
3123.00,0.0051
3122.00,0.0051
3121.00,0.0052
3120.00,0.0052
3119.00,0.0053
3118.00,0.0054
3117.00,0.0054
3116.00,0.0055
3115.00,0.0056
3114.00,0.0056
3113.00,0.0057
3112.00,0.0058
3111.00,0.0059
3110.00,0.0059
3109.00,0.0060
3108.00,0.0060
3107.00,0.0061
3106.00,0.0061
3105.00,0.0061
3104.00,0.0062
3103.00,0.0062
3102.00,0.0061
3101.00,0.0061
3100.00,0.0061
3099.00,0.0061
3098.00,0.0061
3097.00,0.0060
3096.00,0.0060
3095.00,0.0060
3094.00,0.0059
3093.00,0.0059
3092.00,0.0058
3091.00,0.0057
3090.00,0.0057
3089.00,0.0056
3088.00,0.0056
3087.00,0.0055
3086.00,0.0054
3085.00,0.0054
3084.00,0.0053
3083.00,0.0053
3082.00,0.0052
3081.00,0.0052
3080.00,0.0052
3079.00,0.0051
3078.00,0.0051
3077.00,0.0051
3076.00,0.0051
3075.00,0.0050
3074.00,0.0051
3073.00,0.0051
3072.00,0.0051
3071.00,0.0051
3070.00,0.0050
3069.00,0.0050
3068.00,0.0050
3067.00,0.0050
3066.00,0.0050
3065.00,0.0050
3064.00,0.0050
3063.00,0.0050
3062.00,0.0051
3061.00,0.0051
3060.00,0.0050
3059.00,0.0050
3058.00,0.0049
3057.00,0.0049
3056.00,0.0048
3055.00,0.0048
3054.00,0.0047
3053.00,0.0046
3052.00,0.0046
3051.00,0.0045
3050.00,0.0045
3049.00,0.0045
3048.00,0.0044
3047.00,0.0044
3046.00,0.0044
3045.00,0.0044
3044.00,0.0043
3043.00,0.0043
3042.00,0.0043
3041.00,0.0043
3040.00,0.0043
3039.00,0.0043
3038.00,0.0044
3037.00,0.0044
3036.00,0.0044
3035.00,0.0044
3034.00,0.0045
3033.00,0.0045
3032.00,0.0046
3031.00,0.0046
3030.00,0.0046
3029.00,0.0047
3028.00,0.0047
3027.00,0.0048
3026.00,0.0048
3025.00,0.0049
3024.00,0.0050
3023.00,0.0050
3022.00,0.0050
3021.00,0.0051
3020.00,0.0051
3019.00,0.0052
3018.00,0.0052
3017.00,0.0053
3016.00,0.0054
3015.00,0.0054
3014.00,0.0054
3013.00,0.0055
3012.00,0.0056
3011.00,0.0057
3010.00,0.0058
3009.00,0.0059
3008.00,0.0060
3007.00,0.0061
3006.00,0.0062
3005.00,0.0064
3004.00,0.0065
3003.00,0.0066
3002.00,0.0068
3001.00,0.0069
3000.00,0.0071
2999.00,0.0073
2998.00,0.0074
2997.00,0.0077
2996.00,0.0079
2995.00,0.0081
2994.00,0.0083
2993.00,0.0085
2992.00,0.0087
2991.00,0.0088
2990.00,0.0090
2989.00,0.0091
2988.00,0.0092
2987.00,0.0092
2986.00,0.0093
2985.00,0.0092
2984.00,0.0091
2983.00,0.0089
2982.00,0.0088
2981.00,0.0087
2980.00,0.0088
2979.00,0.0088
2978.00,0.0089
2977.00,0.0088
2976.00,0.0087
2975.00,0.0085
2974.00,0.0083
2973.00,0.0081
2972.00,0.0078
2971.00,0.0076
2970.00,0.0075
2969.00,0.0074
2968.00,0.0073
2967.00,0.0073
2966.00,0.0073
2965.00,0.0073
2964.00,0.0073
2963.00,0.0073
2962.00,0.0074
2961.00,0.0076
2960.00,0.0078
2959.00,0.0080
2958.00,0.0082
2957.00,0.0084
2956.00,0.0086
2955.00,0.0088
2954.00,0.0090
2953.00,0.0093
2952.00,0.0095
2951.00,0.0098
2950.00,0.0099
2949.00,0.0100
2948.00,0.0100
2947.00,0.0100
2946.00,0.0099
2945.00,0.0098
2944.00,0.0096
2943.00,0.0094
2942.00,0.0093
2941.00,0.0091
2940.00,0.0089
2939.00,0.0088
2938.00,0.0087
2937.00,0.0085
2936.00,0.0084
2935.00,0.0083
2934.00,0.0082
2933.00,0.0081
2932.00,0.0079
2931.00,0.0078
2930.00,0.0077
2929.00,0.0076
2928.00,0.0075
2927.00,0.0074
2926.00,0.0073
2925.00,0.0071
2924.00,0.0069
2923.00,0.0068
2922.00,0.0066
2921.00,0.0065
2920.00,0.0063
2919.00,0.0062
2918.00,0.0061
2917.00,0.0061
2916.00,0.0060
2915.00,0.0060
2914.00,0.0060
2913.00,0.0060
2912.00,0.0060
2911.00,0.0061
2910.00,0.0061
2909.00,0.0062
2908.00,0.0063
2907.00,0.0064
2906.00,0.0064
2905.00,0.0065
2904.00,0.0065
2903.00,0.0065
2902.00,0.0064
2901.00,0.0064
2900.00,0.0063
2899.00,0.0063
2898.00,0.0061
2897.00,0.0060
2896.00,0.0059
2895.00,0.0057
2894.00,0.0057
2893.00,0.0056
2892.00,0.0055
2891.00,0.0054
2890.00,0.0053
2889.00,0.0052
2888.00,0.0052
2887.00,0.0051
2886.00,0.0050
2885.00,0.0050
2884.00,0.0049
2883.00,0.0049
2882.00,0.0049
2881.00,0.0049
2880.00,0.0048
2879.00,0.0049
2878.00,0.0049
2877.00,0.0049
2876.00,0.0049
2875.00,0.0049
2874.00,0.0048
2873.00,0.0049
2872.00,0.0049
2871.00,0.0050
2870.00,0.0050
2869.00,0.0050
2868.00,0.0049
2867.00,0.0049
2866.00,0.0048
2865.00,0.0048
2864.00,0.0048
2863.00,0.0047
2862.00,0.0047
2861.00,0.0046
2860.00,0.0046
2859.00,0.0046
2858.00,0.0046
2857.00,0.0046
2856.00,0.0046
2855.00,0.0046
2854.00,0.0046
2853.00,0.0046
2852.00,0.0046
2851.00,0.0047
2850.00,0.0047
2849.00,0.0047
2848.00,0.0048
2847.00,0.0048
2846.00,0.0049
2845.00,0.0050
2844.00,0.0050
2843.00,0.0051
2842.00,0.0051
2841.00,0.0051
2840.00,0.0051
2839.00,0.0051
2838.00,0.0050
2837.00,0.0050
2836.00,0.0050
2835.00,0.0050
2834.00,0.0049
2833.00,0.0048
2832.00,0.0048
2831.00,0.0047
2830.00,0.0047
2829.00,0.0046
2828.00,0.0046
2827.00,0.0046
2826.00,0.0046
2825.00,0.0045
2824.00,0.0045
2823.00,0.0045
2822.00,0.0045
2821.00,0.0045
2820.00,0.0045
2819.00,0.0045
2818.00,0.0045
2817.00,0.0045
2816.00,0.0045
2815.00,0.0045
2814.00,0.0045
2813.00,0.0045
2812.00,0.0045
2811.00,0.0045
2810.00,0.0045
2809.00,0.0045
2808.00,0.0045
2807.00,0.0044
2806.00,0.0044
2805.00,0.0044
2804.00,0.0044
2803.00,0.0044
2802.00,0.0044
2801.00,0.0044
2800.00,0.0043
2799.00,0.0043
2798.00,0.0043
2797.00,0.0043
2796.00,0.0043
2795.00,0.0042
2794.00,0.0042
2793.00,0.0042
2792.00,0.0042
2791.00,0.0041
2790.00,0.0041
2789.00,0.0041
2788.00,0.0041
2787.00,0.0040
2786.00,0.0040
2785.00,0.0040
2784.00,0.0040
2783.00,0.0040
2782.00,0.0040
2781.00,0.0039
2780.00,0.0039
2779.00,0.0039
2778.00,0.0039
2777.00,0.0039
2776.00,0.0039
2775.00,0.0038
2774.00,0.0038
2773.00,0.0038
2772.00,0.0038
2771.00,0.0038
2770.00,0.0038
2769.00,0.0038
2768.00,0.0038
2767.00,0.0038
2766.00,0.0038
2765.00,0.0038
2764.00,0.0038
2763.00,0.0038
2762.00,0.0038
2761.00,0.0038
2760.00,0.0037
2759.00,0.0038
2758.00,0.0038
2757.00,0.0038
