Created as New Dataset,Sample 619 By YargerLab Date Friday, June 06 2025
cm-1,A
4000.00,0.0061
3999.00,0.0061
3998.00,0.0061
3997.00,0.0061
3996.00,0.0061
3995.00,0.0061
3994.00,0.0061
3993.00,0.0061
3992.00,0.0061
3991.00,0.0061
3990.00,0.0061
3989.00,0.0061
3988.00,0.0061
3987.00,0.0061
3986.00,0.0061
3985.00,0.0061
3984.00,0.0061
3983.00,0.0061
3982.00,0.0061
3981.00,0.0061
3980.00,0.0061
3979.00,0.0061
3978.00,0.0061
3977.00,0.0061
3976.00,0.0061
3975.00,0.0061
3974.00,0.0061
3973.00,0.0061
3972.00,0.0061
3971.00,0.0061
3970.00,0.0061
3969.00,0.0061
3968.00,0.0061
3967.00,0.0061
3966.00,0.0061
3965.00,0.0062
3964.00,0.0062
3963.00,0.0062
3962.00,0.0062
3961.00,0.0062
3960.00,0.0062
3959.00,0.0062
3958.00,0.0062
3957.00,0.0062
3956.00,0.0062
3955.00,0.0062
3954.00,0.0062
3953.00,0.0062
3952.00,0.0061
3951.00,0.0061
3950.00,0.0061
3949.00,0.0061
3948.00,0.0062
3947.00,0.0062
3946.00,0.0062
3945.00,0.0062
3944.00,0.0062
3943.00,0.0062
3942.00,0.0062
3941.00,0.0062
3940.00,0.0062
3939.00,0.0062
3938.00,0.0062
3937.00,0.0062
3936.00,0.0062
3935.00,0.0062
3934.00,0.0062
3933.00,0.0062
3932.00,0.0063
3931.00,0.0062
3930.00,0.0062
3929.00,0.0062
3928.00,0.0062
3927.00,0.0062
3926.00,0.0062
3925.00,0.0062
3924.00,0.0062
3923.00,0.0062
3922.00,0.0062
3921.00,0.0062
3920.00,0.0061
3919.00,0.0061
3918.00,0.0061
3917.00,0.0061
3916.00,0.0061
3915.00,0.0061
3914.00,0.0061
3913.00,0.0061
3912.00,0.0061
3911.00,0.0061
3910.00,0.0061
3909.00,0.0061
3908.00,0.0061
3907.00,0.0061
3906.00,0.0061
3905.00,0.0061
3904.00,0.0062
3903.00,0.0062
3902.00,0.0062
3901.00,0.0063
3900.00,0.0062
3899.00,0.0062
3898.00,0.0061
3897.00,0.0061
3896.00,0.0061
3895.00,0.0061
3894.00,0.0061
3893.00,0.0061
3892.00,0.0061
3891.00,0.0061
3890.00,0.0061
3889.00,0.0061
3888.00,0.0061
3887.00,0.0061
3886.00,0.0061
3885.00,0.0060
3884.00,0.0060
3883.00,0.0061
3882.00,0.0061
3881.00,0.0061
3880.00,0.0061
3879.00,0.0060
3878.00,0.0060
3877.00,0.0060
3876.00,0.0060
3875.00,0.0060
3874.00,0.0060
3873.00,0.0060
3872.00,0.0061
3871.00,0.0061
3870.00,0.0061
3869.00,0.0060
3868.00,0.0061
3867.00,0.0061
3866.00,0.0061
3865.00,0.0060
3864.00,0.0060
3863.00,0.0060
3862.00,0.0060
3861.00,0.0060
3860.00,0.0060
3859.00,0.0060
3858.00,0.0060
3857.00,0.0061
3856.00,0.0061
3855.00,0.0062
3854.00,0.0062
3853.00,0.0061
3852.00,0.0061
3851.00,0.0062
3850.00,0.0062
3849.00,0.0061
3848.00,0.0061
3847.00,0.0060
3846.00,0.0060
3845.00,0.0060
3844.00,0.0060
3843.00,0.0060
3842.00,0.0061
3841.00,0.0061
3840.00,0.0061
3839.00,0.0061
3838.00,0.0061
3837.00,0.0061
3836.00,0.0061
3835.00,0.0061
3834.00,0.0061
3833.00,0.0061
3832.00,0.0061
3831.00,0.0060
3830.00,0.0060
3829.00,0.0060
3828.00,0.0059
3827.00,0.0059
3826.00,0.0059
3825.00,0.0059
3824.00,0.0060
3823.00,0.0060
3822.00,0.0060
3821.00,0.0060
3820.00,0.0060
3819.00,0.0060
3818.00,0.0060
3817.00,0.0060
3816.00,0.0060
3815.00,0.0060
3814.00,0.0060
3813.00,0.0060
3812.00,0.0060
3811.00,0.0060
3810.00,0.0060
3809.00,0.0060
3808.00,0.0060
3807.00,0.0060
3806.00,0.0061
3805.00,0.0061
3804.00,0.0061
3803.00,0.0061
3802.00,0.0061
3801.00,0.0060
3800.00,0.0060
3799.00,0.0060
3798.00,0.0061
3797.00,0.0060
3796.00,0.0060
3795.00,0.0060
3794.00,0.0060
3793.00,0.0060
3792.00,0.0060
3791.00,0.0060
3790.00,0.0060
3789.00,0.0060
3788.00,0.0060
3787.00,0.0059
3786.00,0.0059
3785.00,0.0059
3784.00,0.0059
3783.00,0.0059
3782.00,0.0060
3781.00,0.0060
3780.00,0.0060
3779.00,0.0060
3778.00,0.0059
3777.00,0.0059
3776.00,0.0059
3775.00,0.0059
3774.00,0.0060
3773.00,0.0060
3772.00,0.0060
3771.00,0.0060
3770.00,0.0060
3769.00,0.0059
3768.00,0.0060
3767.00,0.0060
3766.00,0.0060
3765.00,0.0060
3764.00,0.0060
3763.00,0.0060
3762.00,0.0060
3761.00,0.0060
3760.00,0.0060
3759.00,0.0060
3758.00,0.0060
3757.00,0.0060
3756.00,0.0061
3755.00,0.0061
3754.00,0.0061
3753.00,0.0062
3752.00,0.0062
3751.00,0.0062
3750.00,0.0062
3749.00,0.0062
3748.00,0.0062
3747.00,0.0062
3746.00,0.0062
3745.00,0.0062
3744.00,0.0061
3743.00,0.0061
3742.00,0.0061
3741.00,0.0061
3740.00,0.0061
3739.00,0.0061
3738.00,0.0061
3737.00,0.0061
3736.00,0.0060
3735.00,0.0060
3734.00,0.0060
3733.00,0.0060
3732.00,0.0060
3731.00,0.0060
3730.00,0.0060
3729.00,0.0060
3728.00,0.0060
3727.00,0.0060
3726.00,0.0060
3725.00,0.0060
3724.00,0.0059
3723.00,0.0059
3722.00,0.0059
3721.00,0.0058
3720.00,0.0058
3719.00,0.0058
3718.00,0.0058
3717.00,0.0059
3716.00,0.0059
3715.00,0.0060
3714.00,0.0060
3713.00,0.0060
3712.00,0.0060
3711.00,0.0060
3710.00,0.0059
3709.00,0.0059
3708.00,0.0059
3707.00,0.0059
3706.00,0.0059
3705.00,0.0059
3704.00,0.0059
3703.00,0.0058
3702.00,0.0058
3701.00,0.0058
3700.00,0.0058
3699.00,0.0058
3698.00,0.0058
3697.00,0.0057
3696.00,0.0057
3695.00,0.0057
3694.00,0.0057
3693.00,0.0058
3692.00,0.0058
3691.00,0.0058
3690.00,0.0058
3689.00,0.0058
3688.00,0.0058
3687.00,0.0058
3686.00,0.0058
3685.00,0.0058
3684.00,0.0058
3683.00,0.0058
3682.00,0.0057
3681.00,0.0058
3680.00,0.0058
3679.00,0.0058
3678.00,0.0058
3677.00,0.0059
3676.00,0.0059
3675.00,0.0059
3674.00,0.0059
3673.00,0.0059
3672.00,0.0059
3671.00,0.0059
3670.00,0.0059
3669.00,0.0058
3668.00,0.0058
3667.00,0.0058
3666.00,0.0058
3665.00,0.0057
3664.00,0.0057
3663.00,0.0057
3662.00,0.0057
3661.00,0.0057
3660.00,0.0057
3659.00,0.0058
3658.00,0.0058
3657.00,0.0058
3656.00,0.0058
3655.00,0.0058
3654.00,0.0058
3653.00,0.0058
3652.00,0.0058
3651.00,0.0059
3650.00,0.0059
3649.00,0.0059
3648.00,0.0060
3647.00,0.0060
3646.00,0.0059
3645.00,0.0059
3644.00,0.0058
3643.00,0.0057
3642.00,0.0057
3641.00,0.0056
3640.00,0.0056
3639.00,0.0056
3638.00,0.0057
3637.00,0.0057
3636.00,0.0057
3635.00,0.0057
3634.00,0.0057
3633.00,0.0057
3632.00,0.0057
3631.00,0.0058
3630.00,0.0058
3629.00,0.0059
3628.00,0.0059
3627.00,0.0058
3626.00,0.0058
3625.00,0.0058
3624.00,0.0057
3623.00,0.0057
3622.00,0.0057
3621.00,0.0057
3620.00,0.0058
3619.00,0.0058
3618.00,0.0058
3617.00,0.0058
3616.00,0.0058
3615.00,0.0058
3614.00,0.0057
3613.00,0.0057
3612.00,0.0057
3611.00,0.0058
3610.00,0.0058
3609.00,0.0059
3608.00,0.0059
3607.00,0.0059
3606.00,0.0059
3605.00,0.0059
3604.00,0.0058
3603.00,0.0058
3602.00,0.0058
3601.00,0.0058
3600.00,0.0058
3599.00,0.0058
3598.00,0.0058
3597.00,0.0058
3596.00,0.0058
3595.00,0.0058
3594.00,0.0058
3593.00,0.0058
3592.00,0.0058
3591.00,0.0058
3590.00,0.0058
3589.00,0.0058
3588.00,0.0058
3587.00,0.0057
3586.00,0.0057
3585.00,0.0057
3584.00,0.0057
3583.00,0.0057
3582.00,0.0057
3581.00,0.0057
3580.00,0.0057
3579.00,0.0057
3578.00,0.0057
3577.00,0.0057
3576.00,0.0057
3575.00,0.0057
3574.00,0.0057
3573.00,0.0057
3572.00,0.0057
3571.00,0.0058
3570.00,0.0058
3569.00,0.0058
3568.00,0.0058
3567.00,0.0058
3566.00,0.0058
3565.00,0.0059
3564.00,0.0059
3563.00,0.0059
3562.00,0.0058
3561.00,0.0058
3560.00,0.0058
3559.00,0.0058
3558.00,0.0058
3557.00,0.0058
3556.00,0.0058
3555.00,0.0058
3554.00,0.0058
3553.00,0.0058
3552.00,0.0058
3551.00,0.0058
3550.00,0.0058
3549.00,0.0058
3548.00,0.0058
3547.00,0.0058
3546.00,0.0058
3545.00,0.0058
3544.00,0.0058
3543.00,0.0058
3542.00,0.0058
3541.00,0.0057
3540.00,0.0058
3539.00,0.0058
3538.00,0.0058
3537.00,0.0058
3536.00,0.0058
3535.00,0.0058
3534.00,0.0058
3533.00,0.0058
3532.00,0.0058
3531.00,0.0058
3530.00,0.0058
3529.00,0.0058
3528.00,0.0058
3527.00,0.0058
3526.00,0.0058
3525.00,0.0058
3524.00,0.0058
3523.00,0.0058
3522.00,0.0058
3521.00,0.0058
3520.00,0.0058
3519.00,0.0058
3518.00,0.0057
3517.00,0.0057
3516.00,0.0058
3515.00,0.0058
3514.00,0.0058
3513.00,0.0058
3512.00,0.0058
3511.00,0.0058
3510.00,0.0058
3509.00,0.0058
3508.00,0.0058
3507.00,0.0058
3506.00,0.0057
3505.00,0.0057
3504.00,0.0057
3503.00,0.0057
3502.00,0.0057
3501.00,0.0058
3500.00,0.0058
3499.00,0.0058
3498.00,0.0058
3497.00,0.0058
3496.00,0.0057
3495.00,0.0057
3494.00,0.0057
3493.00,0.0057
3492.00,0.0057
3491.00,0.0057
3490.00,0.0057
3489.00,0.0057
3488.00,0.0057
3487.00,0.0057
3486.00,0.0057
3485.00,0.0057
3484.00,0.0057
3483.00,0.0057
3482.00,0.0057
3481.00,0.0057
3480.00,0.0057
3479.00,0.0057
3478.00,0.0057
3477.00,0.0057
3476.00,0.0057
3475.00,0.0057
3474.00,0.0057
3473.00,0.0057
3472.00,0.0057
3471.00,0.0057
3470.00,0.0056
3469.00,0.0056
3468.00,0.0057
3467.00,0.0057
3466.00,0.0057
3465.00,0.0057
3464.00,0.0057
3463.00,0.0057
3462.00,0.0057
3461.00,0.0057
3460.00,0.0057
3459.00,0.0057
3458.00,0.0057
3457.00,0.0057
3456.00,0.0057
3455.00,0.0057
3454.00,0.0057
3453.00,0.0057
3452.00,0.0057
3451.00,0.0057
3450.00,0.0057
3449.00,0.0057
3448.00,0.0057
3447.00,0.0058
3446.00,0.0058
3445.00,0.0058
3444.00,0.0058
3443.00,0.0058
3442.00,0.0058
3441.00,0.0058
3440.00,0.0058
3439.00,0.0058
3438.00,0.0058
3437.00,0.0058
3436.00,0.0058
3435.00,0.0058
3434.00,0.0059
3433.00,0.0059
3432.00,0.0059
3431.00,0.0060
3430.00,0.0060
3429.00,0.0060
3428.00,0.0060
3427.00,0.0060
3426.00,0.0060
3425.00,0.0061
3424.00,0.0061
3423.00,0.0061
3422.00,0.0061
3421.00,0.0062
3420.00,0.0063
3419.00,0.0063
3418.00,0.0064
3417.00,0.0064
3416.00,0.0064
3415.00,0.0065
3414.00,0.0065
3413.00,0.0066
3412.00,0.0066
3411.00,0.0067
3410.00,0.0068
3409.00,0.0069
3408.00,0.0070
3407.00,0.0071
3406.00,0.0072
3405.00,0.0073
3404.00,0.0074
3403.00,0.0074
3402.00,0.0074
3401.00,0.0075
3400.00,0.0076
3399.00,0.0078
3398.00,0.0079
3397.00,0.0080
3396.00,0.0081
3395.00,0.0082
3394.00,0.0083
3393.00,0.0083
3392.00,0.0085
3391.00,0.0086
3390.00,0.0088
3389.00,0.0089
3388.00,0.0091
3387.00,0.0093
3386.00,0.0095
3385.00,0.0097
3384.00,0.0099
3383.00,0.0101
3382.00,0.0103
3381.00,0.0106
3380.00,0.0109
3379.00,0.0112
3378.00,0.0116
3377.00,0.0120
3376.00,0.0125
3375.00,0.0131
3374.00,0.0137
3373.00,0.0144
3372.00,0.0152
3371.00,0.0161
3370.00,0.0172
3369.00,0.0185
3368.00,0.0200
3367.00,0.0216
3366.00,0.0234
3365.00,0.0254
3364.00,0.0273
3363.00,0.0293
3362.00,0.0311
3361.00,0.0326
3360.00,0.0339
3359.00,0.0348
3358.00,0.0353
3357.00,0.0355
3356.00,0.0353
3355.00,0.0347
3354.00,0.0340
3353.00,0.0330
3352.00,0.0320
3351.00,0.0309
3350.00,0.0298
3349.00,0.0287
3348.00,0.0277
3347.00,0.0267
3346.00,0.0257
3345.00,0.0249
3344.00,0.0241
3343.00,0.0234
3342.00,0.0227
3341.00,0.0222
3340.00,0.0217
3339.00,0.0212
3338.00,0.0208
3337.00,0.0205
3336.00,0.0202
3335.00,0.0199
3334.00,0.0197
3333.00,0.0194
3332.00,0.0192
3331.00,0.0190
3330.00,0.0187
3329.00,0.0185
3328.00,0.0183
3327.00,0.0181
3326.00,0.0179
3325.00,0.0177
3324.00,0.0175
3323.00,0.0174
3322.00,0.0172
3321.00,0.0171
3320.00,0.0169
3319.00,0.0168
3318.00,0.0166
3317.00,0.0164
3316.00,0.0163
3315.00,0.0161
3314.00,0.0159
3313.00,0.0157
3312.00,0.0154
3311.00,0.0152
3310.00,0.0150
3309.00,0.0149
3308.00,0.0147
3307.00,0.0145
3306.00,0.0144
3305.00,0.0143
3304.00,0.0142
3303.00,0.0140
3302.00,0.0139
3301.00,0.0138
3300.00,0.0137
3299.00,0.0135
3298.00,0.0133
3297.00,0.0132
3296.00,0.0130
3295.00,0.0129
3294.00,0.0127
3293.00,0.0125
3292.00,0.0124
3291.00,0.0122
3290.00,0.0121
3289.00,0.0119
3288.00,0.0118
3287.00,0.0116
3286.00,0.0115
3285.00,0.0113
3284.00,0.0112
3283.00,0.0111
3282.00,0.0110
3281.00,0.0108
3280.00,0.0107
3279.00,0.0106
3278.00,0.0105
3277.00,0.0105
3276.00,0.0104
3275.00,0.0103
3274.00,0.0102
3273.00,0.0101
3272.00,0.0100
3271.00,0.0100
3270.00,0.0100
3269.00,0.0099
3268.00,0.0099
3267.00,0.0099
3266.00,0.0098
3265.00,0.0098
3264.00,0.0098
3263.00,0.0098
3262.00,0.0098
3261.00,0.0097
3260.00,0.0097
3259.00,0.0097
3258.00,0.0096
3257.00,0.0096
3256.00,0.0096
3255.00,0.0096
3254.00,0.0096
3253.00,0.0096
3252.00,0.0095
3251.00,0.0095
3250.00,0.0095
3249.00,0.0095
3248.00,0.0095
3247.00,0.0095
3246.00,0.0096
3245.00,0.0097
3244.00,0.0097
3243.00,0.0098
3242.00,0.0098
3241.00,0.0098
3240.00,0.0099
3239.00,0.0099
3238.00,0.0099
3237.00,0.0098
3236.00,0.0097
3235.00,0.0097
3234.00,0.0097
3233.00,0.0097
3232.00,0.0097
3231.00,0.0097
3230.00,0.0097
3229.00,0.0097
3228.00,0.0096
3227.00,0.0096
3226.00,0.0095
3225.00,0.0095
3224.00,0.0094
3223.00,0.0093
3222.00,0.0092
3221.00,0.0090
3220.00,0.0090
3219.00,0.0089
3218.00,0.0089
3217.00,0.0088
3216.00,0.0088
3215.00,0.0087
3214.00,0.0087
3213.00,0.0086
3212.00,0.0086
3211.00,0.0085
3210.00,0.0084
3209.00,0.0083
3208.00,0.0083
3207.00,0.0082
3206.00,0.0082
3205.00,0.0081
3204.00,0.0081
3203.00,0.0081
3202.00,0.0080
3201.00,0.0080
3200.00,0.0080
3199.00,0.0080
3198.00,0.0080
3197.00,0.0079
3196.00,0.0079
3195.00,0.0078
3194.00,0.0078
3193.00,0.0078
3192.00,0.0077
3191.00,0.0077
3190.00,0.0077
3189.00,0.0077
3188.00,0.0077
3187.00,0.0076
3186.00,0.0077
3185.00,0.0077
3184.00,0.0077
3183.00,0.0076
3182.00,0.0076
3181.00,0.0076
3180.00,0.0076
3179.00,0.0075
3178.00,0.0075
3177.00,0.0075
3176.00,0.0075
3175.00,0.0075
3174.00,0.0075
3173.00,0.0074
3172.00,0.0074
3171.00,0.0074
3170.00,0.0074
3169.00,0.0074
3168.00,0.0074
3167.00,0.0074
3166.00,0.0074
3165.00,0.0074
3164.00,0.0073
3163.00,0.0073
3162.00,0.0073
3161.00,0.0073
3160.00,0.0074
3159.00,0.0074
3158.00,0.0074
3157.00,0.0074
3156.00,0.0074
3155.00,0.0074
3154.00,0.0074
3153.00,0.0074
3152.00,0.0074
3151.00,0.0074
3150.00,0.0074
3149.00,0.0074
3148.00,0.0074
3147.00,0.0074
3146.00,0.0074
3145.00,0.0074
3144.00,0.0074
3143.00,0.0074
3142.00,0.0074
3141.00,0.0074
3140.00,0.0074
3139.00,0.0074
3138.00,0.0074
3137.00,0.0075
3136.00,0.0075
3135.00,0.0075
3134.00,0.0076
3133.00,0.0076
3132.00,0.0076
3131.00,0.0075
3130.00,0.0075
3129.00,0.0076
3128.00,0.0076
3127.00,0.0076
3126.00,0.0077
3125.00,0.0077
3124.00,0.0077
3123.00,0.0078
3122.00,0.0078
3121.00,0.0079
3120.00,0.0079
3119.00,0.0080
3118.00,0.0081
3117.00,0.0081
3116.00,0.0082
3115.00,0.0083
3114.00,0.0084
3113.00,0.0085
3112.00,0.0086
3111.00,0.0087
3110.00,0.0088
3109.00,0.0089
3108.00,0.0090
3107.00,0.0091
3106.00,0.0092
3105.00,0.0092
3104.00,0.0093
3103.00,0.0093
3102.00,0.0093
3101.00,0.0093
3100.00,0.0093
3099.00,0.0092
3098.00,0.0092
3097.00,0.0092
3096.00,0.0091
3095.00,0.0091
3094.00,0.0090
3093.00,0.0089
3092.00,0.0089
3091.00,0.0088
3090.00,0.0088
3089.00,0.0087
3088.00,0.0087
3087.00,0.0087
3086.00,0.0087
3085.00,0.0087
3084.00,0.0087
3083.00,0.0087
3082.00,0.0087
3081.00,0.0086
3080.00,0.0086
3079.00,0.0086
3078.00,0.0085
3077.00,0.0085
3076.00,0.0084
3075.00,0.0084
3074.00,0.0084
3073.00,0.0083
3072.00,0.0083
3071.00,0.0083
3070.00,0.0083
3069.00,0.0082
3068.00,0.0082
3067.00,0.0082
3066.00,0.0082
3065.00,0.0082
3064.00,0.0082
3063.00,0.0081
3062.00,0.0081
3061.00,0.0081
3060.00,0.0081
3059.00,0.0081
3058.00,0.0080
3057.00,0.0080
3056.00,0.0080
3055.00,0.0080
3054.00,0.0080
3053.00,0.0080
3052.00,0.0080
3051.00,0.0080
3050.00,0.0080
3049.00,0.0080
3048.00,0.0079
3047.00,0.0079
3046.00,0.0079
3045.00,0.0078
3044.00,0.0078
3043.00,0.0078
3042.00,0.0078
3041.00,0.0079
3040.00,0.0080
3039.00,0.0081
3038.00,0.0081
3037.00,0.0082
3036.00,0.0082
3035.00,0.0082
3034.00,0.0082
3033.00,0.0083
3032.00,0.0083
3031.00,0.0083
3030.00,0.0084
3029.00,0.0084
3028.00,0.0084
3027.00,0.0084
3026.00,0.0084
3025.00,0.0085
3024.00,0.0085
3023.00,0.0086
3022.00,0.0087
3021.00,0.0088
3020.00,0.0088
3019.00,0.0089
3018.00,0.0089
3017.00,0.0089
3016.00,0.0089
3015.00,0.0089
3014.00,0.0089
3013.00,0.0089
3012.00,0.0089
3011.00,0.0090
3010.00,0.0090
3009.00,0.0091
3008.00,0.0092
3007.00,0.0093
3006.00,0.0093
3005.00,0.0094
3004.00,0.0096
3003.00,0.0097
3002.00,0.0099
3001.00,0.0101
3000.00,0.0102
2999.00,0.0104
2998.00,0.0106
2997.00,0.0108
2996.00,0.0110
2995.00,0.0111
2994.00,0.0112
2993.00,0.0114
2992.00,0.0115
2991.00,0.0117
2990.00,0.0119
2989.00,0.0121
2988.00,0.0122
2987.00,0.0122
2986.00,0.0121
2985.00,0.0119
2984.00,0.0116
2983.00,0.0113
2982.00,0.0110
2981.00,0.0107
2980.00,0.0105
2979.00,0.0104
2978.00,0.0102
2977.00,0.0101
2976.00,0.0100
2975.00,0.0098
2974.00,0.0098
2973.00,0.0097
2972.00,0.0097
2971.00,0.0098
2970.00,0.0098
2969.00,0.0098
2968.00,0.0099
2967.00,0.0099
2966.00,0.0100
2965.00,0.0101
2964.00,0.0102
2963.00,0.0104
2962.00,0.0107
2961.00,0.0110
2960.00,0.0114
2959.00,0.0119
2958.00,0.0124
2957.00,0.0129
2956.00,0.0135
2955.00,0.0142
2954.00,0.0148
2953.00,0.0153
2952.00,0.0157
2951.00,0.0159
2950.00,0.0158
2949.00,0.0155
2948.00,0.0151
2947.00,0.0146
2946.00,0.0141
2945.00,0.0136
2944.00,0.0131
2943.00,0.0127
2942.00,0.0123
2941.00,0.0120
2940.00,0.0117
2939.00,0.0115
2938.00,0.0112
2937.00,0.0111
2936.00,0.0109
2935.00,0.0108
2934.00,0.0107
2933.00,0.0106
2932.00,0.0106
2931.00,0.0105
2930.00,0.0104
2929.00,0.0104
2928.00,0.0103
2927.00,0.0102
2926.00,0.0102
2925.00,0.0101
2924.00,0.0100
2923.00,0.0099
2922.00,0.0098
2921.00,0.0097
2920.00,0.0096
2919.00,0.0096
2918.00,0.0095
2917.00,0.0094
2916.00,0.0094
2915.00,0.0093
2914.00,0.0093
2913.00,0.0093
2912.00,0.0093
2911.00,0.0093
2910.00,0.0093
2909.00,0.0093
2908.00,0.0093
2907.00,0.0093
2906.00,0.0093
2905.00,0.0093
2904.00,0.0092
2903.00,0.0091
2902.00,0.0091
2901.00,0.0090
2900.00,0.0089
2899.00,0.0088
2898.00,0.0087
2897.00,0.0087
2896.00,0.0087
2895.00,0.0086
2894.00,0.0086
2893.00,0.0086
2892.00,0.0086
2891.00,0.0086
2890.00,0.0086
2889.00,0.0086
2888.00,0.0086
2887.00,0.0086
2886.00,0.0086
2885.00,0.0086
2884.00,0.0086
2883.00,0.0086
2882.00,0.0086
2881.00,0.0086
2880.00,0.0086
2879.00,0.0085
2878.00,0.0085
2877.00,0.0084
2876.00,0.0084
2875.00,0.0084
2874.00,0.0084
2873.00,0.0084
2872.00,0.0084
2871.00,0.0085
2870.00,0.0085
2869.00,0.0085
2868.00,0.0085
2867.00,0.0086
2866.00,0.0086
2865.00,0.0086
2864.00,0.0087
2863.00,0.0087
2862.00,0.0086
2861.00,0.0086
2860.00,0.0086
2859.00,0.0086
2858.00,0.0086
2857.00,0.0085
2856.00,0.0085
2855.00,0.0085
2854.00,0.0084
2853.00,0.0084
2852.00,0.0084
2851.00,0.0084
2850.00,0.0084
2849.00,0.0084
2848.00,0.0085
2847.00,0.0085
2846.00,0.0086
2845.00,0.0087
2844.00,0.0088
2843.00,0.0089
2842.00,0.0090
2841.00,0.0091
2840.00,0.0092
2839.00,0.0093
2838.00,0.0093
2837.00,0.0092
2836.00,0.0090
2835.00,0.0089
2834.00,0.0087
2833.00,0.0085
2832.00,0.0084
2831.00,0.0083
2830.00,0.0082
2829.00,0.0081
2828.00,0.0081
2827.00,0.0080
2826.00,0.0080
2825.00,0.0080
2824.00,0.0079
2823.00,0.0079
2822.00,0.0079
2821.00,0.0079
2820.00,0.0079
2819.00,0.0080
2818.00,0.0080
2817.00,0.0080
2816.00,0.0080
2815.00,0.0080
2814.00,0.0080
2813.00,0.0080
2812.00,0.0080
2811.00,0.0080
2810.00,0.0080
2809.00,0.0081
2808.00,0.0080
2807.00,0.0080
2806.00,0.0080
2805.00,0.0080
2804.00,0.0079
2803.00,0.0079
2802.00,0.0079
2801.00,0.0078
2800.00,0.0078
2799.00,0.0077
2798.00,0.0076
2797.00,0.0076
2796.00,0.0076
2795.00,0.0076
2794.00,0.0075
2793.00,0.0075
2792.00,0.0075
2791.00,0.0074
2790.00,0.0074
2789.00,0.0073
2788.00,0.0073
2787.00,0.0073
2786.00,0.0073
2785.00,0.0073
2784.00,0.0072
2783.00,0.0072
2782.00,0.0072
2781.00,0.0072
2780.00,0.0072
2779.00,0.0071
2778.00,0.0071
2777.00,0.0071
2776.00,0.0070
2775.00,0.0070
2774.00,0.0070
2773.00,0.0070
2772.00,0.0070
2771.00,0.0070
2770.00,0.0070
2769.00,0.0070
2768.00,0.0069
2767.00,0.0069
2766.00,0.0069
2765.00,0.0069
2764.00,0.0069
2763.00,0.0069
2762.00,0.0069
2761.00,0.0069
2760.00,0.0069
2759.00,0.0069
2758.00,0.0069
2757.00,0.0069
