Created as New Dataset,Sample 065 By YargerLab Date Wednesday, August 13 2025
cm-1,A
4000.00,0.0029
3999.00,0.0029
3998.00,0.0029
3997.00,0.0029
3996.00,0.0029
3995.00,0.0029
3994.00,0.0029
3993.00,0.0029
3992.00,0.0029
3991.00,0.0029
3990.00,0.0029
3989.00,0.0029
3988.00,0.0029
3987.00,0.0029
3986.00,0.0029
3985.00,0.0029
3984.00,0.0029
3983.00,0.0029
3982.00,0.0029
3981.00,0.0029
3980.00,0.0029
3979.00,0.0029
3978.00,0.0029
3977.00,0.0029
3976.00,0.0029
3975.00,0.0029
3974.00,0.0029
3973.00,0.0028
3972.00,0.0028
3971.00,0.0029
3970.00,0.0029
3969.00,0.0029
3968.00,0.0029
3967.00,0.0029
3966.00,0.0029
3965.00,0.0029
3964.00,0.0029
3963.00,0.0029
3962.00,0.0029
3961.00,0.0028
3960.00,0.0028
3959.00,0.0028
3958.00,0.0028
3957.00,0.0028
3956.00,0.0028
3955.00,0.0029
3954.00,0.0029
3953.00,0.0029
3952.00,0.0029
3951.00,0.0029
3950.00,0.0029
3949.00,0.0029
3948.00,0.0028
3947.00,0.0028
3946.00,0.0028
3945.00,0.0028
3944.00,0.0028
3943.00,0.0028
3942.00,0.0028
3941.00,0.0028
3940.00,0.0028
3939.00,0.0028
3938.00,0.0028
3937.00,0.0029
3936.00,0.0029
3935.00,0.0029
3934.00,0.0029
3933.00,0.0029
3932.00,0.0029
3931.00,0.0028
3930.00,0.0028
3929.00,0.0028
3928.00,0.0028
3927.00,0.0028
3926.00,0.0028
3925.00,0.0029
3924.00,0.0029
3923.00,0.0029
3922.00,0.0029
3921.00,0.0029
3920.00,0.0028
3919.00,0.0028
3918.00,0.0028
3917.00,0.0028
3916.00,0.0028
3915.00,0.0028
3914.00,0.0028
3913.00,0.0028
3912.00,0.0028
3911.00,0.0029
3910.00,0.0029
3909.00,0.0028
3908.00,0.0028
3907.00,0.0028
3906.00,0.0028
3905.00,0.0027
3904.00,0.0027
3903.00,0.0027
3902.00,0.0027
3901.00,0.0027
3900.00,0.0027
3899.00,0.0027
3898.00,0.0028
3897.00,0.0028
3896.00,0.0028
3895.00,0.0028
3894.00,0.0027
3893.00,0.0027
3892.00,0.0027
3891.00,0.0027
3890.00,0.0027
3889.00,0.0027
3888.00,0.0027
3887.00,0.0027
3886.00,0.0027
3885.00,0.0028
3884.00,0.0028
3883.00,0.0027
3882.00,0.0027
3881.00,0.0027
3880.00,0.0027
3879.00,0.0027
3878.00,0.0027
3877.00,0.0027
3876.00,0.0027
3875.00,0.0027
3874.00,0.0027
3873.00,0.0027
3872.00,0.0027
3871.00,0.0027
3870.00,0.0027
3869.00,0.0027
3868.00,0.0027
3867.00,0.0027
3866.00,0.0027
3865.00,0.0027
3864.00,0.0027
3863.00,0.0027
3862.00,0.0027
3861.00,0.0028
3860.00,0.0028
3859.00,0.0027
3858.00,0.0027
3857.00,0.0027
3856.00,0.0027
3855.00,0.0027
3854.00,0.0026
3853.00,0.0026
3852.00,0.0026
3851.00,0.0026
3850.00,0.0026
3849.00,0.0027
3848.00,0.0027
3847.00,0.0027
3846.00,0.0027
3845.00,0.0028
3844.00,0.0028
3843.00,0.0028
3842.00,0.0027
3841.00,0.0027
3840.00,0.0027
3839.00,0.0027
3838.00,0.0026
3837.00,0.0026
3836.00,0.0026
3835.00,0.0026
3834.00,0.0027
3833.00,0.0027
3832.00,0.0027
3831.00,0.0027
3830.00,0.0027
3829.00,0.0027
3828.00,0.0027
3827.00,0.0027
3826.00,0.0027
3825.00,0.0027
3824.00,0.0027
3823.00,0.0027
3822.00,0.0027
3821.00,0.0027
3820.00,0.0027
3819.00,0.0027
3818.00,0.0027
3817.00,0.0027
3816.00,0.0027
3815.00,0.0027
3814.00,0.0027
3813.00,0.0027
3812.00,0.0027
3811.00,0.0027
3810.00,0.0027
3809.00,0.0027
3808.00,0.0027
3807.00,0.0027
3806.00,0.0027
3805.00,0.0027
3804.00,0.0027
3803.00,0.0026
3802.00,0.0027
3801.00,0.0027
3800.00,0.0027
3799.00,0.0027
3798.00,0.0027
3797.00,0.0027
3796.00,0.0027
3795.00,0.0027
3794.00,0.0028
3793.00,0.0028
3792.00,0.0028
3791.00,0.0028
3790.00,0.0028
3789.00,0.0028
3788.00,0.0028
3787.00,0.0028
3786.00,0.0028
3785.00,0.0028
3784.00,0.0028
3783.00,0.0028
3782.00,0.0027
3781.00,0.0027
3780.00,0.0027
3779.00,0.0027
3778.00,0.0027
3777.00,0.0027
3776.00,0.0027
3775.00,0.0027
3774.00,0.0027
3773.00,0.0028
3772.00,0.0028
3771.00,0.0028
3770.00,0.0028
3769.00,0.0028
3768.00,0.0028
3767.00,0.0028
3766.00,0.0028
3765.00,0.0028
3764.00,0.0028
3763.00,0.0028
3762.00,0.0028
3761.00,0.0028
3760.00,0.0028
3759.00,0.0028
3758.00,0.0028
3757.00,0.0028
3756.00,0.0028
3755.00,0.0027
3754.00,0.0027
3753.00,0.0027
3752.00,0.0027
3751.00,0.0028
3750.00,0.0028
3749.00,0.0028
3748.00,0.0028
3747.00,0.0027
3746.00,0.0027
3745.00,0.0027
3744.00,0.0027
3743.00,0.0027
3742.00,0.0026
3741.00,0.0026
3740.00,0.0026
3739.00,0.0027
3738.00,0.0027
3737.00,0.0027
3736.00,0.0027
3735.00,0.0027
3734.00,0.0026
3733.00,0.0026
3732.00,0.0026
3731.00,0.0026
3730.00,0.0027
3729.00,0.0027
3728.00,0.0027
3727.00,0.0027
3726.00,0.0027
3725.00,0.0027
3724.00,0.0027
3723.00,0.0027
3722.00,0.0027
3721.00,0.0026
3720.00,0.0026
3719.00,0.0026
3718.00,0.0027
3717.00,0.0027
3716.00,0.0027
3715.00,0.0027
3714.00,0.0027
3713.00,0.0027
3712.00,0.0027
3711.00,0.0027
3710.00,0.0026
3709.00,0.0026
3708.00,0.0026
3707.00,0.0026
3706.00,0.0026
3705.00,0.0026
3704.00,0.0026
3703.00,0.0026
3702.00,0.0026
3701.00,0.0027
3700.00,0.0027
3699.00,0.0027
3698.00,0.0027
3697.00,0.0027
3696.00,0.0027
3695.00,0.0027
3694.00,0.0027
3693.00,0.0028
3692.00,0.0028
3691.00,0.0028
3690.00,0.0028
3689.00,0.0029
3688.00,0.0030
3687.00,0.0031
3686.00,0.0032
3685.00,0.0032
3684.00,0.0033
3683.00,0.0033
3682.00,0.0034
3681.00,0.0034
3680.00,0.0034
3679.00,0.0034
3678.00,0.0034
3677.00,0.0034
3676.00,0.0034
3675.00,0.0034
3674.00,0.0034
3673.00,0.0035
3672.00,0.0035
3671.00,0.0035
3670.00,0.0036
3669.00,0.0036
3668.00,0.0037
3667.00,0.0037
3666.00,0.0037
3665.00,0.0038
3664.00,0.0038
3663.00,0.0039
3662.00,0.0039
3661.00,0.0040
3660.00,0.0040
3659.00,0.0040
3658.00,0.0039
3657.00,0.0039
3656.00,0.0039
3655.00,0.0039
3654.00,0.0040
3653.00,0.0040
3652.00,0.0040
3651.00,0.0040
3650.00,0.0041
3649.00,0.0042
3648.00,0.0043
3647.00,0.0043
3646.00,0.0044
3645.00,0.0045
3644.00,0.0046
3643.00,0.0047
3642.00,0.0047
3641.00,0.0048
3640.00,0.0049
3639.00,0.0049
3638.00,0.0050
3637.00,0.0050
3636.00,0.0050
3635.00,0.0051
3634.00,0.0051
3633.00,0.0051
3632.00,0.0051
3631.00,0.0051
3630.00,0.0052
3629.00,0.0052
3628.00,0.0053
3627.00,0.0054
3626.00,0.0055
3625.00,0.0055
3624.00,0.0055
3623.00,0.0055
3622.00,0.0056
3621.00,0.0056
3620.00,0.0056
3619.00,0.0057
3618.00,0.0057
3617.00,0.0058
3616.00,0.0059
3615.00,0.0059
3614.00,0.0060
3613.00,0.0061
3612.00,0.0061
3611.00,0.0062
3610.00,0.0062
3609.00,0.0062
3608.00,0.0063
3607.00,0.0063
3606.00,0.0064
3605.00,0.0065
3604.00,0.0065
3603.00,0.0066
3602.00,0.0066
3601.00,0.0067
3600.00,0.0068
3599.00,0.0069
3598.00,0.0069
3597.00,0.0070
3596.00,0.0070
3595.00,0.0071
3594.00,0.0072
3593.00,0.0072
3592.00,0.0073
3591.00,0.0073
3590.00,0.0073
3589.00,0.0074
3588.00,0.0075
3587.00,0.0076
3586.00,0.0077
3585.00,0.0078
3584.00,0.0079
3583.00,0.0080
3582.00,0.0080
3581.00,0.0081
3580.00,0.0082
3579.00,0.0082
3578.00,0.0083
3577.00,0.0083
3576.00,0.0084
3575.00,0.0085
3574.00,0.0085
3573.00,0.0086
3572.00,0.0086
3571.00,0.0087
3570.00,0.0088
3569.00,0.0088
3568.00,0.0090
3567.00,0.0091
3566.00,0.0092
3565.00,0.0093
3564.00,0.0093
3563.00,0.0093
3562.00,0.0094
3561.00,0.0095
3560.00,0.0095
3559.00,0.0096
3558.00,0.0097
3557.00,0.0097
3556.00,0.0098
3555.00,0.0099
3554.00,0.0100
3553.00,0.0101
3552.00,0.0101
3551.00,0.0102
3550.00,0.0103
3549.00,0.0103
3548.00,0.0104
3547.00,0.0105
3546.00,0.0106
3545.00,0.0107
3544.00,0.0107
3543.00,0.0108
3542.00,0.0108
3541.00,0.0109
3540.00,0.0109
3539.00,0.0110
3538.00,0.0110
3537.00,0.0111
3536.00,0.0112
3535.00,0.0112
3534.00,0.0113
3533.00,0.0113
3532.00,0.0114
3531.00,0.0114
3530.00,0.0115
3529.00,0.0116
3528.00,0.0116
3527.00,0.0117
3526.00,0.0118
3525.00,0.0119
3524.00,0.0119
3523.00,0.0120
3522.00,0.0120
3521.00,0.0120
3520.00,0.0121
3519.00,0.0122
3518.00,0.0122
3517.00,0.0123
3516.00,0.0124
3515.00,0.0125
3514.00,0.0125
3513.00,0.0125
3512.00,0.0126
3511.00,0.0126
3510.00,0.0126
3509.00,0.0127
3508.00,0.0127
3507.00,0.0128
3506.00,0.0128
3505.00,0.0129
3504.00,0.0130
3503.00,0.0130
3502.00,0.0131
3501.00,0.0131
3500.00,0.0132
3499.00,0.0133
3498.00,0.0133
3497.00,0.0134
3496.00,0.0135
3495.00,0.0135
3494.00,0.0136
3493.00,0.0136
3492.00,0.0137
3491.00,0.0138
3490.00,0.0138
3489.00,0.0139
3488.00,0.0139
3487.00,0.0139
3486.00,0.0140
3485.00,0.0140
3484.00,0.0140
3483.00,0.0141
3482.00,0.0141
3481.00,0.0141
3480.00,0.0142
3479.00,0.0143
3478.00,0.0143
3477.00,0.0144
3476.00,0.0145
3475.00,0.0145
3474.00,0.0145
3473.00,0.0145
3472.00,0.0146
3471.00,0.0146
3470.00,0.0147
3469.00,0.0147
3468.00,0.0148
3467.00,0.0148
3466.00,0.0148
3465.00,0.0149
3464.00,0.0149
3463.00,0.0149
3462.00,0.0150
3461.00,0.0150
3460.00,0.0151
3459.00,0.0151
3458.00,0.0151
3457.00,0.0151
3456.00,0.0151
3455.00,0.0151
3454.00,0.0151
3453.00,0.0152
3452.00,0.0152
3451.00,0.0152
3450.00,0.0153
3449.00,0.0153
3448.00,0.0154
3447.00,0.0154
3446.00,0.0154
3445.00,0.0155
3444.00,0.0155
3443.00,0.0155
3442.00,0.0156
3441.00,0.0156
3440.00,0.0156
3439.00,0.0156
3438.00,0.0157
3437.00,0.0157
3436.00,0.0157
3435.00,0.0158
3434.00,0.0158
3433.00,0.0158
3432.00,0.0158
3431.00,0.0159
3430.00,0.0159
3429.00,0.0159
3428.00,0.0160
3427.00,0.0160
3426.00,0.0160
3425.00,0.0160
3424.00,0.0160
3423.00,0.0161
3422.00,0.0161
3421.00,0.0162
3420.00,0.0162
3419.00,0.0162
3418.00,0.0163
3417.00,0.0163
3416.00,0.0163
3415.00,0.0163
3414.00,0.0163
3413.00,0.0163
3412.00,0.0164
3411.00,0.0164
3410.00,0.0165
3409.00,0.0165
3408.00,0.0165
3407.00,0.0165
3406.00,0.0165
3405.00,0.0166
3404.00,0.0166
3403.00,0.0166
3402.00,0.0167
3401.00,0.0167
3400.00,0.0167
3399.00,0.0168
3398.00,0.0168
3397.00,0.0168
3396.00,0.0168
3395.00,0.0168
3394.00,0.0168
3393.00,0.0168
3392.00,0.0169
3391.00,0.0169
3390.00,0.0170
3389.00,0.0171
3388.00,0.0171
3387.00,0.0172
3386.00,0.0173
3385.00,0.0173
3384.00,0.0173
3383.00,0.0173
3382.00,0.0173
3381.00,0.0173
3380.00,0.0174
3379.00,0.0174
3378.00,0.0174
3377.00,0.0175
3376.00,0.0175
3375.00,0.0176
3374.00,0.0176
3373.00,0.0176
3372.00,0.0176
3371.00,0.0175
3370.00,0.0175
3369.00,0.0175
3368.00,0.0176
3367.00,0.0177
3366.00,0.0178
3365.00,0.0179
3364.00,0.0180
3363.00,0.0180
3362.00,0.0181
3361.00,0.0181
3360.00,0.0182
3359.00,0.0183
3358.00,0.0184
3357.00,0.0184
3356.00,0.0185
3355.00,0.0185
3354.00,0.0185
3353.00,0.0184
3352.00,0.0184
3351.00,0.0183
3350.00,0.0184
3349.00,0.0185
3348.00,0.0187
3347.00,0.0187
3346.00,0.0188
3345.00,0.0188
3344.00,0.0188
3343.00,0.0188
3342.00,0.0188
3341.00,0.0188
3340.00,0.0188
3339.00,0.0188
3338.00,0.0189
3337.00,0.0190
3336.00,0.0191
3335.00,0.0193
3334.00,0.0194
3333.00,0.0194
3332.00,0.0195
3331.00,0.0195
3330.00,0.0196
3329.00,0.0195
3328.00,0.0195
3327.00,0.0195
3326.00,0.0195
3325.00,0.0196
3324.00,0.0197
3323.00,0.0198
3322.00,0.0199
3321.00,0.0200
3320.00,0.0201
3319.00,0.0201
3318.00,0.0202
3317.00,0.0202
3316.00,0.0203
3315.00,0.0203
3314.00,0.0204
3313.00,0.0204
3312.00,0.0204
3311.00,0.0203
3310.00,0.0202
3309.00,0.0202
3308.00,0.0201
3307.00,0.0201
3306.00,0.0202
3305.00,0.0203
3304.00,0.0205
3303.00,0.0207
3302.00,0.0209
3301.00,0.0210
3300.00,0.0210
3299.00,0.0210
3298.00,0.0209
3297.00,0.0209
3296.00,0.0209
3295.00,0.0210
3294.00,0.0210
3293.00,0.0211
3292.00,0.0212
3291.00,0.0214
3290.00,0.0215
3289.00,0.0216
3288.00,0.0216
3287.00,0.0217
3286.00,0.0217
3285.00,0.0218
3284.00,0.0218
3283.00,0.0219
3282.00,0.0219
3281.00,0.0219
3280.00,0.0220
3279.00,0.0220
3278.00,0.0220
3277.00,0.0220
3276.00,0.0220
3275.00,0.0220
3274.00,0.0220
3273.00,0.0220
3272.00,0.0220
3271.00,0.0220
3270.00,0.0220
3269.00,0.0221
3268.00,0.0222
3267.00,0.0222
3266.00,0.0223
3265.00,0.0224
3264.00,0.0224
3263.00,0.0224
3262.00,0.0224
3261.00,0.0224
3260.00,0.0224
3259.00,0.0224
3258.00,0.0224
3257.00,0.0225
3256.00,0.0225
3255.00,0.0226
3254.00,0.0227
3253.00,0.0227
3252.00,0.0227
3251.00,0.0227
3250.00,0.0227
3249.00,0.0227
3248.00,0.0227
3247.00,0.0227
3246.00,0.0227
3245.00,0.0228
3244.00,0.0228
3243.00,0.0229
3242.00,0.0229
3241.00,0.0229
3240.00,0.0229
3239.00,0.0230
3238.00,0.0230
3237.00,0.0230
3236.00,0.0229
3235.00,0.0229
3234.00,0.0229
3233.00,0.0229
3232.00,0.0230
3231.00,0.0230
3230.00,0.0231
3229.00,0.0231
3228.00,0.0231
3227.00,0.0231
3226.00,0.0231
3225.00,0.0231
3224.00,0.0231
3223.00,0.0231
3222.00,0.0231
3221.00,0.0231
3220.00,0.0232
3219.00,0.0232
3218.00,0.0232
3217.00,0.0232
3216.00,0.0231
3215.00,0.0231
3214.00,0.0231
3213.00,0.0231
3212.00,0.0231
3211.00,0.0231
3210.00,0.0231
3209.00,0.0231
3208.00,0.0231
3207.00,0.0230
3206.00,0.0230
3205.00,0.0230
3204.00,0.0230
3203.00,0.0230
3202.00,0.0230
3201.00,0.0230
3200.00,0.0229
3199.00,0.0229
3198.00,0.0229
3197.00,0.0230
3196.00,0.0230
3195.00,0.0230
3194.00,0.0230
3193.00,0.0230
3192.00,0.0230
3191.00,0.0229
3190.00,0.0229
3189.00,0.0229
3188.00,0.0229
3187.00,0.0229
3186.00,0.0229
3185.00,0.0229
3184.00,0.0229
3183.00,0.0229
3182.00,0.0229
3181.00,0.0228
3180.00,0.0228
3179.00,0.0228
3178.00,0.0228
3177.00,0.0228
3176.00,0.0228
3175.00,0.0228
3174.00,0.0228
3173.00,0.0228
3172.00,0.0228
3171.00,0.0227
3170.00,0.0227
3169.00,0.0227
3168.00,0.0227
3167.00,0.0226
3166.00,0.0226
3165.00,0.0226
3164.00,0.0225
3163.00,0.0225
3162.00,0.0225
3161.00,0.0224
3160.00,0.0224
3159.00,0.0224
3158.00,0.0223
3157.00,0.0223
3156.00,0.0222
3155.00,0.0222
3154.00,0.0221
3153.00,0.0221
3152.00,0.0221
3151.00,0.0221
3150.00,0.0220
3149.00,0.0220
3148.00,0.0220
3147.00,0.0219
3146.00,0.0219
3145.00,0.0218
3144.00,0.0218
3143.00,0.0217
3142.00,0.0217
3141.00,0.0217
3140.00,0.0216
3139.00,0.0216
3138.00,0.0216
3137.00,0.0215
3136.00,0.0215
3135.00,0.0215
3134.00,0.0215
3133.00,0.0214
3132.00,0.0214
3131.00,0.0214
3130.00,0.0213
3129.00,0.0213
3128.00,0.0213
3127.00,0.0213
3126.00,0.0213
3125.00,0.0212
3124.00,0.0212
3123.00,0.0212
3122.00,0.0212
3121.00,0.0212
3120.00,0.0211
3119.00,0.0211
3118.00,0.0210
3117.00,0.0210
3116.00,0.0210
3115.00,0.0209
3114.00,0.0208
3113.00,0.0208
3112.00,0.0207
3111.00,0.0206
3110.00,0.0206
3109.00,0.0205
3108.00,0.0205
3107.00,0.0204
3106.00,0.0203
3105.00,0.0203
3104.00,0.0202
3103.00,0.0202
3102.00,0.0201
3101.00,0.0201
3100.00,0.0201
3099.00,0.0200
3098.00,0.0200
3097.00,0.0200
3096.00,0.0200
3095.00,0.0200
3094.00,0.0200
3093.00,0.0200
3092.00,0.0200
3091.00,0.0200
3090.00,0.0200
3089.00,0.0200
3088.00,0.0200
3087.00,0.0200
3086.00,0.0200
3085.00,0.0200
3084.00,0.0200
3083.00,0.0201
3082.00,0.0201
3081.00,0.0201
3080.00,0.0201
3079.00,0.0201
3078.00,0.0201
3077.00,0.0201
3076.00,0.0200
3075.00,0.0200
3074.00,0.0199
3073.00,0.0199
3072.00,0.0198
3071.00,0.0197
3070.00,0.0196
3069.00,0.0195
3068.00,0.0195
3067.00,0.0194
3066.00,0.0193
3065.00,0.0192
3064.00,0.0192
3063.00,0.0191
3062.00,0.0190
3061.00,0.0190
3060.00,0.0189
3059.00,0.0189
3058.00,0.0188
3057.00,0.0187
3056.00,0.0187
3055.00,0.0186
3054.00,0.0186
3053.00,0.0186
3052.00,0.0185
3051.00,0.0185
3050.00,0.0185
3049.00,0.0184
3048.00,0.0184
3047.00,0.0183
3046.00,0.0183
3045.00,0.0183
3044.00,0.0182
3043.00,0.0182
3042.00,0.0181
3041.00,0.0180
3040.00,0.0180
3039.00,0.0180
3038.00,0.0180
3037.00,0.0179
3036.00,0.0179
3035.00,0.0179
3034.00,0.0178
3033.00,0.0178
3032.00,0.0177
3031.00,0.0177
3030.00,0.0176
3029.00,0.0175
3028.00,0.0175
3027.00,0.0174
3026.00,0.0173
3025.00,0.0172
3024.00,0.0171
3023.00,0.0170
3022.00,0.0170
3021.00,0.0169
3020.00,0.0169
3019.00,0.0169
3018.00,0.0169
3017.00,0.0168
3016.00,0.0168
3015.00,0.0168
3014.00,0.0168
3013.00,0.0169
3012.00,0.0169
3011.00,0.0170
3010.00,0.0172
3009.00,0.0173
3008.00,0.0175
3007.00,0.0177
3006.00,0.0179
3005.00,0.0182
3004.00,0.0185
3003.00,0.0188
3002.00,0.0192
3001.00,0.0196
3000.00,0.0201
2999.00,0.0206
2998.00,0.0212
2997.00,0.0218
2996.00,0.0225
2995.00,0.0232
2994.00,0.0240
2993.00,0.0248
2992.00,0.0256
2991.00,0.0265
2990.00,0.0273
2989.00,0.0282
2988.00,0.0290
2987.00,0.0299
2986.00,0.0306
2985.00,0.0313
2984.00,0.0319
2983.00,0.0325
2982.00,0.0330
2981.00,0.0335
2980.00,0.0340
2979.00,0.0345
2978.00,0.0349
2977.00,0.0352
2976.00,0.0355
2975.00,0.0357
2974.00,0.0359
2973.00,0.0361
2972.00,0.0363
2971.00,0.0366
2970.00,0.0370
2969.00,0.0374
2968.00,0.0378
2967.00,0.0383
2966.00,0.0387
2965.00,0.0392
2964.00,0.0397
2963.00,0.0403
2962.00,0.0408
2961.00,0.0414
2960.00,0.0419
2959.00,0.0424
2958.00,0.0429
2957.00,0.0433
2956.00,0.0436
2955.00,0.0439
2954.00,0.0440
2953.00,0.0441
2952.00,0.0440
2951.00,0.0438
2950.00,0.0436
2949.00,0.0433
2948.00,0.0431
2947.00,0.0429
2946.00,0.0427
2945.00,0.0426
2944.00,0.0426
2943.00,0.0427
2942.00,0.0428
2941.00,0.0430
2940.00,0.0433
2939.00,0.0436
2938.00,0.0440
2937.00,0.0444
2936.00,0.0448
2935.00,0.0452
2934.00,0.0456
2933.00,0.0460
2932.00,0.0464
2931.00,0.0467
2930.00,0.0470
2929.00,0.0472
2928.00,0.0473
2927.00,0.0473
2926.00,0.0471
2925.00,0.0469
2924.00,0.0466
2923.00,0.0463
2922.00,0.0459
2921.00,0.0455
2920.00,0.0450
2919.00,0.0445
2918.00,0.0440
2917.00,0.0434
2916.00,0.0427
2915.00,0.0421
2914.00,0.0414
2913.00,0.0407
2912.00,0.0400
2911.00,0.0393
2910.00,0.0386
2909.00,0.0379
2908.00,0.0372
2907.00,0.0366
2906.00,0.0360
2905.00,0.0355
2904.00,0.0351
2903.00,0.0347
2902.00,0.0343
2901.00,0.0340
2900.00,0.0338
2899.00,0.0335
2898.00,0.0334
2897.00,0.0333
2896.00,0.0332
2895.00,0.0331
2894.00,0.0331
2893.00,0.0330
2892.00,0.0329
2891.00,0.0329
2890.00,0.0328
2889.00,0.0327
2888.00,0.0326
2887.00,0.0325
2886.00,0.0324
2885.00,0.0324
2884.00,0.0324
2883.00,0.0324
2882.00,0.0325
2881.00,0.0327
2880.00,0.0328
2879.00,0.0331
2878.00,0.0333
2877.00,0.0336
2876.00,0.0340
2875.00,0.0343
2874.00,0.0347
2873.00,0.0351
2872.00,0.0354
2871.00,0.0356
2870.00,0.0357
2869.00,0.0357
2868.00,0.0356
2867.00,0.0355
2866.00,0.0354
2865.00,0.0353
2864.00,0.0353
2863.00,0.0353
2862.00,0.0353
2861.00,0.0353
2860.00,0.0354
2859.00,0.0353
2858.00,0.0351
2857.00,0.0347
2856.00,0.0341
2855.00,0.0334
2854.00,0.0325
2853.00,0.0316
2852.00,0.0307
2851.00,0.0298
2850.00,0.0290
2849.00,0.0282
2848.00,0.0274
2847.00,0.0267
2846.00,0.0260
2845.00,0.0252
2844.00,0.0245
2843.00,0.0237
2842.00,0.0230
2841.00,0.0222
2840.00,0.0215
2839.00,0.0209
2838.00,0.0204
2837.00,0.0200
2836.00,0.0196
2835.00,0.0192
2834.00,0.0188
2833.00,0.0184
2832.00,0.0181
2831.00,0.0177
2830.00,0.0174
2829.00,0.0171
2828.00,0.0167
2827.00,0.0164
2826.00,0.0161
2825.00,0.0158
2824.00,0.0156
2823.00,0.0153
2822.00,0.0150
2821.00,0.0148
2820.00,0.0146
2819.00,0.0143
2818.00,0.0141
2817.00,0.0140
2816.00,0.0138
2815.00,0.0136
2814.00,0.0134
2813.00,0.0132
2812.00,0.0131
2811.00,0.0130
2810.00,0.0128
2809.00,0.0127
2808.00,0.0126
2807.00,0.0125
2806.00,0.0124
2805.00,0.0124
2804.00,0.0123
2803.00,0.0122
2802.00,0.0120
2801.00,0.0119
2800.00,0.0118
2799.00,0.0117
2798.00,0.0116
2797.00,0.0115
2796.00,0.0115
2795.00,0.0114
2794.00,0.0113
2793.00,0.0113
2792.00,0.0112
2791.00,0.0111
2790.00,0.0111
2789.00,0.0110
2788.00,0.0110
2787.00,0.0109
2786.00,0.0109
2785.00,0.0108
2784.00,0.0107
2783.00,0.0107
2782.00,0.0107
2781.00,0.0106
2780.00,0.0106
2779.00,0.0105
2778.00,0.0104
2777.00,0.0104
2776.00,0.0103
2775.00,0.0103
2774.00,0.0103
2773.00,0.0102
2772.00,0.0102
2771.00,0.0101
2770.00,0.0101
2769.00,0.0101
2768.00,0.0100
2767.00,0.0100
2766.00,0.0100
2765.00,0.0100
2764.00,0.0100
2763.00,0.0100
2762.00,0.0100
2761.00,0.0100
2760.00,0.0100
2759.00,0.0100
2758.00,0.0101
2757.00,0.0101
