Created as New Dataset,Sample 966 By YargerLab Date Wednesday, July 30 2025
cm-1,A
4000.00,0.0088
3999.00,0.0088
3998.00,0.0088
3997.00,0.0088
3996.00,0.0088
3995.00,0.0088
3994.00,0.0088
3993.00,0.0088
3992.00,0.0088
3991.00,0.0088
3990.00,0.0088
3989.00,0.0088
3988.00,0.0088
3987.00,0.0088
3986.00,0.0088
3985.00,0.0088
3984.00,0.0088
3983.00,0.0088
3982.00,0.0088
3981.00,0.0087
3980.00,0.0087
3979.00,0.0088
3978.00,0.0088
3977.00,0.0088
3976.00,0.0088
3975.00,0.0088
3974.00,0.0088
3973.00,0.0088
3972.00,0.0088
3971.00,0.0088
3970.00,0.0088
3969.00,0.0088
3968.00,0.0088
3967.00,0.0088
3966.00,0.0088
3965.00,0.0088
3964.00,0.0088
3963.00,0.0088
3962.00,0.0088
3961.00,0.0088
3960.00,0.0088
3959.00,0.0088
3958.00,0.0088
3957.00,0.0087
3956.00,0.0088
3955.00,0.0088
3954.00,0.0088
3953.00,0.0088
3952.00,0.0088
3951.00,0.0088
3950.00,0.0088
3949.00,0.0088
3948.00,0.0088
3947.00,0.0087
3946.00,0.0087
3945.00,0.0087
3944.00,0.0087
3943.00,0.0087
3942.00,0.0087
3941.00,0.0087
3940.00,0.0087
3939.00,0.0087
3938.00,0.0087
3937.00,0.0088
3936.00,0.0088
3935.00,0.0087
3934.00,0.0087
3933.00,0.0087
3932.00,0.0087
3931.00,0.0087
3930.00,0.0086
3929.00,0.0087
3928.00,0.0087
3927.00,0.0087
3926.00,0.0087
3925.00,0.0087
3924.00,0.0087
3923.00,0.0087
3922.00,0.0087
3921.00,0.0087
3920.00,0.0087
3919.00,0.0087
3918.00,0.0087
3917.00,0.0087
3916.00,0.0087
3915.00,0.0087
3914.00,0.0087
3913.00,0.0087
3912.00,0.0087
3911.00,0.0087
3910.00,0.0087
3909.00,0.0087
3908.00,0.0087
3907.00,0.0087
3906.00,0.0087
3905.00,0.0087
3904.00,0.0087
3903.00,0.0086
3902.00,0.0086
3901.00,0.0085
3900.00,0.0085
3899.00,0.0085
3898.00,0.0086
3897.00,0.0086
3896.00,0.0086
3895.00,0.0086
3894.00,0.0086
3893.00,0.0086
3892.00,0.0086
3891.00,0.0086
3890.00,0.0086
3889.00,0.0086
3888.00,0.0086
3887.00,0.0086
3886.00,0.0086
3885.00,0.0086
3884.00,0.0087
3883.00,0.0086
3882.00,0.0086
3881.00,0.0085
3880.00,0.0086
3879.00,0.0086
3878.00,0.0086
3877.00,0.0086
3876.00,0.0086
3875.00,0.0086
3874.00,0.0086
3873.00,0.0086
3872.00,0.0086
3871.00,0.0086
3870.00,0.0086
3869.00,0.0086
3868.00,0.0086
3867.00,0.0086
3866.00,0.0085
3865.00,0.0085
3864.00,0.0085
3863.00,0.0085
3862.00,0.0085
3861.00,0.0086
3860.00,0.0086
3859.00,0.0086
3858.00,0.0086
3857.00,0.0086
3856.00,0.0085
3855.00,0.0085
3854.00,0.0085
3853.00,0.0085
3852.00,0.0085
3851.00,0.0085
3850.00,0.0085
3849.00,0.0085
3848.00,0.0085
3847.00,0.0086
3846.00,0.0086
3845.00,0.0086
3844.00,0.0086
3843.00,0.0086
3842.00,0.0085
3841.00,0.0085
3840.00,0.0085
3839.00,0.0085
3838.00,0.0085
3837.00,0.0085
3836.00,0.0084
3835.00,0.0084
3834.00,0.0084
3833.00,0.0085
3832.00,0.0085
3831.00,0.0085
3830.00,0.0085
3829.00,0.0085
3828.00,0.0085
3827.00,0.0085
3826.00,0.0085
3825.00,0.0085
3824.00,0.0085
3823.00,0.0085
3822.00,0.0084
3821.00,0.0084
3820.00,0.0085
3819.00,0.0085
3818.00,0.0084
3817.00,0.0084
3816.00,0.0084
3815.00,0.0085
3814.00,0.0085
3813.00,0.0085
3812.00,0.0085
3811.00,0.0085
3810.00,0.0085
3809.00,0.0085
3808.00,0.0085
3807.00,0.0085
3806.00,0.0086
3805.00,0.0086
3804.00,0.0085
3803.00,0.0084
3802.00,0.0084
3801.00,0.0085
3800.00,0.0085
3799.00,0.0085
3798.00,0.0085
3797.00,0.0084
3796.00,0.0084
3795.00,0.0085
3794.00,0.0085
3793.00,0.0085
3792.00,0.0085
3791.00,0.0085
3790.00,0.0085
3789.00,0.0085
3788.00,0.0085
3787.00,0.0085
3786.00,0.0085
3785.00,0.0085
3784.00,0.0085
3783.00,0.0085
3782.00,0.0085
3781.00,0.0084
3780.00,0.0084
3779.00,0.0084
3778.00,0.0084
3777.00,0.0084
3776.00,0.0084
3775.00,0.0084
3774.00,0.0084
3773.00,0.0085
3772.00,0.0084
3771.00,0.0084
3770.00,0.0085
3769.00,0.0085
3768.00,0.0085
3767.00,0.0084
3766.00,0.0084
3765.00,0.0084
3764.00,0.0084
3763.00,0.0085
3762.00,0.0084
3761.00,0.0084
3760.00,0.0084
3759.00,0.0084
3758.00,0.0084
3757.00,0.0084
3756.00,0.0084
3755.00,0.0084
3754.00,0.0084
3753.00,0.0084
3752.00,0.0084
3751.00,0.0084
3750.00,0.0084
3749.00,0.0084
3748.00,0.0084
3747.00,0.0083
3746.00,0.0082
3745.00,0.0082
3744.00,0.0083
3743.00,0.0084
3742.00,0.0083
3741.00,0.0083
3740.00,0.0083
3739.00,0.0083
3738.00,0.0083
3737.00,0.0083
3736.00,0.0083
3735.00,0.0083
3734.00,0.0082
3733.00,0.0082
3732.00,0.0082
3731.00,0.0082
3730.00,0.0083
3729.00,0.0083
3728.00,0.0083
3727.00,0.0083
3726.00,0.0083
3725.00,0.0082
3724.00,0.0082
3723.00,0.0082
3722.00,0.0082
3721.00,0.0082
3720.00,0.0082
3719.00,0.0083
3718.00,0.0083
3717.00,0.0083
3716.00,0.0083
3715.00,0.0083
3714.00,0.0083
3713.00,0.0083
3712.00,0.0082
3711.00,0.0082
3710.00,0.0082
3709.00,0.0081
3708.00,0.0081
3707.00,0.0082
3706.00,0.0082
3705.00,0.0082
3704.00,0.0082
3703.00,0.0082
3702.00,0.0082
3701.00,0.0082
3700.00,0.0081
3699.00,0.0081
3698.00,0.0081
3697.00,0.0081
3696.00,0.0081
3695.00,0.0081
3694.00,0.0081
3693.00,0.0081
3692.00,0.0081
3691.00,0.0081
3690.00,0.0081
3689.00,0.0081
3688.00,0.0081
3687.00,0.0081
3686.00,0.0081
3685.00,0.0081
3684.00,0.0081
3683.00,0.0081
3682.00,0.0081
3681.00,0.0082
3680.00,0.0082
3679.00,0.0082
3678.00,0.0082
3677.00,0.0081
3676.00,0.0081
3675.00,0.0081
3674.00,0.0082
3673.00,0.0081
3672.00,0.0081
3671.00,0.0081
3670.00,0.0081
3669.00,0.0081
3668.00,0.0081
3667.00,0.0081
3666.00,0.0081
3665.00,0.0081
3664.00,0.0081
3663.00,0.0082
3662.00,0.0082
3661.00,0.0082
3660.00,0.0082
3659.00,0.0083
3658.00,0.0083
3657.00,0.0083
3656.00,0.0083
3655.00,0.0083
3654.00,0.0083
3653.00,0.0082
3652.00,0.0082
3651.00,0.0082
3650.00,0.0082
3649.00,0.0082
3648.00,0.0081
3647.00,0.0081
3646.00,0.0082
3645.00,0.0082
3644.00,0.0082
3643.00,0.0083
3642.00,0.0083
3641.00,0.0083
3640.00,0.0084
3639.00,0.0084
3638.00,0.0084
3637.00,0.0084
3636.00,0.0084
3635.00,0.0085
3634.00,0.0085
3633.00,0.0085
3632.00,0.0085
3631.00,0.0085
3630.00,0.0085
3629.00,0.0085
3628.00,0.0085
3627.00,0.0085
3626.00,0.0085
3625.00,0.0084
3624.00,0.0085
3623.00,0.0085
3622.00,0.0085
3621.00,0.0085
3620.00,0.0085
3619.00,0.0085
3618.00,0.0086
3617.00,0.0086
3616.00,0.0086
3615.00,0.0086
3614.00,0.0086
3613.00,0.0087
3612.00,0.0087
3611.00,0.0087
3610.00,0.0087
3609.00,0.0087
3608.00,0.0087
3607.00,0.0088
3606.00,0.0088
3605.00,0.0088
3604.00,0.0089
3603.00,0.0089
3602.00,0.0089
3601.00,0.0090
3600.00,0.0090
3599.00,0.0090
3598.00,0.0090
3597.00,0.0090
3596.00,0.0090
3595.00,0.0090
3594.00,0.0090
3593.00,0.0091
3592.00,0.0091
3591.00,0.0092
3590.00,0.0092
3589.00,0.0092
3588.00,0.0092
3587.00,0.0091
3586.00,0.0091
3585.00,0.0091
3584.00,0.0091
3583.00,0.0092
3582.00,0.0092
3581.00,0.0092
3580.00,0.0093
3579.00,0.0093
3578.00,0.0094
3577.00,0.0094
3576.00,0.0095
3575.00,0.0095
3574.00,0.0095
3573.00,0.0096
3572.00,0.0096
3571.00,0.0097
3570.00,0.0097
3569.00,0.0097
3568.00,0.0097
3567.00,0.0097
3566.00,0.0097
3565.00,0.0097
3564.00,0.0097
3563.00,0.0097
3562.00,0.0098
3561.00,0.0098
3560.00,0.0098
3559.00,0.0099
3558.00,0.0099
3557.00,0.0099
3556.00,0.0100
3555.00,0.0100
3554.00,0.0100
3553.00,0.0100
3552.00,0.0100
3551.00,0.0100
3550.00,0.0100
3549.00,0.0101
3548.00,0.0101
3547.00,0.0102
3546.00,0.0102
3545.00,0.0103
3544.00,0.0103
3543.00,0.0103
3542.00,0.0104
3541.00,0.0104
3540.00,0.0104
3539.00,0.0104
3538.00,0.0105
3537.00,0.0105
3536.00,0.0105
3535.00,0.0106
3534.00,0.0106
3533.00,0.0107
3532.00,0.0107
3531.00,0.0107
3530.00,0.0107
3529.00,0.0107
3528.00,0.0107
3527.00,0.0107
3526.00,0.0108
3525.00,0.0108
3524.00,0.0108
3523.00,0.0109
3522.00,0.0109
3521.00,0.0109
3520.00,0.0110
3519.00,0.0110
3518.00,0.0110
3517.00,0.0110
3516.00,0.0111
3515.00,0.0111
3514.00,0.0111
3513.00,0.0112
3512.00,0.0112
3511.00,0.0112
3510.00,0.0113
3509.00,0.0113
3508.00,0.0113
3507.00,0.0114
3506.00,0.0114
3505.00,0.0114
3504.00,0.0114
3503.00,0.0114
3502.00,0.0114
3501.00,0.0115
3500.00,0.0115
3499.00,0.0115
3498.00,0.0116
3497.00,0.0116
3496.00,0.0117
3495.00,0.0117
3494.00,0.0117
3493.00,0.0118
3492.00,0.0118
3491.00,0.0118
3490.00,0.0118
3489.00,0.0119
3488.00,0.0119
3487.00,0.0119
3486.00,0.0119
3485.00,0.0119
3484.00,0.0120
3483.00,0.0120
3482.00,0.0120
3481.00,0.0121
3480.00,0.0121
3479.00,0.0121
3478.00,0.0121
3477.00,0.0122
3476.00,0.0122
3475.00,0.0122
3474.00,0.0123
3473.00,0.0123
3472.00,0.0123
3471.00,0.0124
3470.00,0.0124
3469.00,0.0124
3468.00,0.0125
3467.00,0.0125
3466.00,0.0125
3465.00,0.0126
3464.00,0.0126
3463.00,0.0126
3462.00,0.0126
3461.00,0.0127
3460.00,0.0127
3459.00,0.0127
3458.00,0.0127
3457.00,0.0127
3456.00,0.0128
3455.00,0.0128
3454.00,0.0128
3453.00,0.0128
3452.00,0.0129
3451.00,0.0129
3450.00,0.0129
3449.00,0.0130
3448.00,0.0130
3447.00,0.0130
3446.00,0.0130
3445.00,0.0130
3444.00,0.0131
3443.00,0.0131
3442.00,0.0131
3441.00,0.0132
3440.00,0.0132
3439.00,0.0133
3438.00,0.0133
3437.00,0.0133
3436.00,0.0133
3435.00,0.0134
3434.00,0.0134
3433.00,0.0134
3432.00,0.0134
3431.00,0.0135
3430.00,0.0135
3429.00,0.0135
3428.00,0.0135
3427.00,0.0135
3426.00,0.0136
3425.00,0.0136
3424.00,0.0136
3423.00,0.0137
3422.00,0.0137
3421.00,0.0138
3420.00,0.0138
3419.00,0.0139
3418.00,0.0139
3417.00,0.0140
3416.00,0.0140
3415.00,0.0140
3414.00,0.0140
3413.00,0.0141
3412.00,0.0141
3411.00,0.0141
3410.00,0.0141
3409.00,0.0141
3408.00,0.0142
3407.00,0.0142
3406.00,0.0142
3405.00,0.0143
3404.00,0.0143
3403.00,0.0144
3402.00,0.0144
3401.00,0.0144
3400.00,0.0145
3399.00,0.0145
3398.00,0.0145
3397.00,0.0146
3396.00,0.0146
3395.00,0.0147
3394.00,0.0147
3393.00,0.0147
3392.00,0.0148
3391.00,0.0148
3390.00,0.0148
3389.00,0.0149
3388.00,0.0149
3387.00,0.0150
3386.00,0.0150
3385.00,0.0151
3384.00,0.0151
3383.00,0.0151
3382.00,0.0152
3381.00,0.0152
3380.00,0.0152
3379.00,0.0153
3378.00,0.0153
3377.00,0.0154
3376.00,0.0154
3375.00,0.0155
3374.00,0.0155
3373.00,0.0156
3372.00,0.0156
3371.00,0.0157
3370.00,0.0158
3369.00,0.0158
3368.00,0.0159
3367.00,0.0159
3366.00,0.0160
3365.00,0.0161
3364.00,0.0161
3363.00,0.0161
3362.00,0.0162
3361.00,0.0162
3360.00,0.0163
3359.00,0.0164
3358.00,0.0164
3357.00,0.0165
3356.00,0.0166
3355.00,0.0166
3354.00,0.0167
3353.00,0.0167
3352.00,0.0168
3351.00,0.0169
3350.00,0.0169
3349.00,0.0170
3348.00,0.0171
3347.00,0.0171
3346.00,0.0172
3345.00,0.0172
3344.00,0.0173
3343.00,0.0173
3342.00,0.0174
3341.00,0.0175
3340.00,0.0175
3339.00,0.0176
3338.00,0.0176
3337.00,0.0177
3336.00,0.0178
3335.00,0.0179
3334.00,0.0179
3333.00,0.0180
3332.00,0.0181
3331.00,0.0182
3330.00,0.0182
3329.00,0.0183
3328.00,0.0184
3327.00,0.0184
3326.00,0.0185
3325.00,0.0186
3324.00,0.0187
3323.00,0.0188
3322.00,0.0188
3321.00,0.0189
3320.00,0.0190
3319.00,0.0191
3318.00,0.0192
3317.00,0.0193
3316.00,0.0194
3315.00,0.0195
3314.00,0.0196
3313.00,0.0197
3312.00,0.0197
3311.00,0.0198
3310.00,0.0198
3309.00,0.0199
3308.00,0.0199
3307.00,0.0200
3306.00,0.0201
3305.00,0.0201
3304.00,0.0202
3303.00,0.0203
3302.00,0.0204
3301.00,0.0205
3300.00,0.0206
3299.00,0.0206
3298.00,0.0207
3297.00,0.0207
3296.00,0.0208
3295.00,0.0208
3294.00,0.0209
3293.00,0.0210
3292.00,0.0210
3291.00,0.0211
3290.00,0.0211
3289.00,0.0212
3288.00,0.0213
3287.00,0.0213
3286.00,0.0213
3285.00,0.0214
3284.00,0.0214
3283.00,0.0214
3282.00,0.0215
3281.00,0.0215
3280.00,0.0215
3279.00,0.0215
3278.00,0.0215
3277.00,0.0215
3276.00,0.0215
3275.00,0.0215
3274.00,0.0214
3273.00,0.0214
3272.00,0.0214
3271.00,0.0213
3270.00,0.0213
3269.00,0.0213
3268.00,0.0213
3267.00,0.0212
3266.00,0.0212
3265.00,0.0211
3264.00,0.0211
3263.00,0.0210
3262.00,0.0209
3261.00,0.0209
3260.00,0.0208
3259.00,0.0208
3258.00,0.0207
3257.00,0.0206
3256.00,0.0205
3255.00,0.0205
3254.00,0.0204
3253.00,0.0203
3252.00,0.0203
3251.00,0.0202
3250.00,0.0201
3249.00,0.0200
3248.00,0.0199
3247.00,0.0199
3246.00,0.0198
3245.00,0.0197
3244.00,0.0197
3243.00,0.0196
3242.00,0.0195
3241.00,0.0195
3240.00,0.0194
3239.00,0.0194
3238.00,0.0193
3237.00,0.0193
3236.00,0.0192
3235.00,0.0191
3234.00,0.0191
3233.00,0.0190
3232.00,0.0190
3231.00,0.0189
3230.00,0.0189
3229.00,0.0188
3228.00,0.0188
3227.00,0.0188
3226.00,0.0188
3225.00,0.0188
3224.00,0.0187
3223.00,0.0187
3222.00,0.0187
3221.00,0.0186
3220.00,0.0186
3219.00,0.0185
3218.00,0.0185
3217.00,0.0185
3216.00,0.0184
3215.00,0.0184
3214.00,0.0184
3213.00,0.0183
3212.00,0.0183
3211.00,0.0183
3210.00,0.0183
3209.00,0.0183
3208.00,0.0183
3207.00,0.0182
3206.00,0.0182
3205.00,0.0182
3204.00,0.0182
3203.00,0.0181
3202.00,0.0181
3201.00,0.0181
3200.00,0.0181
3199.00,0.0180
3198.00,0.0180
3197.00,0.0179
3196.00,0.0179
3195.00,0.0179
3194.00,0.0179
3193.00,0.0179
3192.00,0.0178
3191.00,0.0178
3190.00,0.0177
3189.00,0.0177
3188.00,0.0177
3187.00,0.0177
3186.00,0.0176
3185.00,0.0176
3184.00,0.0176
3183.00,0.0176
3182.00,0.0175
3181.00,0.0175
3180.00,0.0175
3179.00,0.0175
3178.00,0.0174
3177.00,0.0174
3176.00,0.0174
3175.00,0.0173
3174.00,0.0173
3173.00,0.0172
3172.00,0.0172
3171.00,0.0172
3170.00,0.0171
3169.00,0.0171
3168.00,0.0171
3167.00,0.0170
3166.00,0.0170
3165.00,0.0170
3164.00,0.0170
3163.00,0.0169
3162.00,0.0169
3161.00,0.0169
3160.00,0.0168
3159.00,0.0168
3158.00,0.0168
3157.00,0.0167
3156.00,0.0167
3155.00,0.0166
3154.00,0.0166
3153.00,0.0165
3152.00,0.0165
3151.00,0.0164
3150.00,0.0164
3149.00,0.0164
3148.00,0.0164
3147.00,0.0164
3146.00,0.0164
3145.00,0.0163
3144.00,0.0163
3143.00,0.0163
3142.00,0.0162
3141.00,0.0162
3140.00,0.0162
3139.00,0.0161
3138.00,0.0161
3137.00,0.0161
3136.00,0.0161
3135.00,0.0161
3134.00,0.0160
3133.00,0.0160
3132.00,0.0160
3131.00,0.0160
3130.00,0.0159
3129.00,0.0159
3128.00,0.0159
3127.00,0.0159
3126.00,0.0158
3125.00,0.0158
3124.00,0.0158
3123.00,0.0157
3122.00,0.0157
3121.00,0.0157
3120.00,0.0157
3119.00,0.0157
3118.00,0.0157
3117.00,0.0157
3116.00,0.0157
3115.00,0.0157
3114.00,0.0157
3113.00,0.0157
3112.00,0.0157
3111.00,0.0157
3110.00,0.0157
3109.00,0.0156
3108.00,0.0156
3107.00,0.0156
3106.00,0.0156
3105.00,0.0157
3104.00,0.0157
3103.00,0.0157
3102.00,0.0157
3101.00,0.0156
3100.00,0.0156
3099.00,0.0156
3098.00,0.0156
3097.00,0.0156
3096.00,0.0156
3095.00,0.0156
3094.00,0.0156
3093.00,0.0156
3092.00,0.0156
3091.00,0.0156
3090.00,0.0156
3089.00,0.0156
3088.00,0.0156
3087.00,0.0157
3086.00,0.0157
3085.00,0.0157
3084.00,0.0157
3083.00,0.0157
3082.00,0.0157
3081.00,0.0157
3080.00,0.0157
3079.00,0.0157
3078.00,0.0157
3077.00,0.0157
3076.00,0.0157
3075.00,0.0158
3074.00,0.0158
3073.00,0.0158
3072.00,0.0158
3071.00,0.0158
3070.00,0.0158
3069.00,0.0157
3068.00,0.0157
3067.00,0.0157
3066.00,0.0157
3065.00,0.0157
3064.00,0.0158
3063.00,0.0158
3062.00,0.0158
3061.00,0.0158
3060.00,0.0158
3059.00,0.0158
3058.00,0.0158
3057.00,0.0157
3056.00,0.0157
3055.00,0.0157
3054.00,0.0157
3053.00,0.0157
3052.00,0.0156
3051.00,0.0156
3050.00,0.0156
3049.00,0.0156
3048.00,0.0155
3047.00,0.0155
3046.00,0.0155
3045.00,0.0154
3044.00,0.0154
3043.00,0.0154
3042.00,0.0154
3041.00,0.0153
3040.00,0.0153
3039.00,0.0153
3038.00,0.0153
3037.00,0.0153
3036.00,0.0152
3035.00,0.0152
3034.00,0.0152
3033.00,0.0151
3032.00,0.0151
3031.00,0.0151
3030.00,0.0151
3029.00,0.0151
3028.00,0.0151
3027.00,0.0151
3026.00,0.0150
3025.00,0.0150
3024.00,0.0150
3023.00,0.0149
3022.00,0.0149
3021.00,0.0149
3020.00,0.0149
3019.00,0.0148
3018.00,0.0148
3017.00,0.0147
3016.00,0.0147
3015.00,0.0146
3014.00,0.0146
3013.00,0.0146
3012.00,0.0146
3011.00,0.0145
3010.00,0.0145
3009.00,0.0145
3008.00,0.0145
3007.00,0.0145
3006.00,0.0145
3005.00,0.0145
3004.00,0.0145
3003.00,0.0145
3002.00,0.0144
3001.00,0.0144
3000.00,0.0144
2999.00,0.0144
2998.00,0.0144
2997.00,0.0144
2996.00,0.0144
2995.00,0.0144
2994.00,0.0144
2993.00,0.0144
2992.00,0.0144
2991.00,0.0145
2990.00,0.0145
2989.00,0.0145
2988.00,0.0146
2987.00,0.0146
2986.00,0.0147
2985.00,0.0147
2984.00,0.0148
2983.00,0.0148
2982.00,0.0149
2981.00,0.0149
2980.00,0.0150
2979.00,0.0151
2978.00,0.0152
2977.00,0.0153
2976.00,0.0154
2975.00,0.0155
2974.00,0.0156
2973.00,0.0157
2972.00,0.0159
2971.00,0.0160
2970.00,0.0161
2969.00,0.0162
2968.00,0.0163
2967.00,0.0165
2966.00,0.0166
2965.00,0.0167
2964.00,0.0169
2963.00,0.0170
2962.00,0.0171
2961.00,0.0172
2960.00,0.0173
2959.00,0.0174
2958.00,0.0175
2957.00,0.0175
2956.00,0.0175
2955.00,0.0175
2954.00,0.0176
2953.00,0.0176
2952.00,0.0176
2951.00,0.0176
2950.00,0.0176
2949.00,0.0177
2948.00,0.0177
2947.00,0.0177
2946.00,0.0177
2945.00,0.0177
2944.00,0.0177
2943.00,0.0178
2942.00,0.0178
2941.00,0.0179
2940.00,0.0180
2939.00,0.0181
2938.00,0.0182
2937.00,0.0183
2936.00,0.0184
2935.00,0.0185
2934.00,0.0186
2933.00,0.0187
2932.00,0.0189
2931.00,0.0190
2930.00,0.0191
2929.00,0.0192
2928.00,0.0193
2927.00,0.0194
2926.00,0.0195
2925.00,0.0196
2924.00,0.0197
2923.00,0.0198
2922.00,0.0198
2921.00,0.0198
2920.00,0.0198
2919.00,0.0198
2918.00,0.0198
2917.00,0.0198
2916.00,0.0198
2915.00,0.0198
2914.00,0.0198
2913.00,0.0198
2912.00,0.0198
2911.00,0.0198
2910.00,0.0199
2909.00,0.0199
2908.00,0.0200
2907.00,0.0201
2906.00,0.0202
2905.00,0.0203
2904.00,0.0204
2903.00,0.0205
2902.00,0.0206
2901.00,0.0207
2900.00,0.0209
2899.00,0.0211
2898.00,0.0213
2897.00,0.0215
2896.00,0.0217
2895.00,0.0218
2894.00,0.0220
2893.00,0.0222
2892.00,0.0224
2891.00,0.0225
2890.00,0.0227
2889.00,0.0228
2888.00,0.0228
2887.00,0.0229
2886.00,0.0229
2885.00,0.0230
2884.00,0.0230
2883.00,0.0230
2882.00,0.0230
2881.00,0.0230
2880.00,0.0231
2879.00,0.0231
2878.00,0.0231
2877.00,0.0231
2876.00,0.0231
2875.00,0.0231
2874.00,0.0230
2873.00,0.0229
2872.00,0.0228
2871.00,0.0227
2870.00,0.0225
2869.00,0.0224
2868.00,0.0223
2867.00,0.0222
2866.00,0.0221
2865.00,0.0221
2864.00,0.0220
2863.00,0.0220
2862.00,0.0221
2861.00,0.0221
2860.00,0.0221
2859.00,0.0221
2858.00,0.0221
2857.00,0.0220
2856.00,0.0219
2855.00,0.0217
2854.00,0.0215
2853.00,0.0213
2852.00,0.0210
2851.00,0.0208
2850.00,0.0204
2849.00,0.0201
2848.00,0.0199
2847.00,0.0196
2846.00,0.0193
2845.00,0.0191
2844.00,0.0188
2843.00,0.0186
2842.00,0.0184
2841.00,0.0182
2840.00,0.0181
2839.00,0.0179
2838.00,0.0178
2837.00,0.0177
2836.00,0.0176
2835.00,0.0175
2834.00,0.0174
2833.00,0.0174
2832.00,0.0173
2831.00,0.0173
2830.00,0.0172
2829.00,0.0171
2828.00,0.0171
2827.00,0.0171
2826.00,0.0170
2825.00,0.0170
2824.00,0.0170
2823.00,0.0169
2822.00,0.0169
2821.00,0.0168
2820.00,0.0168
2819.00,0.0167
2818.00,0.0167
2817.00,0.0167
2816.00,0.0166
2815.00,0.0166
2814.00,0.0165
2813.00,0.0165
2812.00,0.0165
2811.00,0.0165
2810.00,0.0164
2809.00,0.0164
2808.00,0.0164
2807.00,0.0164
2806.00,0.0164
2805.00,0.0164
2804.00,0.0163
2803.00,0.0163
2802.00,0.0162
2801.00,0.0162
2800.00,0.0161
2799.00,0.0160
2798.00,0.0159
2797.00,0.0158
2796.00,0.0157
2795.00,0.0156
2794.00,0.0155
2793.00,0.0155
2792.00,0.0154
2791.00,0.0153
2790.00,0.0153
2789.00,0.0152
2788.00,0.0151
2787.00,0.0151
2786.00,0.0150
2785.00,0.0150
2784.00,0.0150
2783.00,0.0149
2782.00,0.0148
2781.00,0.0148
2780.00,0.0147
2779.00,0.0147
2778.00,0.0146
2777.00,0.0146
2776.00,0.0146
2775.00,0.0145
2774.00,0.0145
2773.00,0.0145
2772.00,0.0144
2771.00,0.0144
2770.00,0.0144
2769.00,0.0143
2768.00,0.0143
2767.00,0.0143
2766.00,0.0142
2765.00,0.0142
2764.00,0.0142
2763.00,0.0142
2762.00,0.0142
2761.00,0.0141
2760.00,0.0141
2759.00,0.0141
2758.00,0.0140
2757.00,0.0140
