Created as New Dataset,Sample 091 By YargerLab Date Thursday, August 14 2025
cm-1,A
4000.00,0.0023
3999.00,0.0023
3998.00,0.0023
3997.00,0.0024
3996.00,0.0024
3995.00,0.0024
3994.00,0.0024
3993.00,0.0024
3992.00,0.0024
3991.00,0.0024
3990.00,0.0024
3989.00,0.0024
3988.00,0.0024
3987.00,0.0024
3986.00,0.0024
3985.00,0.0024
3984.00,0.0024
3983.00,0.0024
3982.00,0.0024
3981.00,0.0024
3980.00,0.0024
3979.00,0.0024
3978.00,0.0024
3977.00,0.0024
3976.00,0.0024
3975.00,0.0024
3974.00,0.0024
3973.00,0.0024
3972.00,0.0024
3971.00,0.0025
3970.00,0.0025
3969.00,0.0025
3968.00,0.0025
3967.00,0.0025
3966.00,0.0025
3965.00,0.0024
3964.00,0.0024
3963.00,0.0024
3962.00,0.0024
3961.00,0.0025
3960.00,0.0025
3959.00,0.0025
3958.00,0.0025
3957.00,0.0025
3956.00,0.0024
3955.00,0.0024
3954.00,0.0024
3953.00,0.0025
3952.00,0.0025
3951.00,0.0025
3950.00,0.0025
3949.00,0.0025
3948.00,0.0025
3947.00,0.0025
3946.00,0.0025
3945.00,0.0025
3944.00,0.0025
3943.00,0.0025
3942.00,0.0025
3941.00,0.0025
3940.00,0.0025
3939.00,0.0025
3938.00,0.0025
3937.00,0.0025
3936.00,0.0025
3935.00,0.0025
3934.00,0.0025
3933.00,0.0025
3932.00,0.0025
3931.00,0.0026
3930.00,0.0026
3929.00,0.0026
3928.00,0.0025
3927.00,0.0025
3926.00,0.0025
3925.00,0.0025
3924.00,0.0025
3923.00,0.0025
3922.00,0.0025
3921.00,0.0025
3920.00,0.0026
3919.00,0.0026
3918.00,0.0026
3917.00,0.0026
3916.00,0.0025
3915.00,0.0025
3914.00,0.0025
3913.00,0.0025
3912.00,0.0025
3911.00,0.0025
3910.00,0.0025
3909.00,0.0025
3908.00,0.0025
3907.00,0.0026
3906.00,0.0026
3905.00,0.0027
3904.00,0.0027
3903.00,0.0027
3902.00,0.0028
3901.00,0.0028
3900.00,0.0028
3899.00,0.0027
3898.00,0.0027
3897.00,0.0027
3896.00,0.0027
3895.00,0.0026
3894.00,0.0026
3893.00,0.0026
3892.00,0.0026
3891.00,0.0026
3890.00,0.0026
3889.00,0.0027
3888.00,0.0027
3887.00,0.0027
3886.00,0.0027
3885.00,0.0026
3884.00,0.0027
3883.00,0.0027
3882.00,0.0027
3881.00,0.0027
3880.00,0.0026
3879.00,0.0026
3878.00,0.0026
3877.00,0.0026
3876.00,0.0027
3875.00,0.0026
3874.00,0.0026
3873.00,0.0027
3872.00,0.0027
3871.00,0.0027
3870.00,0.0027
3869.00,0.0027
3868.00,0.0028
3867.00,0.0028
3866.00,0.0028
3865.00,0.0028
3864.00,0.0027
3863.00,0.0027
3862.00,0.0027
3861.00,0.0027
3860.00,0.0027
3859.00,0.0027
3858.00,0.0027
3857.00,0.0028
3856.00,0.0029
3855.00,0.0030
3854.00,0.0030
3853.00,0.0030
3852.00,0.0030
3851.00,0.0030
3850.00,0.0030
3849.00,0.0028
3848.00,0.0027
3847.00,0.0026
3846.00,0.0025
3845.00,0.0025
3844.00,0.0025
3843.00,0.0026
3842.00,0.0027
3841.00,0.0028
3840.00,0.0029
3839.00,0.0029
3838.00,0.0029
3837.00,0.0029
3836.00,0.0029
3835.00,0.0029
3834.00,0.0029
3833.00,0.0028
3832.00,0.0027
3831.00,0.0026
3830.00,0.0026
3829.00,0.0026
3828.00,0.0026
3827.00,0.0026
3826.00,0.0026
3825.00,0.0026
3824.00,0.0027
3823.00,0.0027
3822.00,0.0028
3821.00,0.0028
3820.00,0.0028
3819.00,0.0029
3818.00,0.0029
3817.00,0.0029
3816.00,0.0028
3815.00,0.0027
3814.00,0.0027
3813.00,0.0026
3812.00,0.0026
3811.00,0.0026
3810.00,0.0026
3809.00,0.0026
3808.00,0.0026
3807.00,0.0026
3806.00,0.0026
3805.00,0.0026
3804.00,0.0027
3803.00,0.0027
3802.00,0.0027
3801.00,0.0027
3800.00,0.0027
3799.00,0.0028
3798.00,0.0028
3797.00,0.0027
3796.00,0.0026
3795.00,0.0026
3794.00,0.0025
3793.00,0.0025
3792.00,0.0025
3791.00,0.0025
3790.00,0.0025
3789.00,0.0025
3788.00,0.0025
3787.00,0.0025
3786.00,0.0025
3785.00,0.0025
3784.00,0.0025
3783.00,0.0025
3782.00,0.0025
3781.00,0.0025
3780.00,0.0025
3779.00,0.0025
3778.00,0.0025
3777.00,0.0025
3776.00,0.0025
3775.00,0.0025
3774.00,0.0025
3773.00,0.0026
3772.00,0.0026
3771.00,0.0026
3770.00,0.0026
3769.00,0.0027
3768.00,0.0027
3767.00,0.0027
3766.00,0.0027
3765.00,0.0027
3764.00,0.0026
3763.00,0.0026
3762.00,0.0026
3761.00,0.0026
3760.00,0.0026
3759.00,0.0026
3758.00,0.0027
3757.00,0.0027
3756.00,0.0028
3755.00,0.0028
3754.00,0.0029
3753.00,0.0030
3752.00,0.0030
3751.00,0.0030
3750.00,0.0030
3749.00,0.0030
3748.00,0.0031
3747.00,0.0031
3746.00,0.0031
3745.00,0.0031
3744.00,0.0030
3743.00,0.0030
3742.00,0.0030
3741.00,0.0030
3740.00,0.0029
3739.00,0.0029
3738.00,0.0029
3737.00,0.0029
3736.00,0.0029
3735.00,0.0030
3734.00,0.0029
3733.00,0.0029
3732.00,0.0029
3731.00,0.0028
3730.00,0.0027
3729.00,0.0027
3728.00,0.0026
3727.00,0.0026
3726.00,0.0025
3725.00,0.0026
3724.00,0.0026
3723.00,0.0026
3722.00,0.0026
3721.00,0.0026
3720.00,0.0026
3719.00,0.0026
3718.00,0.0025
3717.00,0.0025
3716.00,0.0026
3715.00,0.0026
3714.00,0.0027
3713.00,0.0028
3712.00,0.0028
3711.00,0.0028
3710.00,0.0028
3709.00,0.0027
3708.00,0.0027
3707.00,0.0026
3706.00,0.0026
3705.00,0.0026
3704.00,0.0025
3703.00,0.0025
3702.00,0.0026
3701.00,0.0026
3700.00,0.0026
3699.00,0.0026
3698.00,0.0026
3697.00,0.0026
3696.00,0.0025
3695.00,0.0025
3694.00,0.0026
3693.00,0.0026
3692.00,0.0027
3691.00,0.0028
3690.00,0.0028
3689.00,0.0028
3688.00,0.0029
3687.00,0.0029
3686.00,0.0029
3685.00,0.0028
3684.00,0.0028
3683.00,0.0028
3682.00,0.0027
3681.00,0.0028
3680.00,0.0029
3679.00,0.0030
3678.00,0.0031
3677.00,0.0032
3676.00,0.0032
3675.00,0.0032
3674.00,0.0032
3673.00,0.0033
3672.00,0.0034
3671.00,0.0034
3670.00,0.0033
3669.00,0.0033
3668.00,0.0032
3667.00,0.0032
3666.00,0.0032
3665.00,0.0032
3664.00,0.0031
3663.00,0.0031
3662.00,0.0030
3661.00,0.0031
3660.00,0.0031
3659.00,0.0032
3658.00,0.0033
3657.00,0.0034
3656.00,0.0035
3655.00,0.0035
3654.00,0.0036
3653.00,0.0038
3652.00,0.0039
3651.00,0.0040
3650.00,0.0041
3649.00,0.0041
3648.00,0.0041
3647.00,0.0040
3646.00,0.0040
3645.00,0.0040
3644.00,0.0040
3643.00,0.0039
3642.00,0.0039
3641.00,0.0039
3640.00,0.0039
3639.00,0.0039
3638.00,0.0040
3637.00,0.0040
3636.00,0.0041
3635.00,0.0042
3634.00,0.0043
3633.00,0.0045
3632.00,0.0046
3631.00,0.0048
3630.00,0.0048
3629.00,0.0048
3628.00,0.0048
3627.00,0.0048
3626.00,0.0049
3625.00,0.0049
3624.00,0.0049
3623.00,0.0049
3622.00,0.0049
3621.00,0.0050
3620.00,0.0051
3619.00,0.0051
3618.00,0.0052
3617.00,0.0053
3616.00,0.0054
3615.00,0.0054
3614.00,0.0055
3613.00,0.0055
3612.00,0.0056
3611.00,0.0057
3610.00,0.0058
3609.00,0.0059
3608.00,0.0059
3607.00,0.0059
3606.00,0.0060
3605.00,0.0060
3604.00,0.0061
3603.00,0.0062
3602.00,0.0063
3601.00,0.0063
3600.00,0.0064
3599.00,0.0065
3598.00,0.0066
3597.00,0.0067
3596.00,0.0068
3595.00,0.0069
3594.00,0.0069
3593.00,0.0070
3592.00,0.0072
3591.00,0.0073
3590.00,0.0075
3589.00,0.0076
3588.00,0.0076
3587.00,0.0077
3586.00,0.0077
3585.00,0.0078
3584.00,0.0079
3583.00,0.0080
3582.00,0.0080
3581.00,0.0081
3580.00,0.0082
3579.00,0.0082
3578.00,0.0083
3577.00,0.0084
3576.00,0.0085
3575.00,0.0086
3574.00,0.0087
3573.00,0.0088
3572.00,0.0090
3571.00,0.0092
3570.00,0.0094
3569.00,0.0096
3568.00,0.0097
3567.00,0.0097
3566.00,0.0097
3565.00,0.0098
3564.00,0.0099
3563.00,0.0100
3562.00,0.0101
3561.00,0.0101
3560.00,0.0102
3559.00,0.0103
3558.00,0.0104
3557.00,0.0105
3556.00,0.0107
3555.00,0.0108
3554.00,0.0109
3553.00,0.0110
3552.00,0.0111
3551.00,0.0112
3550.00,0.0114
3549.00,0.0115
3548.00,0.0117
3547.00,0.0118
3546.00,0.0119
3545.00,0.0120
3544.00,0.0121
3543.00,0.0122
3542.00,0.0123
3541.00,0.0124
3540.00,0.0125
3539.00,0.0127
3538.00,0.0128
3537.00,0.0130
3536.00,0.0132
3535.00,0.0133
3534.00,0.0136
3533.00,0.0138
3532.00,0.0141
3531.00,0.0144
3530.00,0.0148
3529.00,0.0151
3528.00,0.0155
3527.00,0.0160
3526.00,0.0164
3525.00,0.0169
3524.00,0.0173
3523.00,0.0176
3522.00,0.0179
3521.00,0.0182
3520.00,0.0183
3519.00,0.0184
3518.00,0.0184
3517.00,0.0183
3516.00,0.0182
3515.00,0.0181
3514.00,0.0179
3513.00,0.0177
3512.00,0.0175
3511.00,0.0173
3510.00,0.0170
3509.00,0.0168
3508.00,0.0167
3507.00,0.0166
3506.00,0.0165
3505.00,0.0165
3504.00,0.0164
3503.00,0.0163
3502.00,0.0162
3501.00,0.0162
3500.00,0.0161
3499.00,0.0161
3498.00,0.0162
3497.00,0.0162
3496.00,0.0162
3495.00,0.0161
3494.00,0.0161
3493.00,0.0162
3492.00,0.0162
3491.00,0.0163
3490.00,0.0163
3489.00,0.0164
3488.00,0.0164
3487.00,0.0164
3486.00,0.0165
3485.00,0.0166
3484.00,0.0166
3483.00,0.0167
3482.00,0.0167
3481.00,0.0168
3480.00,0.0169
3479.00,0.0169
3478.00,0.0170
3477.00,0.0171
3476.00,0.0172
3475.00,0.0173
3474.00,0.0173
3473.00,0.0174
3472.00,0.0175
3471.00,0.0176
3470.00,0.0177
3469.00,0.0178
3468.00,0.0179
3467.00,0.0180
3466.00,0.0182
3465.00,0.0183
3464.00,0.0184
3463.00,0.0185
3462.00,0.0186
3461.00,0.0187
3460.00,0.0188
3459.00,0.0189
3458.00,0.0190
3457.00,0.0191
3456.00,0.0192
3455.00,0.0194
3454.00,0.0195
3453.00,0.0196
3452.00,0.0197
3451.00,0.0198
3450.00,0.0199
3449.00,0.0200
3448.00,0.0201
3447.00,0.0201
3446.00,0.0202
3445.00,0.0203
3444.00,0.0204
3443.00,0.0205
3442.00,0.0205
3441.00,0.0206
3440.00,0.0207
3439.00,0.0208
3438.00,0.0210
3437.00,0.0211
3436.00,0.0212
3435.00,0.0212
3434.00,0.0213
3433.00,0.0214
3432.00,0.0215
3431.00,0.0216
3430.00,0.0216
3429.00,0.0217
3428.00,0.0218
3427.00,0.0219
3426.00,0.0220
3425.00,0.0221
3424.00,0.0222
3423.00,0.0223
3422.00,0.0224
3421.00,0.0224
3420.00,0.0225
3419.00,0.0226
3418.00,0.0227
3417.00,0.0228
3416.00,0.0230
3415.00,0.0232
3414.00,0.0233
3413.00,0.0234
3412.00,0.0236
3411.00,0.0236
3410.00,0.0237
3409.00,0.0238
3408.00,0.0238
3407.00,0.0238
3406.00,0.0238
3405.00,0.0237
3404.00,0.0236
3403.00,0.0235
3402.00,0.0234
3401.00,0.0232
3400.00,0.0230
3399.00,0.0228
3398.00,0.0225
3397.00,0.0223
3396.00,0.0220
3395.00,0.0218
3394.00,0.0215
3393.00,0.0212
3392.00,0.0209
3391.00,0.0206
3390.00,0.0204
3389.00,0.0201
3388.00,0.0199
3387.00,0.0197
3386.00,0.0196
3385.00,0.0194
3384.00,0.0192
3383.00,0.0190
3382.00,0.0188
3381.00,0.0187
3380.00,0.0185
3379.00,0.0184
3378.00,0.0183
3377.00,0.0182
3376.00,0.0181
3375.00,0.0179
3374.00,0.0178
3373.00,0.0177
3372.00,0.0175
3371.00,0.0174
3370.00,0.0173
3369.00,0.0172
3368.00,0.0170
3367.00,0.0170
3366.00,0.0169
3365.00,0.0168
3364.00,0.0167
3363.00,0.0166
3362.00,0.0165
3361.00,0.0164
3360.00,0.0163
3359.00,0.0162
3358.00,0.0162
3357.00,0.0161
3356.00,0.0160
3355.00,0.0159
3354.00,0.0158
3353.00,0.0158
3352.00,0.0157
3351.00,0.0156
3350.00,0.0155
3349.00,0.0154
3348.00,0.0153
3347.00,0.0153
3346.00,0.0152
3345.00,0.0151
3344.00,0.0151
3343.00,0.0150
3342.00,0.0149
3341.00,0.0149
3340.00,0.0148
3339.00,0.0148
3338.00,0.0147
3337.00,0.0147
3336.00,0.0147
3335.00,0.0146
3334.00,0.0146
3333.00,0.0146
3332.00,0.0145
3331.00,0.0145
3330.00,0.0145
3329.00,0.0144
3328.00,0.0144
3327.00,0.0144
3326.00,0.0143
3325.00,0.0143
3324.00,0.0143
3323.00,0.0143
3322.00,0.0142
3321.00,0.0142
3320.00,0.0142
3319.00,0.0141
3318.00,0.0141
3317.00,0.0141
3316.00,0.0141
3315.00,0.0140
3314.00,0.0140
3313.00,0.0140
3312.00,0.0139
3311.00,0.0139
3310.00,0.0138
3309.00,0.0137
3308.00,0.0136
3307.00,0.0136
3306.00,0.0136
3305.00,0.0136
3304.00,0.0137
3303.00,0.0137
3302.00,0.0138
3301.00,0.0138
3300.00,0.0137
3299.00,0.0137
3298.00,0.0136
3297.00,0.0135
3296.00,0.0135
3295.00,0.0134
3294.00,0.0134
3293.00,0.0134
3292.00,0.0134
3291.00,0.0134
3290.00,0.0135
3289.00,0.0135
3288.00,0.0135
3287.00,0.0135
3286.00,0.0135
3285.00,0.0135
3284.00,0.0135
3283.00,0.0135
3282.00,0.0135
3281.00,0.0134
3280.00,0.0134
3279.00,0.0133
3278.00,0.0133
3277.00,0.0132
3276.00,0.0132
3275.00,0.0132
3274.00,0.0131
3273.00,0.0131
3272.00,0.0130
3271.00,0.0130
3270.00,0.0129
3269.00,0.0129
3268.00,0.0129
3267.00,0.0129
3266.00,0.0129
3265.00,0.0129
3264.00,0.0129
3263.00,0.0129
3262.00,0.0128
3261.00,0.0128
3260.00,0.0128
3259.00,0.0127
3258.00,0.0127
3257.00,0.0126
3256.00,0.0126
3255.00,0.0125
3254.00,0.0124
3253.00,0.0124
3252.00,0.0124
3251.00,0.0123
3250.00,0.0123
3249.00,0.0122
3248.00,0.0122
3247.00,0.0121
3246.00,0.0121
3245.00,0.0120
3244.00,0.0120
3243.00,0.0119
3242.00,0.0119
3241.00,0.0118
3240.00,0.0117
3239.00,0.0117
3238.00,0.0116
3237.00,0.0115
3236.00,0.0115
3235.00,0.0114
3234.00,0.0114
3233.00,0.0113
3232.00,0.0113
3231.00,0.0112
3230.00,0.0112
3229.00,0.0112
3228.00,0.0111
3227.00,0.0110
3226.00,0.0109
3225.00,0.0109
3224.00,0.0108
3223.00,0.0108
3222.00,0.0107
3221.00,0.0107
3220.00,0.0106
3219.00,0.0105
3218.00,0.0105
3217.00,0.0104
3216.00,0.0104
3215.00,0.0103
3214.00,0.0103
3213.00,0.0102
3212.00,0.0101
3211.00,0.0101
3210.00,0.0100
3209.00,0.0100
3208.00,0.0099
3207.00,0.0098
3206.00,0.0098
3205.00,0.0097
3204.00,0.0097
3203.00,0.0097
3202.00,0.0096
3201.00,0.0096
3200.00,0.0095
3199.00,0.0094
3198.00,0.0094
3197.00,0.0093
3196.00,0.0092
3195.00,0.0092
3194.00,0.0091
3193.00,0.0090
3192.00,0.0090
3191.00,0.0089
3190.00,0.0089
3189.00,0.0088
3188.00,0.0088
3187.00,0.0087
3186.00,0.0087
3185.00,0.0087
3184.00,0.0086
3183.00,0.0086
3182.00,0.0085
3181.00,0.0085
3180.00,0.0084
3179.00,0.0084
3178.00,0.0083
3177.00,0.0083
3176.00,0.0082
3175.00,0.0081
3174.00,0.0081
3173.00,0.0081
3172.00,0.0080
3171.00,0.0080
3170.00,0.0080
3169.00,0.0079
3168.00,0.0079
3167.00,0.0078
3166.00,0.0078
3165.00,0.0078
3164.00,0.0077
3163.00,0.0077
3162.00,0.0076
3161.00,0.0076
3160.00,0.0075
3159.00,0.0075
3158.00,0.0074
3157.00,0.0074
3156.00,0.0073
3155.00,0.0073
3154.00,0.0073
3153.00,0.0072
3152.00,0.0072
3151.00,0.0072
3150.00,0.0071
3149.00,0.0071
3148.00,0.0071
3147.00,0.0071
3146.00,0.0070
3145.00,0.0070
3144.00,0.0069
3143.00,0.0069
3142.00,0.0069
3141.00,0.0068
3140.00,0.0068
3139.00,0.0068
3138.00,0.0068
3137.00,0.0067
3136.00,0.0067
3135.00,0.0066
3134.00,0.0066
3133.00,0.0065
3132.00,0.0065
3131.00,0.0064
3130.00,0.0064
3129.00,0.0064
3128.00,0.0064
3127.00,0.0064
3126.00,0.0063
3125.00,0.0063
3124.00,0.0063
3123.00,0.0063
3122.00,0.0063
3121.00,0.0063
3120.00,0.0063
3119.00,0.0062
3118.00,0.0062
3117.00,0.0062
3116.00,0.0061
3115.00,0.0061
3114.00,0.0061
3113.00,0.0061
3112.00,0.0060
3111.00,0.0060
3110.00,0.0060
3109.00,0.0060
3108.00,0.0060
3107.00,0.0059
3106.00,0.0059
3105.00,0.0059
3104.00,0.0059
3103.00,0.0059
3102.00,0.0059
3101.00,0.0058
3100.00,0.0058
3099.00,0.0058
3098.00,0.0058
3097.00,0.0057
3096.00,0.0057
3095.00,0.0057
3094.00,0.0057
3093.00,0.0056
3092.00,0.0056
3091.00,0.0056
3090.00,0.0056
3089.00,0.0056
3088.00,0.0056
3087.00,0.0056
3086.00,0.0056
3085.00,0.0056
3084.00,0.0056
3083.00,0.0056
3082.00,0.0057
3081.00,0.0058
3080.00,0.0058
3079.00,0.0059
3078.00,0.0061
3077.00,0.0062
3076.00,0.0063
3075.00,0.0064
3074.00,0.0064
3073.00,0.0063
3072.00,0.0062
3071.00,0.0061
3070.00,0.0059
3069.00,0.0057
3068.00,0.0056
3067.00,0.0054
3066.00,0.0054
3065.00,0.0053
3064.00,0.0052
3063.00,0.0052
3062.00,0.0051
3061.00,0.0051
3060.00,0.0050
3059.00,0.0050
3058.00,0.0050
3057.00,0.0050
3056.00,0.0050
3055.00,0.0049
3054.00,0.0049
3053.00,0.0049
3052.00,0.0048
3051.00,0.0048
3050.00,0.0048
3049.00,0.0048
3048.00,0.0048
3047.00,0.0048
3046.00,0.0048
3045.00,0.0048
3044.00,0.0048
3043.00,0.0048
3042.00,0.0048
3041.00,0.0048
3040.00,0.0048
3039.00,0.0048
3038.00,0.0048
3037.00,0.0048
3036.00,0.0048
3035.00,0.0048
3034.00,0.0048
3033.00,0.0049
3032.00,0.0049
3031.00,0.0049
3030.00,0.0048
3029.00,0.0048
3028.00,0.0048
3027.00,0.0048
3026.00,0.0047
3025.00,0.0047
3024.00,0.0047
3023.00,0.0047
3022.00,0.0047
3021.00,0.0048
3020.00,0.0048
3019.00,0.0048
3018.00,0.0048
3017.00,0.0049
3016.00,0.0049
3015.00,0.0050
3014.00,0.0050
3013.00,0.0051
3012.00,0.0051
3011.00,0.0052
3010.00,0.0053
3009.00,0.0053
3008.00,0.0054
3007.00,0.0056
3006.00,0.0057
3005.00,0.0058
3004.00,0.0059
3003.00,0.0060
3002.00,0.0062
3001.00,0.0064
3000.00,0.0065
2999.00,0.0067
2998.00,0.0068
2997.00,0.0069
2996.00,0.0071
2995.00,0.0073
2994.00,0.0074
2993.00,0.0076
2992.00,0.0078
2991.00,0.0080
2990.00,0.0082
2989.00,0.0083
2988.00,0.0085
2987.00,0.0086
2986.00,0.0087
2985.00,0.0088
2984.00,0.0089
2983.00,0.0090
2982.00,0.0091
2981.00,0.0092
2980.00,0.0094
2979.00,0.0096
2978.00,0.0098
2977.00,0.0101
2976.00,0.0103
2975.00,0.0106
2974.00,0.0109
2973.00,0.0112
2972.00,0.0115
2971.00,0.0119
2970.00,0.0123
2969.00,0.0127
2968.00,0.0131
2967.00,0.0134
2966.00,0.0136
2965.00,0.0137
2964.00,0.0138
2963.00,0.0138
2962.00,0.0139
2961.00,0.0139
2960.00,0.0139
2959.00,0.0139
2958.00,0.0139
2957.00,0.0140
2956.00,0.0140
2955.00,0.0141
2954.00,0.0141
2953.00,0.0142
2952.00,0.0142
2951.00,0.0143
2950.00,0.0143
2949.00,0.0144
2948.00,0.0144
2947.00,0.0145
2946.00,0.0146
2945.00,0.0146
2944.00,0.0147
2943.00,0.0147
2942.00,0.0147
2941.00,0.0147
2940.00,0.0146
2939.00,0.0146
2938.00,0.0145
2937.00,0.0145
2936.00,0.0145
2935.00,0.0145
2934.00,0.0145
2933.00,0.0146
2932.00,0.0147
2931.00,0.0150
2930.00,0.0153
2929.00,0.0157
2928.00,0.0161
2927.00,0.0165
2926.00,0.0169
2925.00,0.0172
2924.00,0.0174
2923.00,0.0174
2922.00,0.0174
2921.00,0.0173
2920.00,0.0172
2919.00,0.0172
2918.00,0.0171
2917.00,0.0170
2916.00,0.0169
2915.00,0.0168
2914.00,0.0166
2913.00,0.0164
2912.00,0.0162
2911.00,0.0160
2910.00,0.0157
2909.00,0.0154
2908.00,0.0151
2907.00,0.0148
2906.00,0.0146
2905.00,0.0144
2904.00,0.0142
2903.00,0.0141
2902.00,0.0140
2901.00,0.0140
2900.00,0.0139
2899.00,0.0138
2898.00,0.0138
2897.00,0.0137
2896.00,0.0136
2895.00,0.0135
2894.00,0.0134
2893.00,0.0133
2892.00,0.0132
2891.00,0.0131
2890.00,0.0131
2889.00,0.0130
2888.00,0.0130
2887.00,0.0130
2886.00,0.0129
2885.00,0.0129
2884.00,0.0129
2883.00,0.0129
2882.00,0.0129
2881.00,0.0128
2880.00,0.0128
2879.00,0.0128
2878.00,0.0127
2877.00,0.0127
2876.00,0.0126
2875.00,0.0126
2874.00,0.0125
2873.00,0.0125
2872.00,0.0125
2871.00,0.0125
2870.00,0.0125
2869.00,0.0124
2868.00,0.0123
2867.00,0.0121
2866.00,0.0120
2865.00,0.0119
2864.00,0.0118
2863.00,0.0118
2862.00,0.0119
2861.00,0.0120
2860.00,0.0122
2859.00,0.0124
2858.00,0.0127
2857.00,0.0129
2856.00,0.0130
2855.00,0.0129
2854.00,0.0127
2853.00,0.0123
2852.00,0.0118
2851.00,0.0113
2850.00,0.0108
2849.00,0.0103
2848.00,0.0098
2847.00,0.0094
2846.00,0.0090
2845.00,0.0087
2844.00,0.0084
2843.00,0.0082
2842.00,0.0080
2841.00,0.0078
2840.00,0.0077
2839.00,0.0076
2838.00,0.0075
2837.00,0.0076
2836.00,0.0076
2835.00,0.0078
2834.00,0.0079
2833.00,0.0081
2832.00,0.0084
2831.00,0.0085
2830.00,0.0087
2829.00,0.0087
2828.00,0.0086
2827.00,0.0084
2826.00,0.0081
2825.00,0.0077
2824.00,0.0073
2823.00,0.0070
2822.00,0.0067
2821.00,0.0065
2820.00,0.0063
2819.00,0.0061
2818.00,0.0060
2817.00,0.0059
2816.00,0.0057
2815.00,0.0057
2814.00,0.0056
2813.00,0.0055
2812.00,0.0054
2811.00,0.0054
2810.00,0.0053
2809.00,0.0053
2808.00,0.0052
2807.00,0.0052
2806.00,0.0052
2805.00,0.0051
2804.00,0.0051
2803.00,0.0051
2802.00,0.0050
2801.00,0.0050
2800.00,0.0049
2799.00,0.0049
2798.00,0.0049
2797.00,0.0049
2796.00,0.0049
2795.00,0.0049
2794.00,0.0049
2793.00,0.0048
2792.00,0.0048
2791.00,0.0048
2790.00,0.0047
2789.00,0.0047
2788.00,0.0047
2787.00,0.0047
2786.00,0.0046
2785.00,0.0046
2784.00,0.0046
2783.00,0.0046
2782.00,0.0046
2781.00,0.0046
2780.00,0.0046
2779.00,0.0046
2778.00,0.0045
2777.00,0.0045
2776.00,0.0045
2775.00,0.0044
2774.00,0.0044
2773.00,0.0044
2772.00,0.0044
2771.00,0.0044
2770.00,0.0044
2769.00,0.0044
2768.00,0.0043
2767.00,0.0043
2766.00,0.0043
2765.00,0.0043
2764.00,0.0043
2763.00,0.0043
2762.00,0.0042
2761.00,0.0042
2760.00,0.0042
2759.00,0.0042
2758.00,0.0042
2757.00,0.0042
