Created as New Dataset,Sample 636 By YargerLab Date Saturday, June 07 2025
cm-1,A
4000.00,0.0126
3999.00,0.0126
3998.00,0.0126
3997.00,0.0126
3996.00,0.0126
3995.00,0.0126
3994.00,0.0126
3993.00,0.0126
3992.00,0.0126
3991.00,0.0126
3990.00,0.0126
3989.00,0.0126
3988.00,0.0126
3987.00,0.0126
3986.00,0.0126
3985.00,0.0126
3984.00,0.0126
3983.00,0.0126
3982.00,0.0125
3981.00,0.0125
3980.00,0.0125
3979.00,0.0125
3978.00,0.0125
3977.00,0.0125
3976.00,0.0125
3975.00,0.0125
3974.00,0.0125
3973.00,0.0125
3972.00,0.0125
3971.00,0.0125
3970.00,0.0125
3969.00,0.0125
3968.00,0.0125
3967.00,0.0125
3966.00,0.0125
3965.00,0.0125
3964.00,0.0125
3963.00,0.0125
3962.00,0.0125
3961.00,0.0125
3960.00,0.0125
3959.00,0.0125
3958.00,0.0125
3957.00,0.0125
3956.00,0.0125
3955.00,0.0125
3954.00,0.0125
3953.00,0.0124
3952.00,0.0124
3951.00,0.0124
3950.00,0.0124
3949.00,0.0124
3948.00,0.0123
3947.00,0.0123
3946.00,0.0123
3945.00,0.0123
3944.00,0.0123
3943.00,0.0124
3942.00,0.0124
3941.00,0.0124
3940.00,0.0124
3939.00,0.0124
3938.00,0.0124
3937.00,0.0124
3936.00,0.0124
3935.00,0.0123
3934.00,0.0123
3933.00,0.0123
3932.00,0.0123
3931.00,0.0124
3930.00,0.0124
3929.00,0.0124
3928.00,0.0125
3927.00,0.0125
3926.00,0.0125
3925.00,0.0126
3924.00,0.0126
3923.00,0.0126
3922.00,0.0125
3921.00,0.0124
3920.00,0.0123
3919.00,0.0123
3918.00,0.0123
3917.00,0.0123
3916.00,0.0124
3915.00,0.0124
3914.00,0.0124
3913.00,0.0125
3912.00,0.0125
3911.00,0.0124
3910.00,0.0124
3909.00,0.0124
3908.00,0.0124
3907.00,0.0123
3906.00,0.0123
3905.00,0.0122
3904.00,0.0120
3903.00,0.0118
3902.00,0.0117
3901.00,0.0117
3900.00,0.0117
3899.00,0.0118
3898.00,0.0119
3897.00,0.0120
3896.00,0.0120
3895.00,0.0120
3894.00,0.0120
3893.00,0.0121
3892.00,0.0121
3891.00,0.0121
3890.00,0.0121
3889.00,0.0120
3888.00,0.0119
3887.00,0.0117
3886.00,0.0117
3885.00,0.0118
3884.00,0.0118
3883.00,0.0118
3882.00,0.0117
3881.00,0.0118
3880.00,0.0118
3879.00,0.0119
3878.00,0.0118
3877.00,0.0118
3876.00,0.0117
3875.00,0.0118
3874.00,0.0119
3873.00,0.0119
3872.00,0.0118
3871.00,0.0116
3870.00,0.0116
3869.00,0.0116
3868.00,0.0116
3867.00,0.0116
3866.00,0.0115
3865.00,0.0115
3864.00,0.0116
3863.00,0.0117
3862.00,0.0116
3861.00,0.0116
3860.00,0.0116
3859.00,0.0117
3858.00,0.0119
3857.00,0.0121
3856.00,0.0122
3855.00,0.0121
3854.00,0.0120
3853.00,0.0118
3852.00,0.0117
3851.00,0.0115
3850.00,0.0115
3849.00,0.0115
3848.00,0.0115
3847.00,0.0115
3846.00,0.0116
3845.00,0.0116
3844.00,0.0115
3843.00,0.0115
3842.00,0.0115
3841.00,0.0115
3840.00,0.0115
3839.00,0.0115
3838.00,0.0115
3837.00,0.0115
3836.00,0.0115
3835.00,0.0115
3834.00,0.0115
3833.00,0.0115
3832.00,0.0115
3831.00,0.0116
3830.00,0.0116
3829.00,0.0116
3828.00,0.0116
3827.00,0.0116
3826.00,0.0117
3825.00,0.0117
3824.00,0.0116
3823.00,0.0114
3822.00,0.0114
3821.00,0.0115
3820.00,0.0116
3819.00,0.0116
3818.00,0.0114
3817.00,0.0114
3816.00,0.0115
3815.00,0.0116
3814.00,0.0118
3813.00,0.0118
3812.00,0.0118
3811.00,0.0118
3810.00,0.0119
3809.00,0.0119
3808.00,0.0118
3807.00,0.0118
3806.00,0.0117
3805.00,0.0117
3804.00,0.0116
3803.00,0.0115
3802.00,0.0115
3801.00,0.0115
3800.00,0.0116
3799.00,0.0115
3798.00,0.0115
3797.00,0.0115
3796.00,0.0116
3795.00,0.0117
3794.00,0.0118
3793.00,0.0118
3792.00,0.0119
3791.00,0.0119
3790.00,0.0120
3789.00,0.0120
3788.00,0.0120
3787.00,0.0120
3786.00,0.0119
3785.00,0.0119
3784.00,0.0119
3783.00,0.0118
3782.00,0.0117
3781.00,0.0117
3780.00,0.0117
3779.00,0.0117
3778.00,0.0117
3777.00,0.0117
3776.00,0.0117
3775.00,0.0117
3774.00,0.0118
3773.00,0.0118
3772.00,0.0117
3771.00,0.0116
3770.00,0.0116
3769.00,0.0116
3768.00,0.0115
3767.00,0.0115
3766.00,0.0115
3765.00,0.0115
3764.00,0.0115
3763.00,0.0115
3762.00,0.0115
3761.00,0.0114
3760.00,0.0114
3759.00,0.0114
3758.00,0.0113
3757.00,0.0113
3756.00,0.0113
3755.00,0.0112
3754.00,0.0111
3753.00,0.0110
3752.00,0.0109
3751.00,0.0109
3750.00,0.0107
3749.00,0.0106
3748.00,0.0107
3747.00,0.0107
3746.00,0.0106
3745.00,0.0105
3744.00,0.0106
3743.00,0.0107
3742.00,0.0107
3741.00,0.0106
3740.00,0.0105
3739.00,0.0104
3738.00,0.0103
3737.00,0.0103
3736.00,0.0103
3735.00,0.0105
3734.00,0.0105
3733.00,0.0106
3732.00,0.0106
3731.00,0.0107
3730.00,0.0109
3729.00,0.0109
3728.00,0.0109
3727.00,0.0109
3726.00,0.0110
3725.00,0.0110
3724.00,0.0111
3723.00,0.0111
3722.00,0.0111
3721.00,0.0112
3720.00,0.0112
3719.00,0.0113
3718.00,0.0113
3717.00,0.0113
3716.00,0.0113
3715.00,0.0112
3714.00,0.0111
3713.00,0.0110
3712.00,0.0110
3711.00,0.0109
3710.00,0.0109
3709.00,0.0109
3708.00,0.0109
3707.00,0.0110
3706.00,0.0110
3705.00,0.0111
3704.00,0.0112
3703.00,0.0112
3702.00,0.0112
3701.00,0.0113
3700.00,0.0113
3699.00,0.0112
3698.00,0.0112
3697.00,0.0112
3696.00,0.0112
3695.00,0.0112
3694.00,0.0112
3693.00,0.0111
3692.00,0.0111
3691.00,0.0111
3690.00,0.0111
3689.00,0.0109
3688.00,0.0108
3687.00,0.0108
3686.00,0.0109
3685.00,0.0109
3684.00,0.0109
3683.00,0.0109
3682.00,0.0109
3681.00,0.0109
3680.00,0.0109
3679.00,0.0109
3678.00,0.0108
3677.00,0.0107
3676.00,0.0106
3675.00,0.0106
3674.00,0.0106
3673.00,0.0106
3672.00,0.0105
3671.00,0.0104
3670.00,0.0105
3669.00,0.0107
3668.00,0.0107
3667.00,0.0108
3666.00,0.0108
3665.00,0.0109
3664.00,0.0110
3663.00,0.0110
3662.00,0.0111
3661.00,0.0111
3660.00,0.0110
3659.00,0.0110
3658.00,0.0109
3657.00,0.0109
3656.00,0.0108
3655.00,0.0108
3654.00,0.0107
3653.00,0.0105
3652.00,0.0103
3651.00,0.0101
3650.00,0.0101
3649.00,0.0100
3648.00,0.0099
3647.00,0.0100
3646.00,0.0101
3645.00,0.0103
3644.00,0.0104
3643.00,0.0106
3642.00,0.0107
3641.00,0.0108
3640.00,0.0108
3639.00,0.0108
3638.00,0.0108
3637.00,0.0108
3636.00,0.0107
3635.00,0.0106
3634.00,0.0106
3633.00,0.0106
3632.00,0.0106
3631.00,0.0105
3630.00,0.0104
3629.00,0.0104
3628.00,0.0103
3627.00,0.0103
3626.00,0.0102
3625.00,0.0102
3624.00,0.0103
3623.00,0.0103
3622.00,0.0104
3621.00,0.0105
3620.00,0.0105
3619.00,0.0104
3618.00,0.0103
3617.00,0.0102
3616.00,0.0100
3615.00,0.0100
3614.00,0.0100
3613.00,0.0100
3612.00,0.0100
3611.00,0.0100
3610.00,0.0099
3609.00,0.0099
3608.00,0.0100
3607.00,0.0101
3606.00,0.0102
3605.00,0.0103
3604.00,0.0104
3603.00,0.0104
3602.00,0.0104
3601.00,0.0104
3600.00,0.0104
3599.00,0.0104
3598.00,0.0104
3597.00,0.0103
3596.00,0.0103
3595.00,0.0103
3594.00,0.0103
3593.00,0.0103
3592.00,0.0102
3591.00,0.0101
3590.00,0.0100
3589.00,0.0100
3588.00,0.0101
3587.00,0.0102
3586.00,0.0102
3585.00,0.0102
3584.00,0.0102
3583.00,0.0103
3582.00,0.0103
3581.00,0.0104
3580.00,0.0105
3579.00,0.0106
3578.00,0.0106
3577.00,0.0106
3576.00,0.0106
3575.00,0.0106
3574.00,0.0106
3573.00,0.0105
3572.00,0.0104
3571.00,0.0103
3570.00,0.0101
3569.00,0.0100
3568.00,0.0099
3567.00,0.0099
3566.00,0.0100
3565.00,0.0100
3564.00,0.0101
3563.00,0.0101
3562.00,0.0102
3561.00,0.0103
3560.00,0.0104
3559.00,0.0105
3558.00,0.0105
3557.00,0.0106
3556.00,0.0105
3555.00,0.0105
3554.00,0.0105
3553.00,0.0105
3552.00,0.0105
3551.00,0.0105
3550.00,0.0104
3549.00,0.0103
3548.00,0.0102
3547.00,0.0101
3546.00,0.0102
3545.00,0.0102
3544.00,0.0103
3543.00,0.0103
3542.00,0.0104
3541.00,0.0104
3540.00,0.0105
3539.00,0.0105
3538.00,0.0105
3537.00,0.0105
3536.00,0.0105
3535.00,0.0105
3534.00,0.0105
3533.00,0.0105
3532.00,0.0104
3531.00,0.0104
3530.00,0.0104
3529.00,0.0104
3528.00,0.0103
3527.00,0.0103
3526.00,0.0103
3525.00,0.0103
3524.00,0.0103
3523.00,0.0103
3522.00,0.0104
3521.00,0.0104
3520.00,0.0104
3519.00,0.0105
3518.00,0.0105
3517.00,0.0105
3516.00,0.0104
3515.00,0.0104
3514.00,0.0104
3513.00,0.0104
3512.00,0.0104
3511.00,0.0104
3510.00,0.0104
3509.00,0.0104
3508.00,0.0104
3507.00,0.0103
3506.00,0.0103
3505.00,0.0103
3504.00,0.0103
3503.00,0.0103
3502.00,0.0103
3501.00,0.0103
3500.00,0.0103
3499.00,0.0103
3498.00,0.0103
3497.00,0.0103
3496.00,0.0104
3495.00,0.0104
3494.00,0.0104
3493.00,0.0104
3492.00,0.0104
3491.00,0.0104
3490.00,0.0103
3489.00,0.0103
3488.00,0.0103
3487.00,0.0103
3486.00,0.0103
3485.00,0.0102
3484.00,0.0102
3483.00,0.0102
3482.00,0.0102
3481.00,0.0102
3480.00,0.0103
3479.00,0.0103
3478.00,0.0103
3477.00,0.0103
3476.00,0.0104
3475.00,0.0104
3474.00,0.0104
3473.00,0.0103
3472.00,0.0103
3471.00,0.0103
3470.00,0.0103
3469.00,0.0103
3468.00,0.0103
3467.00,0.0103
3466.00,0.0103
3465.00,0.0103
3464.00,0.0103
3463.00,0.0103
3462.00,0.0102
3461.00,0.0102
3460.00,0.0102
3459.00,0.0102
3458.00,0.0102
3457.00,0.0102
3456.00,0.0103
3455.00,0.0103
3454.00,0.0103
3453.00,0.0103
3452.00,0.0103
3451.00,0.0103
3450.00,0.0102
3449.00,0.0102
3448.00,0.0102
3447.00,0.0102
3446.00,0.0102
3445.00,0.0102
3444.00,0.0103
3443.00,0.0103
3442.00,0.0103
3441.00,0.0103
3440.00,0.0103
3439.00,0.0103
3438.00,0.0103
3437.00,0.0103
3436.00,0.0103
3435.00,0.0104
3434.00,0.0104
3433.00,0.0104
3432.00,0.0104
3431.00,0.0105
3430.00,0.0105
3429.00,0.0106
3428.00,0.0107
3427.00,0.0107
3426.00,0.0108
3425.00,0.0108
3424.00,0.0108
3423.00,0.0108
3422.00,0.0109
3421.00,0.0110
3420.00,0.0110
3419.00,0.0111
3418.00,0.0112
3417.00,0.0113
3416.00,0.0114
3415.00,0.0114
3414.00,0.0115
3413.00,0.0116
3412.00,0.0118
3411.00,0.0120
3410.00,0.0121
3409.00,0.0124
3408.00,0.0126
3407.00,0.0128
3406.00,0.0131
3405.00,0.0133
3404.00,0.0135
3403.00,0.0137
3402.00,0.0139
3401.00,0.0142
3400.00,0.0146
3399.00,0.0151
3398.00,0.0157
3397.00,0.0163
3396.00,0.0168
3395.00,0.0174
3394.00,0.0180
3393.00,0.0187
3392.00,0.0195
3391.00,0.0205
3390.00,0.0217
3389.00,0.0229
3388.00,0.0243
3387.00,0.0259
3386.00,0.0276
3385.00,0.0295
3384.00,0.0315
3383.00,0.0338
3382.00,0.0362
3381.00,0.0389
3380.00,0.0417
3379.00,0.0446
3378.00,0.0475
3377.00,0.0503
3376.00,0.0531
3375.00,0.0555
3374.00,0.0576
3373.00,0.0592
3372.00,0.0604
3371.00,0.0610
3370.00,0.0613
3369.00,0.0611
3368.00,0.0607
3367.00,0.0600
3366.00,0.0591
3365.00,0.0579
3364.00,0.0566
3363.00,0.0551
3362.00,0.0534
3361.00,0.0518
3360.00,0.0501
3359.00,0.0485
3358.00,0.0468
3357.00,0.0451
3356.00,0.0435
3355.00,0.0419
3354.00,0.0403
3353.00,0.0389
3352.00,0.0375
3351.00,0.0361
3350.00,0.0350
3349.00,0.0338
3348.00,0.0328
3347.00,0.0318
3346.00,0.0308
3345.00,0.0299
3344.00,0.0291
3343.00,0.0283
3342.00,0.0275
3341.00,0.0268
3340.00,0.0262
3339.00,0.0256
3338.00,0.0251
3337.00,0.0246
3336.00,0.0242
3335.00,0.0238
3334.00,0.0234
3333.00,0.0230
3332.00,0.0226
3331.00,0.0223
3330.00,0.0220
3329.00,0.0217
3328.00,0.0214
3327.00,0.0211
3326.00,0.0208
3325.00,0.0206
3324.00,0.0204
3323.00,0.0202
3322.00,0.0201
3321.00,0.0199
3320.00,0.0198
3319.00,0.0196
3318.00,0.0195
3317.00,0.0193
3316.00,0.0192
3315.00,0.0191
3314.00,0.0189
3313.00,0.0188
3312.00,0.0187
3311.00,0.0185
3310.00,0.0184
3309.00,0.0182
3308.00,0.0181
3307.00,0.0180
3306.00,0.0179
3305.00,0.0179
3304.00,0.0178
3303.00,0.0177
3302.00,0.0176
3301.00,0.0175
3300.00,0.0174
3299.00,0.0173
3298.00,0.0171
3297.00,0.0170
3296.00,0.0168
3295.00,0.0167
3294.00,0.0165
3293.00,0.0164
3292.00,0.0163
3291.00,0.0162
3290.00,0.0162
3289.00,0.0161
3288.00,0.0160
3287.00,0.0159
3286.00,0.0158
3285.00,0.0157
3284.00,0.0156
3283.00,0.0154
3282.00,0.0153
3281.00,0.0151
3280.00,0.0150
3279.00,0.0149
3278.00,0.0148
3277.00,0.0146
3276.00,0.0145
3275.00,0.0144
3274.00,0.0143
3273.00,0.0142
3272.00,0.0142
3271.00,0.0141
3270.00,0.0141
3269.00,0.0141
3268.00,0.0141
3267.00,0.0141
3266.00,0.0141
3265.00,0.0141
3264.00,0.0141
3263.00,0.0140
3262.00,0.0140
3261.00,0.0140
3260.00,0.0140
3259.00,0.0139
3258.00,0.0139
3257.00,0.0139
3256.00,0.0139
3255.00,0.0139
3254.00,0.0140
3253.00,0.0140
3252.00,0.0140
3251.00,0.0140
3250.00,0.0140
3249.00,0.0140
3248.00,0.0139
3247.00,0.0139
3246.00,0.0140
3245.00,0.0141
3244.00,0.0142
3243.00,0.0142
3242.00,0.0142
3241.00,0.0143
3240.00,0.0143
3239.00,0.0143
3238.00,0.0142
3237.00,0.0142
3236.00,0.0141
3235.00,0.0140
3234.00,0.0140
3233.00,0.0140
3232.00,0.0140
3231.00,0.0141
3230.00,0.0141
3229.00,0.0141
3228.00,0.0141
3227.00,0.0140
3226.00,0.0139
3225.00,0.0138
3224.00,0.0138
3223.00,0.0137
3222.00,0.0136
3221.00,0.0135
3220.00,0.0134
3219.00,0.0134
3218.00,0.0133
3217.00,0.0132
3216.00,0.0131
3215.00,0.0131
3214.00,0.0130
3213.00,0.0130
3212.00,0.0129
3211.00,0.0129
3210.00,0.0128
3209.00,0.0128
3208.00,0.0127
3207.00,0.0126
3206.00,0.0126
3205.00,0.0125
3204.00,0.0125
3203.00,0.0125
3202.00,0.0125
3201.00,0.0124
3200.00,0.0124
3199.00,0.0124
3198.00,0.0123
3197.00,0.0123
3196.00,0.0123
3195.00,0.0123
3194.00,0.0122
3193.00,0.0122
3192.00,0.0122
3191.00,0.0122
3190.00,0.0121
3189.00,0.0121
3188.00,0.0121
3187.00,0.0121
3186.00,0.0121
3185.00,0.0121
3184.00,0.0120
3183.00,0.0120
3182.00,0.0120
3181.00,0.0120
3180.00,0.0120
3179.00,0.0120
3178.00,0.0119
3177.00,0.0119
3176.00,0.0119
3175.00,0.0119
3174.00,0.0119
3173.00,0.0119
3172.00,0.0119
3171.00,0.0119
3170.00,0.0119
3169.00,0.0119
3168.00,0.0119
3167.00,0.0119
3166.00,0.0119
3165.00,0.0118
3164.00,0.0118
3163.00,0.0118
3162.00,0.0118
3161.00,0.0118
3160.00,0.0118
3159.00,0.0118
3158.00,0.0118
3157.00,0.0118
3156.00,0.0118
3155.00,0.0117
3154.00,0.0117
3153.00,0.0117
3152.00,0.0118
3151.00,0.0118
3150.00,0.0118
3149.00,0.0118
3148.00,0.0119
3147.00,0.0119
3146.00,0.0119
3145.00,0.0119
3144.00,0.0119
3143.00,0.0119
3142.00,0.0119
3141.00,0.0119
3140.00,0.0119
3139.00,0.0119
3138.00,0.0119
3137.00,0.0119
3136.00,0.0120
3135.00,0.0120
3134.00,0.0120
3133.00,0.0120
3132.00,0.0120
3131.00,0.0120
3130.00,0.0121
3129.00,0.0121
3128.00,0.0122
3127.00,0.0123
3126.00,0.0123
3125.00,0.0123
3124.00,0.0123
3123.00,0.0123
3122.00,0.0124
3121.00,0.0124
3120.00,0.0124
3119.00,0.0125
3118.00,0.0125
3117.00,0.0125
3116.00,0.0126
3115.00,0.0127
3114.00,0.0128
3113.00,0.0129
3112.00,0.0130
3111.00,0.0130
3110.00,0.0131
3109.00,0.0132
3108.00,0.0133
3107.00,0.0134
3106.00,0.0135
3105.00,0.0135
3104.00,0.0136
3103.00,0.0136
3102.00,0.0137
3101.00,0.0138
3100.00,0.0138
3099.00,0.0138
3098.00,0.0139
3097.00,0.0139
3096.00,0.0139
3095.00,0.0139
3094.00,0.0138
3093.00,0.0138
3092.00,0.0137
3091.00,0.0136
3090.00,0.0136
3089.00,0.0135
3088.00,0.0135
3087.00,0.0134
3086.00,0.0134
3085.00,0.0134
3084.00,0.0134
3083.00,0.0133
3082.00,0.0133
3081.00,0.0133
3080.00,0.0133
3079.00,0.0134
3078.00,0.0134
3077.00,0.0135
3076.00,0.0136
3075.00,0.0138
3074.00,0.0139
3073.00,0.0141
3072.00,0.0142
3071.00,0.0143
3070.00,0.0144
3069.00,0.0143
3068.00,0.0142
3067.00,0.0141
3066.00,0.0139
3065.00,0.0136
3064.00,0.0134
3063.00,0.0132
3062.00,0.0130
3061.00,0.0129
3060.00,0.0128
3059.00,0.0127
3058.00,0.0127
3057.00,0.0127
3056.00,0.0127
3055.00,0.0127
3054.00,0.0128
3053.00,0.0128
3052.00,0.0128
3051.00,0.0127
3050.00,0.0127
3049.00,0.0126
3048.00,0.0125
3047.00,0.0124
3046.00,0.0124
3045.00,0.0123
3044.00,0.0123
3043.00,0.0122
3042.00,0.0122
3041.00,0.0122
3040.00,0.0122
3039.00,0.0122
3038.00,0.0122
3037.00,0.0122
3036.00,0.0122
3035.00,0.0122
3034.00,0.0122
3033.00,0.0123
3032.00,0.0123
3031.00,0.0124
3030.00,0.0125
3029.00,0.0126
3028.00,0.0127
3027.00,0.0128
3026.00,0.0129
3025.00,0.0130
3024.00,0.0132
3023.00,0.0133
3022.00,0.0135
3021.00,0.0136
3020.00,0.0137
3019.00,0.0138
3018.00,0.0139
3017.00,0.0140
3016.00,0.0141
3015.00,0.0142
3014.00,0.0143
3013.00,0.0144
3012.00,0.0146
3011.00,0.0148
3010.00,0.0150
3009.00,0.0153
3008.00,0.0156
3007.00,0.0159
3006.00,0.0162
3005.00,0.0164
3004.00,0.0168
3003.00,0.0171
3002.00,0.0174
3001.00,0.0178
3000.00,0.0181
2999.00,0.0185
2998.00,0.0190
2997.00,0.0195
2996.00,0.0200
2995.00,0.0205
2994.00,0.0210
2993.00,0.0215
2992.00,0.0219
2991.00,0.0223
2990.00,0.0226
2989.00,0.0229
2988.00,0.0230
2987.00,0.0231
2986.00,0.0233
2985.00,0.0234
2984.00,0.0235
2983.00,0.0236
2982.00,0.0237
2981.00,0.0237
2980.00,0.0236
2979.00,0.0233
2978.00,0.0229
2977.00,0.0223
2976.00,0.0217
2975.00,0.0210
2974.00,0.0205
2973.00,0.0200
2972.00,0.0196
2971.00,0.0193
2970.00,0.0190
2969.00,0.0189
2968.00,0.0188
2967.00,0.0188
2966.00,0.0189
2965.00,0.0190
2964.00,0.0192
2963.00,0.0195
2962.00,0.0198
2961.00,0.0202
2960.00,0.0206
2959.00,0.0210
2958.00,0.0214
2957.00,0.0218
2956.00,0.0223
2955.00,0.0227
2954.00,0.0231
2953.00,0.0236
2952.00,0.0242
2951.00,0.0247
2950.00,0.0252
2949.00,0.0255
2948.00,0.0256
2947.00,0.0256
2946.00,0.0254
2945.00,0.0252
2944.00,0.0249
2943.00,0.0246
2942.00,0.0242
2941.00,0.0239
2940.00,0.0235
2939.00,0.0232
2938.00,0.0228
2937.00,0.0225
2936.00,0.0222
2935.00,0.0219
2934.00,0.0215
2933.00,0.0211
2932.00,0.0206
2931.00,0.0202
2930.00,0.0198
2929.00,0.0194
2928.00,0.0191
2927.00,0.0188
2926.00,0.0185
2925.00,0.0182
2924.00,0.0179
2923.00,0.0177
2922.00,0.0175
2921.00,0.0172
2920.00,0.0170
2919.00,0.0168
2918.00,0.0166
2917.00,0.0165
2916.00,0.0164
2915.00,0.0163
2914.00,0.0163
2913.00,0.0162
2912.00,0.0163
2911.00,0.0163
2910.00,0.0164
2909.00,0.0164
2908.00,0.0165
2907.00,0.0165
2906.00,0.0166
2905.00,0.0166
2904.00,0.0167
2903.00,0.0167
2902.00,0.0167
2901.00,0.0167
2900.00,0.0166
2899.00,0.0166
2898.00,0.0165
2897.00,0.0164
2896.00,0.0163
2895.00,0.0162
2894.00,0.0161
2893.00,0.0160
2892.00,0.0159
2891.00,0.0158
2890.00,0.0157
2889.00,0.0157
2888.00,0.0156
2887.00,0.0156
2886.00,0.0155
2885.00,0.0154
2884.00,0.0153
2883.00,0.0153
2882.00,0.0152
2881.00,0.0151
2880.00,0.0150
2879.00,0.0150
2878.00,0.0149
2877.00,0.0148
2876.00,0.0147
2875.00,0.0146
2874.00,0.0145
2873.00,0.0145
2872.00,0.0144
2871.00,0.0143
2870.00,0.0142
2869.00,0.0140
2868.00,0.0139
2867.00,0.0138
2866.00,0.0137
2865.00,0.0137
2864.00,0.0136
2863.00,0.0135
2862.00,0.0135
2861.00,0.0134
2860.00,0.0134
2859.00,0.0134
2858.00,0.0134
2857.00,0.0135
2856.00,0.0135
2855.00,0.0136
2854.00,0.0136
2853.00,0.0136
2852.00,0.0136
2851.00,0.0136
2850.00,0.0136
2849.00,0.0136
2848.00,0.0135
2847.00,0.0135
2846.00,0.0136
2845.00,0.0136
2844.00,0.0137
2843.00,0.0137
2842.00,0.0138
2841.00,0.0138
2840.00,0.0138
2839.00,0.0138
2838.00,0.0139
2837.00,0.0139
2836.00,0.0138
2835.00,0.0138
2834.00,0.0137
2833.00,0.0136
2832.00,0.0135
2831.00,0.0135
2830.00,0.0134
2829.00,0.0133
2828.00,0.0132
2827.00,0.0131
2826.00,0.0130
2825.00,0.0129
2824.00,0.0128
2823.00,0.0127
2822.00,0.0127
2821.00,0.0126
2820.00,0.0126
2819.00,0.0127
2818.00,0.0127
2817.00,0.0127
2816.00,0.0127
2815.00,0.0127
2814.00,0.0127
2813.00,0.0128
2812.00,0.0128
2811.00,0.0128
2810.00,0.0129
2809.00,0.0129
2808.00,0.0129
2807.00,0.0129
2806.00,0.0129
2805.00,0.0129
2804.00,0.0129
2803.00,0.0129
2802.00,0.0129
2801.00,0.0129
2800.00,0.0128
2799.00,0.0128
2798.00,0.0127
2797.00,0.0127
2796.00,0.0126
2795.00,0.0125
2794.00,0.0124
2793.00,0.0123
2792.00,0.0122
2791.00,0.0122
2790.00,0.0121
2789.00,0.0120
2788.00,0.0119
2787.00,0.0119
2786.00,0.0118
2785.00,0.0117
2784.00,0.0117
2783.00,0.0116
2782.00,0.0116
2781.00,0.0115
2780.00,0.0115
2779.00,0.0114
2778.00,0.0114
2777.00,0.0113
2776.00,0.0113
2775.00,0.0113
2774.00,0.0112
2773.00,0.0112
2772.00,0.0112
2771.00,0.0112
2770.00,0.0112
2769.00,0.0113
2768.00,0.0113
2767.00,0.0113
2766.00,0.0113
2765.00,0.0113
2764.00,0.0113
2763.00,0.0113
2762.00,0.0113
2761.00,0.0113
2760.00,0.0112
2759.00,0.0112
2758.00,0.0112
2757.00,0.0112
