Created as New Dataset,Sample 1001 By YargerLab Date Wednesday, July 30 2025
cm-1,A
4000.00,0.0007
3999.00,0.0007
3998.00,0.0006
3997.00,0.0006
3996.00,0.0006
3995.00,0.0006
3994.00,0.0006
3993.00,0.0006
3992.00,0.0006
3991.00,0.0006
3990.00,0.0006
3989.00,0.0006
3988.00,0.0006
3987.00,0.0006
3986.00,0.0006
3985.00,0.0006
3984.00,0.0006
3983.00,0.0006
3982.00,0.0006
3981.00,0.0006
3980.00,0.0006
3979.00,0.0006
3978.00,0.0006
3977.00,0.0006
3976.00,0.0006
3975.00,0.0006
3974.00,0.0006
3973.00,0.0006
3972.00,0.0006
3971.00,0.0006
3970.00,0.0006
3969.00,0.0006
3968.00,0.0006
3967.00,0.0006
3966.00,0.0006
3965.00,0.0006
3964.00,0.0006
3963.00,0.0006
3962.00,0.0006
3961.00,0.0006
3960.00,0.0006
3959.00,0.0006
3958.00,0.0006
3957.00,0.0006
3956.00,0.0006
3955.00,0.0007
3954.00,0.0007
3953.00,0.0006
3952.00,0.0006
3951.00,0.0006
3950.00,0.0006
3949.00,0.0006
3948.00,0.0006
3947.00,0.0006
3946.00,0.0005
3945.00,0.0005
3944.00,0.0005
3943.00,0.0006
3942.00,0.0006
3941.00,0.0006
3940.00,0.0006
3939.00,0.0006
3938.00,0.0006
3937.00,0.0006
3936.00,0.0005
3935.00,0.0005
3934.00,0.0005
3933.00,0.0005
3932.00,0.0006
3931.00,0.0006
3930.00,0.0006
3929.00,0.0006
3928.00,0.0005
3927.00,0.0005
3926.00,0.0005
3925.00,0.0005
3924.00,0.0006
3923.00,0.0006
3922.00,0.0005
3921.00,0.0005
3920.00,0.0006
3919.00,0.0006
3918.00,0.0006
3917.00,0.0006
3916.00,0.0006
3915.00,0.0005
3914.00,0.0005
3913.00,0.0005
3912.00,0.0006
3911.00,0.0006
3910.00,0.0006
3909.00,0.0006
3908.00,0.0005
3907.00,0.0005
3906.00,0.0005
3905.00,0.0005
3904.00,0.0004
3903.00,0.0004
3902.00,0.0004
3901.00,0.0004
3900.00,0.0004
3899.00,0.0005
3898.00,0.0005
3897.00,0.0005
3896.00,0.0005
3895.00,0.0005
3894.00,0.0005
3893.00,0.0005
3892.00,0.0005
3891.00,0.0006
3890.00,0.0005
3889.00,0.0005
3888.00,0.0005
3887.00,0.0005
3886.00,0.0005
3885.00,0.0004
3884.00,0.0004
3883.00,0.0003
3882.00,0.0004
3881.00,0.0004
3880.00,0.0005
3879.00,0.0005
3878.00,0.0005
3877.00,0.0005
3876.00,0.0005
3875.00,0.0005
3874.00,0.0005
3873.00,0.0005
3872.00,0.0004
3871.00,0.0004
3870.00,0.0004
3869.00,0.0004
3868.00,0.0004
3867.00,0.0004
3866.00,0.0004
3865.00,0.0004
3864.00,0.0004
3863.00,0.0004
3862.00,0.0004
3861.00,0.0004
3860.00,0.0005
3859.00,0.0005
3858.00,0.0005
3857.00,0.0005
3856.00,0.0004
3855.00,0.0004
3854.00,0.0004
3853.00,0.0004
3852.00,0.0003
3851.00,0.0003
3850.00,0.0003
3849.00,0.0004
3848.00,0.0005
3847.00,0.0005
3846.00,0.0005
3845.00,0.0005
3844.00,0.0006
3843.00,0.0006
3842.00,0.0005
3841.00,0.0005
3840.00,0.0005
3839.00,0.0005
3838.00,0.0005
3837.00,0.0004
3836.00,0.0004
3835.00,0.0004
3834.00,0.0004
3833.00,0.0004
3832.00,0.0005
3831.00,0.0005
3830.00,0.0005
3829.00,0.0005
3828.00,0.0005
3827.00,0.0006
3826.00,0.0006
3825.00,0.0006
3824.00,0.0005
3823.00,0.0005
3822.00,0.0005
3821.00,0.0005
3820.00,0.0005
3819.00,0.0005
3818.00,0.0004
3817.00,0.0004
3816.00,0.0005
3815.00,0.0005
3814.00,0.0005
3813.00,0.0005
3812.00,0.0005
3811.00,0.0006
3810.00,0.0006
3809.00,0.0006
3808.00,0.0006
3807.00,0.0006
3806.00,0.0006
3805.00,0.0006
3804.00,0.0005
3803.00,0.0005
3802.00,0.0005
3801.00,0.0005
3800.00,0.0005
3799.00,0.0004
3798.00,0.0004
3797.00,0.0005
3796.00,0.0005
3795.00,0.0006
3794.00,0.0006
3793.00,0.0006
3792.00,0.0006
3791.00,0.0006
3790.00,0.0006
3789.00,0.0006
3788.00,0.0006
3787.00,0.0006
3786.00,0.0007
3785.00,0.0007
3784.00,0.0007
3783.00,0.0007
3782.00,0.0006
3781.00,0.0006
3780.00,0.0006
3779.00,0.0006
3778.00,0.0006
3777.00,0.0006
3776.00,0.0006
3775.00,0.0006
3774.00,0.0007
3773.00,0.0007
3772.00,0.0007
3771.00,0.0007
3770.00,0.0007
3769.00,0.0007
3768.00,0.0006
3767.00,0.0006
3766.00,0.0006
3765.00,0.0006
3764.00,0.0006
3763.00,0.0006
3762.00,0.0006
3761.00,0.0006
3760.00,0.0006
3759.00,0.0006
3758.00,0.0006
3757.00,0.0005
3756.00,0.0005
3755.00,0.0005
3754.00,0.0005
3753.00,0.0005
3752.00,0.0004
3751.00,0.0004
3750.00,0.0004
3749.00,0.0004
3748.00,0.0003
3747.00,0.0003
3746.00,0.0002
3745.00,0.0003
3744.00,0.0003
3743.00,0.0004
3742.00,0.0004
3741.00,0.0005
3740.00,0.0005
3739.00,0.0005
3738.00,0.0005
3737.00,0.0005
3736.00,0.0005
3735.00,0.0004
3734.00,0.0004
3733.00,0.0004
3732.00,0.0004
3731.00,0.0004
3730.00,0.0004
3729.00,0.0004
3728.00,0.0004
3727.00,0.0004
3726.00,0.0004
3725.00,0.0004
3724.00,0.0004
3723.00,0.0004
3722.00,0.0004
3721.00,0.0005
3720.00,0.0005
3719.00,0.0005
3718.00,0.0006
3717.00,0.0006
3716.00,0.0006
3715.00,0.0006
3714.00,0.0006
3713.00,0.0005
3712.00,0.0005
3711.00,0.0005
3710.00,0.0004
3709.00,0.0004
3708.00,0.0004
3707.00,0.0005
3706.00,0.0005
3705.00,0.0005
3704.00,0.0005
3703.00,0.0005
3702.00,0.0005
3701.00,0.0005
3700.00,0.0005
3699.00,0.0005
3698.00,0.0005
3697.00,0.0005
3696.00,0.0006
3695.00,0.0006
3694.00,0.0006
3693.00,0.0006
3692.00,0.0005
3691.00,0.0005
3690.00,0.0005
3689.00,0.0005
3688.00,0.0005
3687.00,0.0004
3686.00,0.0004
3685.00,0.0004
3684.00,0.0005
3683.00,0.0005
3682.00,0.0006
3681.00,0.0006
3680.00,0.0006
3679.00,0.0006
3678.00,0.0005
3677.00,0.0005
3676.00,0.0005
3675.00,0.0005
3674.00,0.0004
3673.00,0.0003
3672.00,0.0003
3671.00,0.0003
3670.00,0.0004
3669.00,0.0004
3668.00,0.0004
3667.00,0.0005
3666.00,0.0005
3665.00,0.0005
3664.00,0.0005
3663.00,0.0006
3662.00,0.0006
3661.00,0.0006
3660.00,0.0006
3659.00,0.0006
3658.00,0.0006
3657.00,0.0006
3656.00,0.0006
3655.00,0.0006
3654.00,0.0006
3653.00,0.0005
3652.00,0.0005
3651.00,0.0005
3650.00,0.0005
3649.00,0.0004
3648.00,0.0004
3647.00,0.0004
3646.00,0.0004
3645.00,0.0005
3644.00,0.0006
3643.00,0.0007
3642.00,0.0008
3641.00,0.0008
3640.00,0.0008
3639.00,0.0008
3638.00,0.0008
3637.00,0.0008
3636.00,0.0009
3635.00,0.0009
3634.00,0.0009
3633.00,0.0009
3632.00,0.0009
3631.00,0.0009
3630.00,0.0009
3629.00,0.0009
3628.00,0.0008
3627.00,0.0008
3626.00,0.0008
3625.00,0.0009
3624.00,0.0009
3623.00,0.0009
3622.00,0.0009
3621.00,0.0009
3620.00,0.0009
3619.00,0.0009
3618.00,0.0009
3617.00,0.0009
3616.00,0.0009
3615.00,0.0009
3614.00,0.0010
3613.00,0.0010
3612.00,0.0010
3611.00,0.0010
3610.00,0.0010
3609.00,0.0011
3608.00,0.0011
3607.00,0.0011
3606.00,0.0012
3605.00,0.0012
3604.00,0.0013
3603.00,0.0014
3602.00,0.0014
3601.00,0.0014
3600.00,0.0014
3599.00,0.0014
3598.00,0.0014
3597.00,0.0014
3596.00,0.0014
3595.00,0.0014
3594.00,0.0014
3593.00,0.0014
3592.00,0.0014
3591.00,0.0014
3590.00,0.0015
3589.00,0.0015
3588.00,0.0015
3587.00,0.0015
3586.00,0.0015
3585.00,0.0015
3584.00,0.0015
3583.00,0.0015
3582.00,0.0015
3581.00,0.0016
3580.00,0.0016
3579.00,0.0016
3578.00,0.0017
3577.00,0.0017
3576.00,0.0017
3575.00,0.0018
3574.00,0.0018
3573.00,0.0018
3572.00,0.0018
3571.00,0.0018
3570.00,0.0018
3569.00,0.0018
3568.00,0.0018
3567.00,0.0018
3566.00,0.0018
3565.00,0.0018
3564.00,0.0018
3563.00,0.0019
3562.00,0.0019
3561.00,0.0020
3560.00,0.0020
3559.00,0.0020
3558.00,0.0020
3557.00,0.0020
3556.00,0.0020
3555.00,0.0020
3554.00,0.0021
3553.00,0.0021
3552.00,0.0021
3551.00,0.0022
3550.00,0.0022
3549.00,0.0022
3548.00,0.0023
3547.00,0.0023
3546.00,0.0024
3545.00,0.0024
3544.00,0.0023
3543.00,0.0023
3542.00,0.0023
3541.00,0.0024
3540.00,0.0024
3539.00,0.0024
3538.00,0.0025
3537.00,0.0025
3536.00,0.0025
3535.00,0.0025
3534.00,0.0025
3533.00,0.0025
3532.00,0.0025
3531.00,0.0026
3530.00,0.0026
3529.00,0.0025
3528.00,0.0025
3527.00,0.0025
3526.00,0.0026
3525.00,0.0026
3524.00,0.0027
3523.00,0.0027
3522.00,0.0028
3521.00,0.0028
3520.00,0.0028
3519.00,0.0029
3518.00,0.0029
3517.00,0.0029
3516.00,0.0029
3515.00,0.0029
3514.00,0.0029
3513.00,0.0029
3512.00,0.0029
3511.00,0.0029
3510.00,0.0030
3509.00,0.0030
3508.00,0.0030
3507.00,0.0030
3506.00,0.0030
3505.00,0.0031
3504.00,0.0031
3503.00,0.0031
3502.00,0.0031
3501.00,0.0031
3500.00,0.0031
3499.00,0.0031
3498.00,0.0032
3497.00,0.0032
3496.00,0.0032
3495.00,0.0032
3494.00,0.0032
3493.00,0.0033
3492.00,0.0033
3491.00,0.0033
3490.00,0.0033
3489.00,0.0033
3488.00,0.0033
3487.00,0.0033
3486.00,0.0034
3485.00,0.0034
3484.00,0.0034
3483.00,0.0034
3482.00,0.0034
3481.00,0.0035
3480.00,0.0035
3479.00,0.0035
3478.00,0.0036
3477.00,0.0036
3476.00,0.0036
3475.00,0.0036
3474.00,0.0036
3473.00,0.0037
3472.00,0.0037
3471.00,0.0037
3470.00,0.0037
3469.00,0.0038
3468.00,0.0038
3467.00,0.0038
3466.00,0.0038
3465.00,0.0038
3464.00,0.0038
3463.00,0.0038
3462.00,0.0039
3461.00,0.0039
3460.00,0.0039
3459.00,0.0040
3458.00,0.0040
3457.00,0.0040
3456.00,0.0040
3455.00,0.0040
3454.00,0.0040
3453.00,0.0040
3452.00,0.0041
3451.00,0.0041
3450.00,0.0041
3449.00,0.0041
3448.00,0.0041
3447.00,0.0042
3446.00,0.0042
3445.00,0.0042
3444.00,0.0042
3443.00,0.0042
3442.00,0.0043
3441.00,0.0043
3440.00,0.0043
3439.00,0.0043
3438.00,0.0043
3437.00,0.0043
3436.00,0.0043
3435.00,0.0044
3434.00,0.0044
3433.00,0.0044
3432.00,0.0044
3431.00,0.0045
3430.00,0.0045
3429.00,0.0045
3428.00,0.0046
3427.00,0.0046
3426.00,0.0046
3425.00,0.0047
3424.00,0.0047
3423.00,0.0047
3422.00,0.0047
3421.00,0.0047
3420.00,0.0047
3419.00,0.0047
3418.00,0.0047
3417.00,0.0048
3416.00,0.0048
3415.00,0.0048
3414.00,0.0048
3413.00,0.0049
3412.00,0.0049
3411.00,0.0049
3410.00,0.0050
3409.00,0.0050
3408.00,0.0050
3407.00,0.0050
3406.00,0.0050
3405.00,0.0050
3404.00,0.0050
3403.00,0.0050
3402.00,0.0050
3401.00,0.0050
3400.00,0.0051
3399.00,0.0051
3398.00,0.0051
3397.00,0.0052
3396.00,0.0052
3395.00,0.0052
3394.00,0.0053
3393.00,0.0053
3392.00,0.0053
3391.00,0.0054
3390.00,0.0054
3389.00,0.0054
3388.00,0.0054
3387.00,0.0054
3386.00,0.0055
3385.00,0.0055
3384.00,0.0055
3383.00,0.0056
3382.00,0.0056
3381.00,0.0056
3380.00,0.0056
3379.00,0.0056
3378.00,0.0057
3377.00,0.0057
3376.00,0.0057
3375.00,0.0058
3374.00,0.0058
3373.00,0.0058
3372.00,0.0058
3371.00,0.0058
3370.00,0.0058
3369.00,0.0058
3368.00,0.0058
3367.00,0.0059
3366.00,0.0059
3365.00,0.0059
3364.00,0.0060
3363.00,0.0060
3362.00,0.0060
3361.00,0.0061
3360.00,0.0061
3359.00,0.0061
3358.00,0.0062
3357.00,0.0062
3356.00,0.0063
3355.00,0.0063
3354.00,0.0063
3353.00,0.0063
3352.00,0.0064
3351.00,0.0064
3350.00,0.0065
3349.00,0.0065
3348.00,0.0065
3347.00,0.0066
3346.00,0.0066
3345.00,0.0066
3344.00,0.0067
3343.00,0.0067
3342.00,0.0068
3341.00,0.0068
3340.00,0.0068
3339.00,0.0068
3338.00,0.0069
3337.00,0.0069
3336.00,0.0070
3335.00,0.0070
3334.00,0.0071
3333.00,0.0071
3332.00,0.0072
3331.00,0.0072
3330.00,0.0072
3329.00,0.0073
3328.00,0.0073
3327.00,0.0073
3326.00,0.0073
3325.00,0.0074
3324.00,0.0074
3323.00,0.0075
3322.00,0.0075
3321.00,0.0076
3320.00,0.0077
3319.00,0.0077
3318.00,0.0078
3317.00,0.0078
3316.00,0.0079
3315.00,0.0079
3314.00,0.0080
3313.00,0.0080
3312.00,0.0080
3311.00,0.0080
3310.00,0.0080
3309.00,0.0080
3308.00,0.0081
3307.00,0.0081
3306.00,0.0082
3305.00,0.0082
3304.00,0.0083
3303.00,0.0084
3302.00,0.0084
3301.00,0.0085
3300.00,0.0085
3299.00,0.0086
3298.00,0.0086
3297.00,0.0086
3296.00,0.0087
3295.00,0.0087
3294.00,0.0087
3293.00,0.0087
3292.00,0.0088
3291.00,0.0088
3290.00,0.0089
3289.00,0.0089
3288.00,0.0090
3287.00,0.0090
3286.00,0.0090
3285.00,0.0090
3284.00,0.0090
3283.00,0.0090
3282.00,0.0090
3281.00,0.0091
3280.00,0.0091
3279.00,0.0091
3278.00,0.0091
3277.00,0.0091
3276.00,0.0090
3275.00,0.0090
3274.00,0.0090
3273.00,0.0090
3272.00,0.0090
3271.00,0.0090
3270.00,0.0090
3269.00,0.0090
3268.00,0.0090
3267.00,0.0090
3266.00,0.0089
3265.00,0.0089
3264.00,0.0088
3263.00,0.0088
3262.00,0.0088
3261.00,0.0088
3260.00,0.0087
3259.00,0.0087
3258.00,0.0086
3257.00,0.0086
3256.00,0.0085
3255.00,0.0085
3254.00,0.0084
3253.00,0.0084
3252.00,0.0083
3251.00,0.0083
3250.00,0.0082
3249.00,0.0082
3248.00,0.0081
3247.00,0.0081
3246.00,0.0081
3245.00,0.0080
3244.00,0.0080
3243.00,0.0079
3242.00,0.0079
3241.00,0.0078
3240.00,0.0078
3239.00,0.0078
3238.00,0.0078
3237.00,0.0077
3236.00,0.0077
3235.00,0.0076
3234.00,0.0076
3233.00,0.0075
3232.00,0.0075
3231.00,0.0075
3230.00,0.0075
3229.00,0.0075
3228.00,0.0075
3227.00,0.0075
3226.00,0.0074
3225.00,0.0074
3224.00,0.0073
3223.00,0.0073
3222.00,0.0072
3221.00,0.0072
3220.00,0.0072
3219.00,0.0072
3218.00,0.0071
3217.00,0.0071
3216.00,0.0071
3215.00,0.0071
3214.00,0.0071
3213.00,0.0071
3212.00,0.0071
3211.00,0.0071
3210.00,0.0070
3209.00,0.0070
3208.00,0.0070
3207.00,0.0069
3206.00,0.0069
3205.00,0.0069
3204.00,0.0069
3203.00,0.0069
3202.00,0.0068
3201.00,0.0068
3200.00,0.0068
3199.00,0.0068
3198.00,0.0068
3197.00,0.0067
3196.00,0.0067
3195.00,0.0067
3194.00,0.0066
3193.00,0.0066
3192.00,0.0066
3191.00,0.0066
3190.00,0.0065
3189.00,0.0065
3188.00,0.0065
3187.00,0.0065
3186.00,0.0065
3185.00,0.0064
3184.00,0.0064
3183.00,0.0063
3182.00,0.0063
3181.00,0.0063
3180.00,0.0063
3179.00,0.0063
3178.00,0.0062
3177.00,0.0062
3176.00,0.0062
3175.00,0.0061
3174.00,0.0061
3173.00,0.0061
3172.00,0.0061
3171.00,0.0060
3170.00,0.0060
3169.00,0.0060
3168.00,0.0060
3167.00,0.0059
3166.00,0.0059
3165.00,0.0059
3164.00,0.0058
3163.00,0.0058
3162.00,0.0058
3161.00,0.0058
3160.00,0.0058
3159.00,0.0057
3158.00,0.0057
3157.00,0.0057
3156.00,0.0057
3155.00,0.0056
3154.00,0.0056
3153.00,0.0055
3152.00,0.0055
3151.00,0.0055
3150.00,0.0055
3149.00,0.0055
3148.00,0.0054
3147.00,0.0054
3146.00,0.0054
3145.00,0.0054
3144.00,0.0053
3143.00,0.0053
3142.00,0.0052
3141.00,0.0052
3140.00,0.0052
3139.00,0.0052
3138.00,0.0052
3137.00,0.0051
3136.00,0.0051
3135.00,0.0051
3134.00,0.0051
3133.00,0.0050
3132.00,0.0050
3131.00,0.0050
3130.00,0.0050
3129.00,0.0050
3128.00,0.0050
3127.00,0.0050
3126.00,0.0050
3125.00,0.0050
3124.00,0.0049
3123.00,0.0049
3122.00,0.0049
3121.00,0.0048
3120.00,0.0048
3119.00,0.0048
3118.00,0.0048
3117.00,0.0048
3116.00,0.0048
3115.00,0.0048
3114.00,0.0048
3113.00,0.0048
3112.00,0.0048
3111.00,0.0048
3110.00,0.0048
3109.00,0.0048
3108.00,0.0048
3107.00,0.0048
3106.00,0.0048
3105.00,0.0049
3104.00,0.0049
3103.00,0.0049
3102.00,0.0049
3101.00,0.0049
3100.00,0.0049
3099.00,0.0049
3098.00,0.0049
3097.00,0.0049
3096.00,0.0049
3095.00,0.0049
3094.00,0.0049
3093.00,0.0049
3092.00,0.0049
3091.00,0.0049
3090.00,0.0049
3089.00,0.0049
3088.00,0.0049
3087.00,0.0049
3086.00,0.0049
3085.00,0.0049
3084.00,0.0049
3083.00,0.0049
3082.00,0.0049
3081.00,0.0049
3080.00,0.0049
3079.00,0.0049
3078.00,0.0049
3077.00,0.0049
3076.00,0.0049
3075.00,0.0050
3074.00,0.0050
3073.00,0.0050
3072.00,0.0050
3071.00,0.0050
3070.00,0.0050
3069.00,0.0050
3068.00,0.0050
3067.00,0.0050
3066.00,0.0050
3065.00,0.0050
3064.00,0.0050
3063.00,0.0050
3062.00,0.0050
3061.00,0.0050
3060.00,0.0050
3059.00,0.0050
3058.00,0.0050
3057.00,0.0050
3056.00,0.0049
3055.00,0.0049
3054.00,0.0049
3053.00,0.0049
3052.00,0.0049
3051.00,0.0048
3050.00,0.0048
3049.00,0.0048
3048.00,0.0048
3047.00,0.0047
3046.00,0.0047
3045.00,0.0047
3044.00,0.0047
3043.00,0.0047
3042.00,0.0046
3041.00,0.0046
3040.00,0.0046
3039.00,0.0047
3038.00,0.0047
3037.00,0.0046
3036.00,0.0046
3035.00,0.0046
3034.00,0.0046
3033.00,0.0045
3032.00,0.0045
3031.00,0.0045
3030.00,0.0045
3029.00,0.0045
3028.00,0.0045
3027.00,0.0045
3026.00,0.0044
3025.00,0.0044
3024.00,0.0044
3023.00,0.0044
3022.00,0.0043
3021.00,0.0043
3020.00,0.0042
3019.00,0.0042
3018.00,0.0041
3017.00,0.0041
3016.00,0.0041
3015.00,0.0041
3014.00,0.0040
3013.00,0.0040
3012.00,0.0040
3011.00,0.0040
3010.00,0.0039
3009.00,0.0039
3008.00,0.0039
3007.00,0.0039
3006.00,0.0038
3005.00,0.0038
3004.00,0.0038
3003.00,0.0037
3002.00,0.0037
3001.00,0.0037
3000.00,0.0037
2999.00,0.0036
2998.00,0.0036
2997.00,0.0036
2996.00,0.0036
2995.00,0.0036
2994.00,0.0036
2993.00,0.0036
2992.00,0.0036
2991.00,0.0036
2990.00,0.0036
2989.00,0.0036
2988.00,0.0037
2987.00,0.0037
2986.00,0.0036
2985.00,0.0036
2984.00,0.0036
2983.00,0.0035
2982.00,0.0035
2981.00,0.0035
2980.00,0.0036
2979.00,0.0036
2978.00,0.0037
2977.00,0.0038
2976.00,0.0038
2975.00,0.0039
2974.00,0.0039
2973.00,0.0040
2972.00,0.0041
2971.00,0.0041
2970.00,0.0042
2969.00,0.0043
2968.00,0.0044
2967.00,0.0044
2966.00,0.0044
2965.00,0.0045
2964.00,0.0045
2963.00,0.0046
2962.00,0.0046
2961.00,0.0046
2960.00,0.0046
2959.00,0.0046
2958.00,0.0046
2957.00,0.0046
2956.00,0.0046
2955.00,0.0046
2954.00,0.0046
2953.00,0.0046
2952.00,0.0046
2951.00,0.0046
2950.00,0.0046
2949.00,0.0046
2948.00,0.0045
2947.00,0.0045
2946.00,0.0045
2945.00,0.0045
2944.00,0.0045
2943.00,0.0046
2942.00,0.0046
2941.00,0.0047
2940.00,0.0047
2939.00,0.0047
2938.00,0.0048
2937.00,0.0048
2936.00,0.0048
2935.00,0.0048
2934.00,0.0048
2933.00,0.0048
2932.00,0.0048
2931.00,0.0047
2930.00,0.0047
2929.00,0.0047
2928.00,0.0047
2927.00,0.0046
2926.00,0.0046
2925.00,0.0045
2924.00,0.0044
2923.00,0.0043
2922.00,0.0041
2921.00,0.0040
2920.00,0.0039
2919.00,0.0037
2918.00,0.0036
2917.00,0.0035
2916.00,0.0035
2915.00,0.0035
2914.00,0.0036
2913.00,0.0037
2912.00,0.0038
2911.00,0.0039
2910.00,0.0040
2909.00,0.0040
2908.00,0.0040
2907.00,0.0040
2906.00,0.0039
2905.00,0.0039
2904.00,0.0039
2903.00,0.0039
2902.00,0.0039
2901.00,0.0039
2900.00,0.0039
2899.00,0.0039
2898.00,0.0038
2897.00,0.0038
2896.00,0.0037
2895.00,0.0037
2894.00,0.0037
2893.00,0.0037
2892.00,0.0037
2891.00,0.0037
2890.00,0.0037
2889.00,0.0036
2888.00,0.0036
2887.00,0.0036
2886.00,0.0036
2885.00,0.0036
2884.00,0.0036
2883.00,0.0037
2882.00,0.0037
2881.00,0.0038
2880.00,0.0038
2879.00,0.0038
2878.00,0.0039
2877.00,0.0039
2876.00,0.0039
2875.00,0.0039
2874.00,0.0039
2873.00,0.0039
2872.00,0.0038
2871.00,0.0038
2870.00,0.0038
2869.00,0.0038
2868.00,0.0038
2867.00,0.0037
2866.00,0.0037
2865.00,0.0037
2864.00,0.0037
2863.00,0.0036
2862.00,0.0036
2861.00,0.0036
2860.00,0.0035
2859.00,0.0035
2858.00,0.0035
2857.00,0.0035
2856.00,0.0034
2855.00,0.0034
2854.00,0.0033
2853.00,0.0032
2852.00,0.0030
2851.00,0.0029
2850.00,0.0028
2849.00,0.0028
2848.00,0.0028
2847.00,0.0028
2846.00,0.0029
2845.00,0.0030
2844.00,0.0031
2843.00,0.0031
2842.00,0.0032
2841.00,0.0032
2840.00,0.0032
2839.00,0.0032
2838.00,0.0032
2837.00,0.0031
2836.00,0.0031
2835.00,0.0031
2834.00,0.0031
2833.00,0.0031
2832.00,0.0031
2831.00,0.0031
2830.00,0.0031
2829.00,0.0031
2828.00,0.0031
2827.00,0.0031
2826.00,0.0031
2825.00,0.0030
2824.00,0.0030
2823.00,0.0030
2822.00,0.0030
2821.00,0.0030
2820.00,0.0030
2819.00,0.0030
2818.00,0.0030
2817.00,0.0030
2816.00,0.0030
2815.00,0.0030
2814.00,0.0029
2813.00,0.0029
2812.00,0.0029
2811.00,0.0029
2810.00,0.0029
2809.00,0.0029
2808.00,0.0029
2807.00,0.0029
2806.00,0.0029
2805.00,0.0029
2804.00,0.0029
2803.00,0.0029
2802.00,0.0029
2801.00,0.0029
2800.00,0.0029
2799.00,0.0028
2798.00,0.0028
2797.00,0.0028
2796.00,0.0028
2795.00,0.0028
2794.00,0.0028
2793.00,0.0028
2792.00,0.0028
2791.00,0.0028
2790.00,0.0028
2789.00,0.0028
2788.00,0.0028
2787.00,0.0027
2786.00,0.0027
2785.00,0.0027
2784.00,0.0027
2783.00,0.0027
2782.00,0.0027
2781.00,0.0027
2780.00,0.0027
2779.00,0.0026
2778.00,0.0026
2777.00,0.0026
2776.00,0.0026
2775.00,0.0026
2774.00,0.0026
2773.00,0.0026
2772.00,0.0026
2771.00,0.0026
2770.00,0.0026
2769.00,0.0026
2768.00,0.0026
2767.00,0.0026
2766.00,0.0026
2765.00,0.0026
2764.00,0.0026
2763.00,0.0025
2762.00,0.0025
2761.00,0.0025
2760.00,0.0025
2759.00,0.0025
2758.00,0.0025
2757.00,0.0025
