Created as New Dataset,Sample 066 By YargerLab Date Wednesday, August 13 2025
cm-1,A
4000.00,0.0041
3999.00,0.0041
3998.00,0.0041
3997.00,0.0041
3996.00,0.0041
3995.00,0.0042
3994.00,0.0042
3993.00,0.0042
3992.00,0.0042
3991.00,0.0042
3990.00,0.0042
3989.00,0.0042
3988.00,0.0042
3987.00,0.0042
3986.00,0.0042
3985.00,0.0042
3984.00,0.0042
3983.00,0.0042
3982.00,0.0042
3981.00,0.0042
3980.00,0.0042
3979.00,0.0042
3978.00,0.0042
3977.00,0.0042
3976.00,0.0042
3975.00,0.0042
3974.00,0.0042
3973.00,0.0042
3972.00,0.0042
3971.00,0.0042
3970.00,0.0042
3969.00,0.0042
3968.00,0.0042
3967.00,0.0042
3966.00,0.0042
3965.00,0.0042
3964.00,0.0042
3963.00,0.0042
3962.00,0.0042
3961.00,0.0042
3960.00,0.0041
3959.00,0.0041
3958.00,0.0041
3957.00,0.0041
3956.00,0.0041
3955.00,0.0042
3954.00,0.0041
3953.00,0.0041
3952.00,0.0041
3951.00,0.0041
3950.00,0.0041
3949.00,0.0041
3948.00,0.0041
3947.00,0.0041
3946.00,0.0041
3945.00,0.0041
3944.00,0.0041
3943.00,0.0041
3942.00,0.0041
3941.00,0.0040
3940.00,0.0041
3939.00,0.0041
3938.00,0.0041
3937.00,0.0041
3936.00,0.0041
3935.00,0.0041
3934.00,0.0041
3933.00,0.0041
3932.00,0.0041
3931.00,0.0041
3930.00,0.0041
3929.00,0.0041
3928.00,0.0041
3927.00,0.0041
3926.00,0.0041
3925.00,0.0041
3924.00,0.0041
3923.00,0.0041
3922.00,0.0041
3921.00,0.0041
3920.00,0.0041
3919.00,0.0041
3918.00,0.0041
3917.00,0.0041
3916.00,0.0041
3915.00,0.0041
3914.00,0.0041
3913.00,0.0041
3912.00,0.0041
3911.00,0.0041
3910.00,0.0041
3909.00,0.0041
3908.00,0.0041
3907.00,0.0040
3906.00,0.0040
3905.00,0.0040
3904.00,0.0040
3903.00,0.0040
3902.00,0.0040
3901.00,0.0040
3900.00,0.0040
3899.00,0.0040
3898.00,0.0040
3897.00,0.0040
3896.00,0.0040
3895.00,0.0040
3894.00,0.0040
3893.00,0.0040
3892.00,0.0039
3891.00,0.0039
3890.00,0.0039
3889.00,0.0039
3888.00,0.0040
3887.00,0.0040
3886.00,0.0040
3885.00,0.0040
3884.00,0.0040
3883.00,0.0040
3882.00,0.0040
3881.00,0.0040
3880.00,0.0040
3879.00,0.0040
3878.00,0.0040
3877.00,0.0040
3876.00,0.0040
3875.00,0.0040
3874.00,0.0040
3873.00,0.0040
3872.00,0.0040
3871.00,0.0040
3870.00,0.0040
3869.00,0.0040
3868.00,0.0040
3867.00,0.0040
3866.00,0.0040
3865.00,0.0040
3864.00,0.0040
3863.00,0.0040
3862.00,0.0040
3861.00,0.0040
3860.00,0.0040
3859.00,0.0040
3858.00,0.0040
3857.00,0.0040
3856.00,0.0040
3855.00,0.0040
3854.00,0.0040
3853.00,0.0040
3852.00,0.0040
3851.00,0.0040
3850.00,0.0040
3849.00,0.0040
3848.00,0.0040
3847.00,0.0040
3846.00,0.0040
3845.00,0.0040
3844.00,0.0040
3843.00,0.0040
3842.00,0.0040
3841.00,0.0040
3840.00,0.0040
3839.00,0.0040
3838.00,0.0040
3837.00,0.0039
3836.00,0.0039
3835.00,0.0039
3834.00,0.0039
3833.00,0.0039
3832.00,0.0039
3831.00,0.0040
3830.00,0.0040
3829.00,0.0040
3828.00,0.0040
3827.00,0.0039
3826.00,0.0039
3825.00,0.0039
3824.00,0.0039
3823.00,0.0039
3822.00,0.0039
3821.00,0.0039
3820.00,0.0039
3819.00,0.0039
3818.00,0.0039
3817.00,0.0039
3816.00,0.0039
3815.00,0.0039
3814.00,0.0039
3813.00,0.0039
3812.00,0.0039
3811.00,0.0039
3810.00,0.0039
3809.00,0.0039
3808.00,0.0039
3807.00,0.0039
3806.00,0.0039
3805.00,0.0039
3804.00,0.0039
3803.00,0.0039
3802.00,0.0039
3801.00,0.0039
3800.00,0.0039
3799.00,0.0039
3798.00,0.0039
3797.00,0.0039
3796.00,0.0039
3795.00,0.0039
3794.00,0.0039
3793.00,0.0039
3792.00,0.0040
3791.00,0.0040
3790.00,0.0040
3789.00,0.0040
3788.00,0.0040
3787.00,0.0040
3786.00,0.0040
3785.00,0.0040
3784.00,0.0040
3783.00,0.0040
3782.00,0.0040
3781.00,0.0039
3780.00,0.0039
3779.00,0.0039
3778.00,0.0039
3777.00,0.0039
3776.00,0.0039
3775.00,0.0039
3774.00,0.0039
3773.00,0.0039
3772.00,0.0039
3771.00,0.0039
3770.00,0.0039
3769.00,0.0039
3768.00,0.0039
3767.00,0.0039
3766.00,0.0039
3765.00,0.0039
3764.00,0.0040
3763.00,0.0040
3762.00,0.0040
3761.00,0.0039
3760.00,0.0039
3759.00,0.0039
3758.00,0.0040
3757.00,0.0040
3756.00,0.0040
3755.00,0.0040
3754.00,0.0040
3753.00,0.0040
3752.00,0.0040
3751.00,0.0040
3750.00,0.0040
3749.00,0.0040
3748.00,0.0040
3747.00,0.0040
3746.00,0.0040
3745.00,0.0039
3744.00,0.0039
3743.00,0.0039
3742.00,0.0039
3741.00,0.0039
3740.00,0.0039
3739.00,0.0040
3738.00,0.0040
3737.00,0.0040
3736.00,0.0040
3735.00,0.0039
3734.00,0.0038
3733.00,0.0038
3732.00,0.0039
3731.00,0.0039
3730.00,0.0039
3729.00,0.0040
3728.00,0.0040
3727.00,0.0039
3726.00,0.0039
3725.00,0.0039
3724.00,0.0039
3723.00,0.0039
3722.00,0.0039
3721.00,0.0039
3720.00,0.0039
3719.00,0.0039
3718.00,0.0039
3717.00,0.0039
3716.00,0.0039
3715.00,0.0039
3714.00,0.0039
3713.00,0.0039
3712.00,0.0039
3711.00,0.0039
3710.00,0.0039
3709.00,0.0039
3708.00,0.0039
3707.00,0.0039
3706.00,0.0039
3705.00,0.0039
3704.00,0.0039
3703.00,0.0039
3702.00,0.0039
3701.00,0.0039
3700.00,0.0039
3699.00,0.0039
3698.00,0.0039
3697.00,0.0040
3696.00,0.0040
3695.00,0.0040
3694.00,0.0040
3693.00,0.0040
3692.00,0.0040
3691.00,0.0041
3690.00,0.0041
3689.00,0.0042
3688.00,0.0043
3687.00,0.0044
3686.00,0.0045
3685.00,0.0046
3684.00,0.0046
3683.00,0.0047
3682.00,0.0047
3681.00,0.0047
3680.00,0.0047
3679.00,0.0047
3678.00,0.0047
3677.00,0.0048
3676.00,0.0048
3675.00,0.0048
3674.00,0.0048
3673.00,0.0048
3672.00,0.0049
3671.00,0.0049
3670.00,0.0049
3669.00,0.0049
3668.00,0.0050
3667.00,0.0050
3666.00,0.0051
3665.00,0.0051
3664.00,0.0052
3663.00,0.0052
3662.00,0.0052
3661.00,0.0053
3660.00,0.0053
3659.00,0.0053
3658.00,0.0053
3657.00,0.0053
3656.00,0.0054
3655.00,0.0054
3654.00,0.0054
3653.00,0.0055
3652.00,0.0055
3651.00,0.0056
3650.00,0.0057
3649.00,0.0058
3648.00,0.0059
3647.00,0.0060
3646.00,0.0061
3645.00,0.0061
3644.00,0.0062
3643.00,0.0063
3642.00,0.0063
3641.00,0.0064
3640.00,0.0065
3639.00,0.0065
3638.00,0.0066
3637.00,0.0066
3636.00,0.0066
3635.00,0.0067
3634.00,0.0067
3633.00,0.0068
3632.00,0.0069
3631.00,0.0069
3630.00,0.0070
3629.00,0.0071
3628.00,0.0072
3627.00,0.0072
3626.00,0.0073
3625.00,0.0073
3624.00,0.0073
3623.00,0.0074
3622.00,0.0075
3621.00,0.0075
3620.00,0.0076
3619.00,0.0077
3618.00,0.0078
3617.00,0.0079
3616.00,0.0079
3615.00,0.0080
3614.00,0.0081
3613.00,0.0081
3612.00,0.0082
3611.00,0.0083
3610.00,0.0083
3609.00,0.0084
3608.00,0.0085
3607.00,0.0085
3606.00,0.0086
3605.00,0.0087
3604.00,0.0088
3603.00,0.0089
3602.00,0.0090
3601.00,0.0091
3600.00,0.0091
3599.00,0.0092
3598.00,0.0093
3597.00,0.0094
3596.00,0.0095
3595.00,0.0096
3594.00,0.0097
3593.00,0.0097
3592.00,0.0098
3591.00,0.0099
3590.00,0.0100
3589.00,0.0101
3588.00,0.0102
3587.00,0.0103
3586.00,0.0104
3585.00,0.0105
3584.00,0.0106
3583.00,0.0107
3582.00,0.0107
3581.00,0.0108
3580.00,0.0109
3579.00,0.0110
3578.00,0.0111
3577.00,0.0112
3576.00,0.0113
3575.00,0.0114
3574.00,0.0115
3573.00,0.0116
3572.00,0.0117
3571.00,0.0118
3570.00,0.0119
3569.00,0.0120
3568.00,0.0122
3567.00,0.0123
3566.00,0.0124
3565.00,0.0125
3564.00,0.0126
3563.00,0.0126
3562.00,0.0127
3561.00,0.0128
3560.00,0.0128
3559.00,0.0129
3558.00,0.0130
3557.00,0.0131
3556.00,0.0132
3555.00,0.0133
3554.00,0.0134
3553.00,0.0135
3552.00,0.0137
3551.00,0.0138
3550.00,0.0139
3549.00,0.0140
3548.00,0.0140
3547.00,0.0141
3546.00,0.0142
3545.00,0.0143
3544.00,0.0144
3543.00,0.0145
3542.00,0.0145
3541.00,0.0146
3540.00,0.0147
3539.00,0.0148
3538.00,0.0149
3537.00,0.0149
3536.00,0.0150
3535.00,0.0151
3534.00,0.0152
3533.00,0.0153
3532.00,0.0154
3531.00,0.0155
3530.00,0.0155
3529.00,0.0156
3528.00,0.0157
3527.00,0.0158
3526.00,0.0159
3525.00,0.0160
3524.00,0.0161
3523.00,0.0161
3522.00,0.0161
3521.00,0.0162
3520.00,0.0163
3519.00,0.0164
3518.00,0.0165
3517.00,0.0166
3516.00,0.0167
3515.00,0.0167
3514.00,0.0168
3513.00,0.0169
3512.00,0.0169
3511.00,0.0170
3510.00,0.0171
3509.00,0.0172
3508.00,0.0172
3507.00,0.0173
3506.00,0.0174
3505.00,0.0175
3504.00,0.0175
3503.00,0.0176
3502.00,0.0177
3501.00,0.0178
3500.00,0.0179
3499.00,0.0180
3498.00,0.0180
3497.00,0.0181
3496.00,0.0182
3495.00,0.0182
3494.00,0.0183
3493.00,0.0184
3492.00,0.0184
3491.00,0.0185
3490.00,0.0186
3489.00,0.0187
3488.00,0.0187
3487.00,0.0188
3486.00,0.0188
3485.00,0.0189
3484.00,0.0189
3483.00,0.0190
3482.00,0.0190
3481.00,0.0191
3480.00,0.0192
3479.00,0.0193
3478.00,0.0193
3477.00,0.0194
3476.00,0.0195
3475.00,0.0195
3474.00,0.0195
3473.00,0.0196
3472.00,0.0196
3471.00,0.0197
3470.00,0.0198
3469.00,0.0199
3468.00,0.0199
3467.00,0.0200
3466.00,0.0200
3465.00,0.0201
3464.00,0.0201
3463.00,0.0201
3462.00,0.0202
3461.00,0.0202
3460.00,0.0203
3459.00,0.0203
3458.00,0.0203
3457.00,0.0204
3456.00,0.0204
3455.00,0.0205
3454.00,0.0205
3453.00,0.0206
3452.00,0.0206
3451.00,0.0207
3450.00,0.0207
3449.00,0.0207
3448.00,0.0208
3447.00,0.0208
3446.00,0.0209
3445.00,0.0209
3444.00,0.0210
3443.00,0.0210
3442.00,0.0210
3441.00,0.0211
3440.00,0.0211
3439.00,0.0212
3438.00,0.0212
3437.00,0.0212
3436.00,0.0213
3435.00,0.0213
3434.00,0.0213
3433.00,0.0213
3432.00,0.0214
3431.00,0.0214
3430.00,0.0214
3429.00,0.0215
3428.00,0.0215
3427.00,0.0216
3426.00,0.0216
3425.00,0.0216
3424.00,0.0217
3423.00,0.0217
3422.00,0.0217
3421.00,0.0217
3420.00,0.0218
3419.00,0.0218
3418.00,0.0219
3417.00,0.0219
3416.00,0.0219
3415.00,0.0219
3414.00,0.0220
3413.00,0.0220
3412.00,0.0220
3411.00,0.0221
3410.00,0.0221
3409.00,0.0221
3408.00,0.0222
3407.00,0.0222
3406.00,0.0222
3405.00,0.0223
3404.00,0.0223
3403.00,0.0223
3402.00,0.0223
3401.00,0.0223
3400.00,0.0224
3399.00,0.0224
3398.00,0.0225
3397.00,0.0225
3396.00,0.0225
3395.00,0.0225
3394.00,0.0225
3393.00,0.0226
3392.00,0.0226
3391.00,0.0226
3390.00,0.0227
3389.00,0.0228
3388.00,0.0229
3387.00,0.0230
3386.00,0.0230
3385.00,0.0230
3384.00,0.0230
3383.00,0.0230
3382.00,0.0230
3381.00,0.0230
3380.00,0.0230
3379.00,0.0231
3378.00,0.0231
3377.00,0.0231
3376.00,0.0232
3375.00,0.0233
3374.00,0.0233
3373.00,0.0232
3372.00,0.0232
3371.00,0.0231
3370.00,0.0231
3369.00,0.0231
3368.00,0.0232
3367.00,0.0233
3366.00,0.0234
3365.00,0.0235
3364.00,0.0236
3363.00,0.0236
3362.00,0.0236
3361.00,0.0237
3360.00,0.0238
3359.00,0.0239
3358.00,0.0240
3357.00,0.0240
3356.00,0.0240
3355.00,0.0240
3354.00,0.0240
3353.00,0.0240
3352.00,0.0239
3351.00,0.0239
3350.00,0.0240
3349.00,0.0241
3348.00,0.0242
3347.00,0.0243
3346.00,0.0243
3345.00,0.0243
3344.00,0.0243
3343.00,0.0243
3342.00,0.0243
3341.00,0.0243
3340.00,0.0243
3339.00,0.0243
3338.00,0.0243
3337.00,0.0245
3336.00,0.0246
3335.00,0.0247
3334.00,0.0248
3333.00,0.0249
3332.00,0.0249
3331.00,0.0250
3330.00,0.0250
3329.00,0.0250
3328.00,0.0249
3327.00,0.0249
3326.00,0.0250
3325.00,0.0250
3324.00,0.0252
3323.00,0.0253
3322.00,0.0254
3321.00,0.0255
3320.00,0.0256
3319.00,0.0257
3318.00,0.0257
3317.00,0.0258
3316.00,0.0259
3315.00,0.0259
3314.00,0.0259
3313.00,0.0259
3312.00,0.0258
3311.00,0.0257
3310.00,0.0256
3309.00,0.0255
3308.00,0.0255
3307.00,0.0255
3306.00,0.0256
3305.00,0.0257
3304.00,0.0259
3303.00,0.0262
3302.00,0.0263
3301.00,0.0265
3300.00,0.0265
3299.00,0.0265
3298.00,0.0264
3297.00,0.0263
3296.00,0.0263
3295.00,0.0263
3294.00,0.0264
3293.00,0.0265
3292.00,0.0266
3291.00,0.0268
3290.00,0.0269
3289.00,0.0271
3288.00,0.0271
3287.00,0.0272
3286.00,0.0272
3285.00,0.0272
3284.00,0.0273
3283.00,0.0273
3282.00,0.0274
3281.00,0.0274
3280.00,0.0274
3279.00,0.0274
3278.00,0.0274
3277.00,0.0274
3276.00,0.0274
3275.00,0.0273
3274.00,0.0273
3273.00,0.0273
3272.00,0.0273
3271.00,0.0273
3270.00,0.0273
3269.00,0.0274
3268.00,0.0275
3267.00,0.0276
3266.00,0.0277
3265.00,0.0277
3264.00,0.0277
3263.00,0.0278
3262.00,0.0278
3261.00,0.0278
3260.00,0.0278
3259.00,0.0278
3258.00,0.0278
3257.00,0.0278
3256.00,0.0278
3255.00,0.0279
3254.00,0.0279
3253.00,0.0279
3252.00,0.0279
3251.00,0.0279
3250.00,0.0279
3249.00,0.0279
3248.00,0.0279
3247.00,0.0279
3246.00,0.0279
3245.00,0.0280
3244.00,0.0280
3243.00,0.0281
3242.00,0.0282
3241.00,0.0282
3240.00,0.0282
3239.00,0.0282
3238.00,0.0282
3237.00,0.0281
3236.00,0.0281
3235.00,0.0280
3234.00,0.0279
3233.00,0.0279
3232.00,0.0280
3231.00,0.0280
3230.00,0.0281
3229.00,0.0281
3228.00,0.0281
3227.00,0.0281
3226.00,0.0281
3225.00,0.0281
3224.00,0.0281
3223.00,0.0281
3222.00,0.0281
3221.00,0.0282
3220.00,0.0282
3219.00,0.0281
3218.00,0.0281
3217.00,0.0281
3216.00,0.0280
3215.00,0.0280
3214.00,0.0280
3213.00,0.0280
3212.00,0.0280
3211.00,0.0279
3210.00,0.0279
3209.00,0.0279
3208.00,0.0278
3207.00,0.0278
3206.00,0.0278
3205.00,0.0277
3204.00,0.0277
3203.00,0.0277
3202.00,0.0277
3201.00,0.0277
3200.00,0.0276
3199.00,0.0276
3198.00,0.0276
3197.00,0.0276
3196.00,0.0276
3195.00,0.0276
3194.00,0.0276
3193.00,0.0276
3192.00,0.0275
3191.00,0.0275
3190.00,0.0275
3189.00,0.0274
3188.00,0.0274
3187.00,0.0274
3186.00,0.0274
3185.00,0.0274
3184.00,0.0274
3183.00,0.0274
3182.00,0.0274
3181.00,0.0274
3180.00,0.0273
3179.00,0.0273
3178.00,0.0273
3177.00,0.0273
3176.00,0.0273
3175.00,0.0272
3174.00,0.0272
3173.00,0.0272
3172.00,0.0272
3171.00,0.0272
3170.00,0.0272
3169.00,0.0271
3168.00,0.0271
3167.00,0.0270
3166.00,0.0270
3165.00,0.0269
3164.00,0.0268
3163.00,0.0268
3162.00,0.0268
3161.00,0.0267
3160.00,0.0267
3159.00,0.0266
3158.00,0.0266
3157.00,0.0265
3156.00,0.0264
3155.00,0.0263
3154.00,0.0263
3153.00,0.0262
3152.00,0.0262
3151.00,0.0262
3150.00,0.0262
3149.00,0.0262
3148.00,0.0261
3147.00,0.0260
3146.00,0.0260
3145.00,0.0259
3144.00,0.0259
3143.00,0.0258
3142.00,0.0258
3141.00,0.0257
3140.00,0.0257
3139.00,0.0256
3138.00,0.0256
3137.00,0.0255
3136.00,0.0255
3135.00,0.0255
3134.00,0.0254
3133.00,0.0254
3132.00,0.0253
3131.00,0.0253
3130.00,0.0252
3129.00,0.0252
3128.00,0.0252
3127.00,0.0251
3126.00,0.0251
3125.00,0.0251
3124.00,0.0251
3123.00,0.0251
3122.00,0.0250
3121.00,0.0250
3120.00,0.0250
3119.00,0.0249
3118.00,0.0249
3117.00,0.0248
3116.00,0.0248
3115.00,0.0247
3114.00,0.0246
3113.00,0.0246
3112.00,0.0245
3111.00,0.0244
3110.00,0.0243
3109.00,0.0243
3108.00,0.0242
3107.00,0.0241
3106.00,0.0241
3105.00,0.0240
3104.00,0.0239
3103.00,0.0238
3102.00,0.0238
3101.00,0.0237
3100.00,0.0237
3099.00,0.0237
3098.00,0.0236
3097.00,0.0236
3096.00,0.0236
3095.00,0.0236
3094.00,0.0236
3093.00,0.0236
3092.00,0.0236
3091.00,0.0236
3090.00,0.0236
3089.00,0.0236
3088.00,0.0236
3087.00,0.0236
3086.00,0.0236
3085.00,0.0236
3084.00,0.0236
3083.00,0.0236
3082.00,0.0236
3081.00,0.0236
3080.00,0.0237
3079.00,0.0237
3078.00,0.0236
3077.00,0.0236
3076.00,0.0236
3075.00,0.0235
3074.00,0.0235
3073.00,0.0234
3072.00,0.0234
3071.00,0.0233
3070.00,0.0232
3069.00,0.0231
3068.00,0.0230
3067.00,0.0229
3066.00,0.0228
3065.00,0.0227
3064.00,0.0226
3063.00,0.0225
3062.00,0.0224
3061.00,0.0223
3060.00,0.0223
3059.00,0.0222
3058.00,0.0221
3057.00,0.0220
3056.00,0.0220
3055.00,0.0219
3054.00,0.0219
3053.00,0.0219
3052.00,0.0218
3051.00,0.0218
3050.00,0.0217
3049.00,0.0217
3048.00,0.0217
3047.00,0.0216
3046.00,0.0215
3045.00,0.0215
3044.00,0.0214
3043.00,0.0214
3042.00,0.0213
3041.00,0.0212
3040.00,0.0212
3039.00,0.0211
3038.00,0.0211
3037.00,0.0211
3036.00,0.0210
3035.00,0.0210
3034.00,0.0210
3033.00,0.0209
3032.00,0.0209
3031.00,0.0208
3030.00,0.0208
3029.00,0.0207
3028.00,0.0206
3027.00,0.0205
3026.00,0.0204
3025.00,0.0203
3024.00,0.0202
3023.00,0.0201
3022.00,0.0201
3021.00,0.0200
3020.00,0.0200
3019.00,0.0199
3018.00,0.0199
3017.00,0.0199
3016.00,0.0198
3015.00,0.0198
3014.00,0.0198
3013.00,0.0199
3012.00,0.0200
3011.00,0.0201
3010.00,0.0202
3009.00,0.0204
3008.00,0.0206
3007.00,0.0208
3006.00,0.0211
3005.00,0.0213
3004.00,0.0217
3003.00,0.0220
3002.00,0.0225
3001.00,0.0229
3000.00,0.0234
2999.00,0.0240
2998.00,0.0247
2997.00,0.0254
2996.00,0.0262
2995.00,0.0270
2994.00,0.0279
2993.00,0.0288
2992.00,0.0297
2991.00,0.0307
2990.00,0.0317
2989.00,0.0327
2988.00,0.0337
2987.00,0.0346
2986.00,0.0355
2985.00,0.0363
2984.00,0.0370
2983.00,0.0376
2982.00,0.0382
2981.00,0.0389
2980.00,0.0395
2979.00,0.0400
2978.00,0.0405
2977.00,0.0408
2976.00,0.0411
2975.00,0.0414
2974.00,0.0416
2973.00,0.0419
2972.00,0.0421
2971.00,0.0425
2970.00,0.0429
2969.00,0.0434
2968.00,0.0439
2967.00,0.0444
2966.00,0.0450
2965.00,0.0456
2964.00,0.0462
2963.00,0.0468
2962.00,0.0474
2961.00,0.0481
2960.00,0.0487
2959.00,0.0493
2958.00,0.0498
2957.00,0.0503
2956.00,0.0507
2955.00,0.0510
2954.00,0.0511
2953.00,0.0512
2952.00,0.0511
2951.00,0.0509
2950.00,0.0506
2949.00,0.0503
2948.00,0.0500
2947.00,0.0497
2946.00,0.0495
2945.00,0.0494
2944.00,0.0494
2943.00,0.0494
2942.00,0.0496
2941.00,0.0498
2940.00,0.0502
2939.00,0.0505
2938.00,0.0510
2937.00,0.0514
2936.00,0.0520
2935.00,0.0525
2934.00,0.0530
2933.00,0.0535
2932.00,0.0540
2931.00,0.0544
2930.00,0.0547
2929.00,0.0550
2928.00,0.0551
2927.00,0.0552
2926.00,0.0551
2925.00,0.0549
2924.00,0.0547
2923.00,0.0543
2922.00,0.0539
2921.00,0.0535
2920.00,0.0529
2919.00,0.0523
2918.00,0.0516
2917.00,0.0509
2916.00,0.0501
2915.00,0.0493
2914.00,0.0485
2913.00,0.0477
2912.00,0.0468
2911.00,0.0460
2910.00,0.0451
2909.00,0.0443
2908.00,0.0435
2907.00,0.0428
2906.00,0.0421
2905.00,0.0415
2904.00,0.0410
2903.00,0.0406
2902.00,0.0402
2901.00,0.0399
2900.00,0.0396
2899.00,0.0393
2898.00,0.0392
2897.00,0.0390
2896.00,0.0389
2895.00,0.0388
2894.00,0.0387
2893.00,0.0387
2892.00,0.0386
2891.00,0.0385
2890.00,0.0384
2889.00,0.0382
2888.00,0.0381
2887.00,0.0380
2886.00,0.0380
2885.00,0.0379
2884.00,0.0379
2883.00,0.0379
2882.00,0.0380
2881.00,0.0381
2880.00,0.0383
2879.00,0.0386
2878.00,0.0389
2877.00,0.0392
2876.00,0.0395
2875.00,0.0399
2874.00,0.0403
2873.00,0.0407
2872.00,0.0410
2871.00,0.0413
2870.00,0.0414
2869.00,0.0413
2868.00,0.0412
2867.00,0.0411
2866.00,0.0410
2865.00,0.0409
2864.00,0.0409
2863.00,0.0410
2862.00,0.0411
2861.00,0.0411
2860.00,0.0412
2859.00,0.0411
2858.00,0.0409
2857.00,0.0405
2856.00,0.0399
2855.00,0.0391
2854.00,0.0382
2853.00,0.0372
2852.00,0.0362
2851.00,0.0352
2850.00,0.0341
2849.00,0.0332
2848.00,0.0322
2847.00,0.0314
2846.00,0.0305
2845.00,0.0296
2844.00,0.0288
2843.00,0.0279
2842.00,0.0271
2841.00,0.0262
2840.00,0.0255
2839.00,0.0248
2838.00,0.0242
2837.00,0.0236
2836.00,0.0232
2835.00,0.0228
2834.00,0.0224
2833.00,0.0220
2832.00,0.0216
2831.00,0.0213
2830.00,0.0209
2829.00,0.0206
2828.00,0.0202
2827.00,0.0199
2826.00,0.0196
2825.00,0.0192
2824.00,0.0189
2823.00,0.0186
2822.00,0.0184
2821.00,0.0181
2820.00,0.0178
2819.00,0.0176
2818.00,0.0174
2817.00,0.0171
2816.00,0.0169
2815.00,0.0167
2814.00,0.0165
2813.00,0.0163
2812.00,0.0161
2811.00,0.0159
2810.00,0.0157
2809.00,0.0156
2808.00,0.0155
2807.00,0.0153
2806.00,0.0152
2805.00,0.0151
2804.00,0.0149
2803.00,0.0148
2802.00,0.0147
2801.00,0.0146
2800.00,0.0144
2799.00,0.0143
2798.00,0.0142
2797.00,0.0141
2796.00,0.0140
2795.00,0.0139
2794.00,0.0138
2793.00,0.0137
2792.00,0.0136
2791.00,0.0136
2790.00,0.0135
2789.00,0.0134
2788.00,0.0134
2787.00,0.0133
2786.00,0.0132
2785.00,0.0132
2784.00,0.0131
2783.00,0.0130
2782.00,0.0130
2781.00,0.0129
2780.00,0.0129
2779.00,0.0128
2778.00,0.0127
2777.00,0.0127
2776.00,0.0126
2775.00,0.0125
2774.00,0.0125
2773.00,0.0124
2772.00,0.0124
2771.00,0.0124
2770.00,0.0123
2769.00,0.0123
2768.00,0.0123
2767.00,0.0122
2766.00,0.0122
2765.00,0.0122
2764.00,0.0122
2763.00,0.0122
2762.00,0.0121
2761.00,0.0121
2760.00,0.0121
2759.00,0.0121
2758.00,0.0122
2757.00,0.0122
