Created as New Dataset,Sample 834 By YargerLab Date Wednesday, July 16 2025
cm-1,A
4000.00,0.0064
3999.00,0.0064
3998.00,0.0064
3997.00,0.0064
3996.00,0.0064
3995.00,0.0064
3994.00,0.0064
3993.00,0.0064
3992.00,0.0064
3991.00,0.0064
3990.00,0.0064
3989.00,0.0064
3988.00,0.0064
3987.00,0.0064
3986.00,0.0064
3985.00,0.0064
3984.00,0.0064
3983.00,0.0064
3982.00,0.0064
3981.00,0.0064
3980.00,0.0064
3979.00,0.0065
3978.00,0.0065
3977.00,0.0065
3976.00,0.0065
3975.00,0.0065
3974.00,0.0064
3973.00,0.0064
3972.00,0.0064
3971.00,0.0065
3970.00,0.0065
3969.00,0.0065
3968.00,0.0065
3967.00,0.0065
3966.00,0.0064
3965.00,0.0064
3964.00,0.0064
3963.00,0.0064
3962.00,0.0064
3961.00,0.0065
3960.00,0.0065
3959.00,0.0065
3958.00,0.0065
3957.00,0.0065
3956.00,0.0065
3955.00,0.0065
3954.00,0.0065
3953.00,0.0065
3952.00,0.0065
3951.00,0.0065
3950.00,0.0065
3949.00,0.0065
3948.00,0.0065
3947.00,0.0065
3946.00,0.0065
3945.00,0.0065
3944.00,0.0065
3943.00,0.0065
3942.00,0.0065
3941.00,0.0065
3940.00,0.0065
3939.00,0.0065
3938.00,0.0065
3937.00,0.0065
3936.00,0.0065
3935.00,0.0065
3934.00,0.0065
3933.00,0.0065
3932.00,0.0064
3931.00,0.0064
3930.00,0.0064
3929.00,0.0065
3928.00,0.0065
3927.00,0.0065
3926.00,0.0065
3925.00,0.0065
3924.00,0.0065
3923.00,0.0065
3922.00,0.0065
3921.00,0.0065
3920.00,0.0065
3919.00,0.0065
3918.00,0.0065
3917.00,0.0064
3916.00,0.0064
3915.00,0.0064
3914.00,0.0064
3913.00,0.0064
3912.00,0.0064
3911.00,0.0064
3910.00,0.0064
3909.00,0.0064
3908.00,0.0065
3907.00,0.0065
3906.00,0.0066
3905.00,0.0066
3904.00,0.0067
3903.00,0.0067
3902.00,0.0068
3901.00,0.0068
3900.00,0.0068
3899.00,0.0068
3898.00,0.0068
3897.00,0.0067
3896.00,0.0066
3895.00,0.0066
3894.00,0.0066
3893.00,0.0065
3892.00,0.0065
3891.00,0.0065
3890.00,0.0066
3889.00,0.0066
3888.00,0.0066
3887.00,0.0066
3886.00,0.0066
3885.00,0.0066
3884.00,0.0066
3883.00,0.0066
3882.00,0.0066
3881.00,0.0066
3880.00,0.0066
3879.00,0.0066
3878.00,0.0066
3877.00,0.0066
3876.00,0.0066
3875.00,0.0066
3874.00,0.0066
3873.00,0.0066
3872.00,0.0066
3871.00,0.0067
3870.00,0.0067
3869.00,0.0067
3868.00,0.0067
3867.00,0.0068
3866.00,0.0067
3865.00,0.0067
3864.00,0.0067
3863.00,0.0066
3862.00,0.0066
3861.00,0.0065
3860.00,0.0065
3859.00,0.0065
3858.00,0.0066
3857.00,0.0066
3856.00,0.0068
3855.00,0.0069
3854.00,0.0070
3853.00,0.0070
3852.00,0.0069
3851.00,0.0069
3850.00,0.0068
3849.00,0.0067
3848.00,0.0066
3847.00,0.0065
3846.00,0.0065
3845.00,0.0064
3844.00,0.0065
3843.00,0.0065
3842.00,0.0066
3841.00,0.0066
3840.00,0.0067
3839.00,0.0068
3838.00,0.0068
3837.00,0.0068
3836.00,0.0068
3835.00,0.0067
3834.00,0.0067
3833.00,0.0067
3832.00,0.0066
3831.00,0.0066
3830.00,0.0065
3829.00,0.0065
3828.00,0.0065
3827.00,0.0064
3826.00,0.0064
3825.00,0.0064
3824.00,0.0065
3823.00,0.0065
3822.00,0.0066
3821.00,0.0066
3820.00,0.0067
3819.00,0.0067
3818.00,0.0067
3817.00,0.0067
3816.00,0.0067
3815.00,0.0066
3814.00,0.0065
3813.00,0.0064
3812.00,0.0064
3811.00,0.0063
3810.00,0.0063
3809.00,0.0064
3808.00,0.0064
3807.00,0.0064
3806.00,0.0065
3805.00,0.0065
3804.00,0.0066
3803.00,0.0066
3802.00,0.0066
3801.00,0.0066
3800.00,0.0066
3799.00,0.0066
3798.00,0.0065
3797.00,0.0065
3796.00,0.0064
3795.00,0.0063
3794.00,0.0063
3793.00,0.0063
3792.00,0.0062
3791.00,0.0062
3790.00,0.0062
3789.00,0.0062
3788.00,0.0062
3787.00,0.0062
3786.00,0.0062
3785.00,0.0062
3784.00,0.0062
3783.00,0.0063
3782.00,0.0063
3781.00,0.0063
3780.00,0.0063
3779.00,0.0063
3778.00,0.0063
3777.00,0.0063
3776.00,0.0062
3775.00,0.0062
3774.00,0.0062
3773.00,0.0063
3772.00,0.0063
3771.00,0.0063
3770.00,0.0064
3769.00,0.0064
3768.00,0.0064
3767.00,0.0064
3766.00,0.0064
3765.00,0.0063
3764.00,0.0063
3763.00,0.0063
3762.00,0.0063
3761.00,0.0063
3760.00,0.0063
3759.00,0.0063
3758.00,0.0064
3757.00,0.0064
3756.00,0.0064
3755.00,0.0065
3754.00,0.0066
3753.00,0.0066
3752.00,0.0067
3751.00,0.0067
3750.00,0.0067
3749.00,0.0068
3748.00,0.0068
3747.00,0.0069
3746.00,0.0068
3745.00,0.0068
3744.00,0.0067
3743.00,0.0067
3742.00,0.0067
3741.00,0.0066
3740.00,0.0066
3739.00,0.0066
3738.00,0.0066
3737.00,0.0066
3736.00,0.0065
3735.00,0.0065
3734.00,0.0065
3733.00,0.0065
3732.00,0.0065
3731.00,0.0064
3730.00,0.0064
3729.00,0.0063
3728.00,0.0063
3727.00,0.0062
3726.00,0.0062
3725.00,0.0062
3724.00,0.0061
3723.00,0.0061
3722.00,0.0061
3721.00,0.0062
3720.00,0.0061
3719.00,0.0061
3718.00,0.0061
3717.00,0.0061
3716.00,0.0061
3715.00,0.0062
3714.00,0.0062
3713.00,0.0063
3712.00,0.0064
3711.00,0.0064
3710.00,0.0063
3709.00,0.0063
3708.00,0.0063
3707.00,0.0062
3706.00,0.0061
3705.00,0.0060
3704.00,0.0060
3703.00,0.0060
3702.00,0.0060
3701.00,0.0060
3700.00,0.0060
3699.00,0.0060
3698.00,0.0059
3697.00,0.0059
3696.00,0.0059
3695.00,0.0060
3694.00,0.0060
3693.00,0.0061
3692.00,0.0062
3691.00,0.0063
3690.00,0.0063
3689.00,0.0063
3688.00,0.0062
3687.00,0.0062
3686.00,0.0062
3685.00,0.0061
3684.00,0.0060
3683.00,0.0060
3682.00,0.0060
3681.00,0.0060
3680.00,0.0060
3679.00,0.0062
3678.00,0.0063
3677.00,0.0064
3676.00,0.0065
3675.00,0.0065
3674.00,0.0065
3673.00,0.0065
3672.00,0.0065
3671.00,0.0065
3670.00,0.0064
3669.00,0.0064
3668.00,0.0063
3667.00,0.0062
3666.00,0.0062
3665.00,0.0061
3664.00,0.0061
3663.00,0.0061
3662.00,0.0060
3661.00,0.0060
3660.00,0.0061
3659.00,0.0061
3658.00,0.0062
3657.00,0.0062
3656.00,0.0063
3655.00,0.0064
3654.00,0.0065
3653.00,0.0066
3652.00,0.0067
3651.00,0.0068
3650.00,0.0069
3649.00,0.0068
3648.00,0.0068
3647.00,0.0068
3646.00,0.0069
3645.00,0.0068
3644.00,0.0067
3643.00,0.0066
3642.00,0.0065
3641.00,0.0064
3640.00,0.0064
3639.00,0.0064
3638.00,0.0065
3637.00,0.0065
3636.00,0.0066
3635.00,0.0066
3634.00,0.0067
3633.00,0.0068
3632.00,0.0069
3631.00,0.0070
3630.00,0.0071
3629.00,0.0071
3628.00,0.0071
3627.00,0.0071
3626.00,0.0071
3625.00,0.0071
3624.00,0.0070
3623.00,0.0070
3622.00,0.0071
3621.00,0.0071
3620.00,0.0071
3619.00,0.0071
3618.00,0.0072
3617.00,0.0072
3616.00,0.0073
3615.00,0.0074
3614.00,0.0074
3613.00,0.0075
3612.00,0.0075
3611.00,0.0076
3610.00,0.0076
3609.00,0.0076
3608.00,0.0076
3607.00,0.0076
3606.00,0.0075
3605.00,0.0076
3604.00,0.0076
3603.00,0.0076
3602.00,0.0076
3601.00,0.0076
3600.00,0.0076
3599.00,0.0076
3598.00,0.0077
3597.00,0.0078
3596.00,0.0078
3595.00,0.0078
3594.00,0.0079
3593.00,0.0079
3592.00,0.0079
3591.00,0.0080
3590.00,0.0081
3589.00,0.0082
3588.00,0.0082
3587.00,0.0081
3586.00,0.0081
3585.00,0.0081
3584.00,0.0081
3583.00,0.0081
3582.00,0.0082
3581.00,0.0082
3580.00,0.0082
3579.00,0.0082
3578.00,0.0083
3577.00,0.0083
3576.00,0.0083
3575.00,0.0084
3574.00,0.0084
3573.00,0.0085
3572.00,0.0086
3571.00,0.0087
3570.00,0.0088
3569.00,0.0089
3568.00,0.0090
3567.00,0.0090
3566.00,0.0090
3565.00,0.0090
3564.00,0.0090
3563.00,0.0090
3562.00,0.0091
3561.00,0.0091
3560.00,0.0091
3559.00,0.0091
3558.00,0.0091
3557.00,0.0092
3556.00,0.0092
3555.00,0.0093
3554.00,0.0093
3553.00,0.0093
3552.00,0.0093
3551.00,0.0094
3550.00,0.0094
3549.00,0.0095
3548.00,0.0096
3547.00,0.0097
3546.00,0.0097
3545.00,0.0097
3544.00,0.0097
3543.00,0.0098
3542.00,0.0098
3541.00,0.0098
3540.00,0.0099
3539.00,0.0099
3538.00,0.0100
3537.00,0.0100
3536.00,0.0100
3535.00,0.0100
3534.00,0.0101
3533.00,0.0101
3532.00,0.0102
3531.00,0.0102
3530.00,0.0103
3529.00,0.0103
3528.00,0.0104
3527.00,0.0104
3526.00,0.0105
3525.00,0.0105
3524.00,0.0106
3523.00,0.0106
3522.00,0.0107
3521.00,0.0107
3520.00,0.0107
3519.00,0.0107
3518.00,0.0107
3517.00,0.0107
3516.00,0.0107
3515.00,0.0108
3514.00,0.0108
3513.00,0.0109
3512.00,0.0109
3511.00,0.0110
3510.00,0.0110
3509.00,0.0110
3508.00,0.0110
3507.00,0.0111
3506.00,0.0111
3505.00,0.0112
3504.00,0.0112
3503.00,0.0112
3502.00,0.0112
3501.00,0.0112
3500.00,0.0113
3499.00,0.0113
3498.00,0.0114
3497.00,0.0114
3496.00,0.0115
3495.00,0.0115
3494.00,0.0115
3493.00,0.0115
3492.00,0.0115
3491.00,0.0116
3490.00,0.0116
3489.00,0.0116
3488.00,0.0117
3487.00,0.0117
3486.00,0.0117
3485.00,0.0117
3484.00,0.0118
3483.00,0.0118
3482.00,0.0118
3481.00,0.0118
3480.00,0.0119
3479.00,0.0119
3478.00,0.0119
3477.00,0.0120
3476.00,0.0120
3475.00,0.0120
3474.00,0.0120
3473.00,0.0120
3472.00,0.0121
3471.00,0.0121
3470.00,0.0121
3469.00,0.0122
3468.00,0.0122
3467.00,0.0122
3466.00,0.0122
3465.00,0.0123
3464.00,0.0123
3463.00,0.0123
3462.00,0.0124
3461.00,0.0124
3460.00,0.0124
3459.00,0.0124
3458.00,0.0124
3457.00,0.0124
3456.00,0.0124
3455.00,0.0125
3454.00,0.0125
3453.00,0.0125
3452.00,0.0126
3451.00,0.0126
3450.00,0.0127
3449.00,0.0127
3448.00,0.0128
3447.00,0.0128
3446.00,0.0128
3445.00,0.0128
3444.00,0.0128
3443.00,0.0128
3442.00,0.0129
3441.00,0.0129
3440.00,0.0129
3439.00,0.0130
3438.00,0.0130
3437.00,0.0131
3436.00,0.0131
3435.00,0.0131
3434.00,0.0132
3433.00,0.0132
3432.00,0.0132
3431.00,0.0133
3430.00,0.0133
3429.00,0.0134
3428.00,0.0134
3427.00,0.0134
3426.00,0.0135
3425.00,0.0135
3424.00,0.0136
3423.00,0.0137
3422.00,0.0137
3421.00,0.0138
3420.00,0.0138
3419.00,0.0138
3418.00,0.0139
3417.00,0.0139
3416.00,0.0140
3415.00,0.0141
3414.00,0.0141
3413.00,0.0142
3412.00,0.0142
3411.00,0.0143
3410.00,0.0143
3409.00,0.0143
3408.00,0.0143
3407.00,0.0144
3406.00,0.0144
3405.00,0.0145
3404.00,0.0146
3403.00,0.0147
3402.00,0.0147
3401.00,0.0148
3400.00,0.0148
3399.00,0.0149
3398.00,0.0149
3397.00,0.0150
3396.00,0.0150
3395.00,0.0151
3394.00,0.0151
3393.00,0.0152
3392.00,0.0152
3391.00,0.0152
3390.00,0.0153
3389.00,0.0154
3388.00,0.0154
3387.00,0.0155
3386.00,0.0155
3385.00,0.0156
3384.00,0.0156
3383.00,0.0157
3382.00,0.0157
3381.00,0.0158
3380.00,0.0158
3379.00,0.0159
3378.00,0.0159
3377.00,0.0160
3376.00,0.0160
3375.00,0.0161
3374.00,0.0162
3373.00,0.0163
3372.00,0.0163
3371.00,0.0164
3370.00,0.0164
3369.00,0.0165
3368.00,0.0166
3367.00,0.0167
3366.00,0.0168
3365.00,0.0168
3364.00,0.0169
3363.00,0.0170
3362.00,0.0171
3361.00,0.0171
3360.00,0.0172
3359.00,0.0173
3358.00,0.0174
3357.00,0.0175
3356.00,0.0176
3355.00,0.0177
3354.00,0.0178
3353.00,0.0179
3352.00,0.0180
3351.00,0.0181
3350.00,0.0183
3349.00,0.0184
3348.00,0.0185
3347.00,0.0186
3346.00,0.0187
3345.00,0.0188
3344.00,0.0189
3343.00,0.0190
3342.00,0.0192
3341.00,0.0193
3340.00,0.0194
3339.00,0.0196
3338.00,0.0198
3337.00,0.0199
3336.00,0.0201
3335.00,0.0203
3334.00,0.0204
3333.00,0.0206
3332.00,0.0207
3331.00,0.0209
3330.00,0.0211
3329.00,0.0213
3328.00,0.0215
3327.00,0.0217
3326.00,0.0218
3325.00,0.0220
3324.00,0.0222
3323.00,0.0224
3322.00,0.0226
3321.00,0.0228
3320.00,0.0230
3319.00,0.0232
3318.00,0.0235
3317.00,0.0236
3316.00,0.0238
3315.00,0.0241
3314.00,0.0243
3313.00,0.0245
3312.00,0.0247
3311.00,0.0249
3310.00,0.0251
3309.00,0.0253
3308.00,0.0255
3307.00,0.0257
3306.00,0.0259
3305.00,0.0262
3304.00,0.0264
3303.00,0.0267
3302.00,0.0269
3301.00,0.0271
3300.00,0.0273
3299.00,0.0275
3298.00,0.0276
3297.00,0.0278
3296.00,0.0280
3295.00,0.0281
3294.00,0.0283
3293.00,0.0284
3292.00,0.0285
3291.00,0.0287
3290.00,0.0288
3289.00,0.0288
3288.00,0.0289
3287.00,0.0289
3286.00,0.0290
3285.00,0.0290
3284.00,0.0290
3283.00,0.0289
3282.00,0.0289
3281.00,0.0288
3280.00,0.0287
3279.00,0.0286
3278.00,0.0284
3277.00,0.0283
3276.00,0.0281
3275.00,0.0280
3274.00,0.0278
3273.00,0.0276
3272.00,0.0275
3271.00,0.0273
3270.00,0.0271
3269.00,0.0269
3268.00,0.0268
3267.00,0.0266
3266.00,0.0264
3265.00,0.0262
3264.00,0.0260
3263.00,0.0258
3262.00,0.0256
3261.00,0.0253
3260.00,0.0251
3259.00,0.0249
3258.00,0.0247
3257.00,0.0245
3256.00,0.0243
3255.00,0.0241
3254.00,0.0239
3253.00,0.0238
3252.00,0.0236
3251.00,0.0234
3250.00,0.0232
3249.00,0.0231
3248.00,0.0229
3247.00,0.0227
3246.00,0.0226
3245.00,0.0224
3244.00,0.0223
3243.00,0.0222
3242.00,0.0221
3241.00,0.0219
3240.00,0.0218
3239.00,0.0216
3238.00,0.0215
3237.00,0.0213
3236.00,0.0212
3235.00,0.0211
3234.00,0.0210
3233.00,0.0209
3232.00,0.0208
3231.00,0.0207
3230.00,0.0206
3229.00,0.0205
3228.00,0.0204
3227.00,0.0203
3226.00,0.0202
3225.00,0.0200
3224.00,0.0199
3223.00,0.0198
3222.00,0.0197
3221.00,0.0196
3220.00,0.0195
3219.00,0.0194
3218.00,0.0193
3217.00,0.0192
3216.00,0.0192
3215.00,0.0191
3214.00,0.0190
3213.00,0.0189
3212.00,0.0188
3211.00,0.0187
3210.00,0.0186
3209.00,0.0185
3208.00,0.0184
3207.00,0.0183
3206.00,0.0183
3205.00,0.0182
3204.00,0.0181
3203.00,0.0180
3202.00,0.0179
3201.00,0.0178
3200.00,0.0177
3199.00,0.0176
3198.00,0.0176
3197.00,0.0175
3196.00,0.0174
3195.00,0.0173
3194.00,0.0172
3193.00,0.0171
3192.00,0.0170
3191.00,0.0169
3190.00,0.0169
3189.00,0.0168
3188.00,0.0167
3187.00,0.0166
3186.00,0.0165
3185.00,0.0164
3184.00,0.0164
3183.00,0.0163
3182.00,0.0162
3181.00,0.0161
3180.00,0.0160
3179.00,0.0159
3178.00,0.0158
3177.00,0.0157
3176.00,0.0156
3175.00,0.0156
3174.00,0.0155
3173.00,0.0154
3172.00,0.0153
3171.00,0.0153
3170.00,0.0152
3169.00,0.0151
3168.00,0.0151
3167.00,0.0150
3166.00,0.0149
3165.00,0.0148
3164.00,0.0148
3163.00,0.0147
3162.00,0.0146
3161.00,0.0146
3160.00,0.0145
3159.00,0.0144
3158.00,0.0144
3157.00,0.0143
3156.00,0.0143
3155.00,0.0142
3154.00,0.0141
3153.00,0.0141
3152.00,0.0140
3151.00,0.0140
3150.00,0.0139
3149.00,0.0139
3148.00,0.0138
3147.00,0.0138
3146.00,0.0137
3145.00,0.0137
3144.00,0.0136
3143.00,0.0136
3142.00,0.0135
3141.00,0.0135
3140.00,0.0134
3139.00,0.0134
3138.00,0.0134
3137.00,0.0134
3136.00,0.0134
3135.00,0.0133
3134.00,0.0133
3133.00,0.0133
3132.00,0.0132
3131.00,0.0132
3130.00,0.0132
3129.00,0.0132
3128.00,0.0132
3127.00,0.0132
3126.00,0.0131
3125.00,0.0131
3124.00,0.0131
3123.00,0.0131
3122.00,0.0131
3121.00,0.0130
3120.00,0.0130
3119.00,0.0130
3118.00,0.0130
3117.00,0.0129
3116.00,0.0130
3115.00,0.0130
3114.00,0.0130
3113.00,0.0130
3112.00,0.0131
3111.00,0.0131
3110.00,0.0130
3109.00,0.0130
3108.00,0.0130
3107.00,0.0131
3106.00,0.0131
3105.00,0.0131
3104.00,0.0132
3103.00,0.0132
3102.00,0.0132
3101.00,0.0132
3100.00,0.0132
3099.00,0.0133
3098.00,0.0133
3097.00,0.0134
3096.00,0.0134
3095.00,0.0134
3094.00,0.0134
3093.00,0.0133
3092.00,0.0133
3091.00,0.0133
3090.00,0.0134
3089.00,0.0134
3088.00,0.0135
3087.00,0.0135
3086.00,0.0135
3085.00,0.0135
3084.00,0.0135
3083.00,0.0135
3082.00,0.0135
3081.00,0.0135
3080.00,0.0135
3079.00,0.0135
3078.00,0.0136
3077.00,0.0136
3076.00,0.0136
3075.00,0.0136
3074.00,0.0137
3073.00,0.0137
3072.00,0.0137
3071.00,0.0136
3070.00,0.0136
3069.00,0.0136
3068.00,0.0136
3067.00,0.0136
3066.00,0.0136
3065.00,0.0136
3064.00,0.0135
3063.00,0.0135
3062.00,0.0135
3061.00,0.0135
3060.00,0.0134
3059.00,0.0134
3058.00,0.0133
3057.00,0.0133
3056.00,0.0132
3055.00,0.0131
3054.00,0.0131
3053.00,0.0130
3052.00,0.0130
3051.00,0.0129
3050.00,0.0129
3049.00,0.0128
3048.00,0.0128
3047.00,0.0127
3046.00,0.0126
3045.00,0.0126
3044.00,0.0125
3043.00,0.0125
3042.00,0.0124
3041.00,0.0124
3040.00,0.0123
3039.00,0.0123
3038.00,0.0122
3037.00,0.0122
3036.00,0.0121
3035.00,0.0120
3034.00,0.0120
3033.00,0.0120
3032.00,0.0120
3031.00,0.0119
3030.00,0.0119
3029.00,0.0119
3028.00,0.0118
3027.00,0.0118
3026.00,0.0117
3025.00,0.0117
3024.00,0.0116
3023.00,0.0116
3022.00,0.0115
3021.00,0.0115
3020.00,0.0114
3019.00,0.0114
3018.00,0.0113
3017.00,0.0113
3016.00,0.0112
3015.00,0.0112
3014.00,0.0112
3013.00,0.0112
3012.00,0.0112
3011.00,0.0111
3010.00,0.0111
3009.00,0.0111
3008.00,0.0111
3007.00,0.0111
3006.00,0.0111
3005.00,0.0111
3004.00,0.0111
3003.00,0.0111
3002.00,0.0111
3001.00,0.0111
3000.00,0.0111
2999.00,0.0111
2998.00,0.0111
2997.00,0.0112
2996.00,0.0112
2995.00,0.0112
2994.00,0.0112
2993.00,0.0113
2992.00,0.0113
2991.00,0.0113
2990.00,0.0114
2989.00,0.0115
2988.00,0.0115
2987.00,0.0116
2986.00,0.0117
2985.00,0.0117
2984.00,0.0118
2983.00,0.0118
2982.00,0.0118
2981.00,0.0118
2980.00,0.0118
2979.00,0.0118
2978.00,0.0118
2977.00,0.0119
2976.00,0.0119
2975.00,0.0120
2974.00,0.0120
2973.00,0.0120
2972.00,0.0121
2971.00,0.0121
2970.00,0.0121
2969.00,0.0121
2968.00,0.0121
2967.00,0.0121
2966.00,0.0122
2965.00,0.0122
2964.00,0.0122
2963.00,0.0122
2962.00,0.0122
2961.00,0.0121
2960.00,0.0121
2959.00,0.0121
2958.00,0.0121
2957.00,0.0121
2956.00,0.0121
2955.00,0.0121
2954.00,0.0121
2953.00,0.0121
2952.00,0.0121
2951.00,0.0121
2950.00,0.0122
2949.00,0.0122
2948.00,0.0123
2947.00,0.0123
2946.00,0.0124
2945.00,0.0125
2944.00,0.0126
2943.00,0.0126
2942.00,0.0128
2941.00,0.0129
2940.00,0.0130
2939.00,0.0131
2938.00,0.0133
2937.00,0.0134
2936.00,0.0135
2935.00,0.0136
2934.00,0.0137
2933.00,0.0138
2932.00,0.0139
2931.00,0.0140
2930.00,0.0141
2929.00,0.0142
2928.00,0.0143
2927.00,0.0144
2926.00,0.0145
2925.00,0.0146
2924.00,0.0147
2923.00,0.0148
2922.00,0.0148
2921.00,0.0149
2920.00,0.0150
2919.00,0.0150
2918.00,0.0150
2917.00,0.0149
2916.00,0.0148
2915.00,0.0146
2914.00,0.0143
2913.00,0.0140
2912.00,0.0137
2911.00,0.0134
2910.00,0.0132
2909.00,0.0130
2908.00,0.0129
2907.00,0.0127
2906.00,0.0126
2905.00,0.0125
2904.00,0.0124
2903.00,0.0123
2902.00,0.0122
2901.00,0.0122
2900.00,0.0121
2899.00,0.0120
2898.00,0.0120
2897.00,0.0119
2896.00,0.0118
2895.00,0.0117
2894.00,0.0117
2893.00,0.0117
2892.00,0.0116
2891.00,0.0116
2890.00,0.0115
2889.00,0.0115
2888.00,0.0115
2887.00,0.0114
2886.00,0.0114
2885.00,0.0114
2884.00,0.0114
2883.00,0.0113
2882.00,0.0113
2881.00,0.0113
2880.00,0.0113
2879.00,0.0113
2878.00,0.0113
2877.00,0.0113
2876.00,0.0113
2875.00,0.0113
2874.00,0.0112
2873.00,0.0112
2872.00,0.0112
2871.00,0.0112
2870.00,0.0112
2869.00,0.0112
2868.00,0.0111
2867.00,0.0111
2866.00,0.0110
2865.00,0.0110
2864.00,0.0110
2863.00,0.0110
2862.00,0.0110
2861.00,0.0110
2860.00,0.0111
2859.00,0.0112
2858.00,0.0112
2857.00,0.0114
2856.00,0.0115
2855.00,0.0116
2854.00,0.0118
2853.00,0.0119
2852.00,0.0121
2851.00,0.0122
2850.00,0.0122
2849.00,0.0121
2848.00,0.0119
2847.00,0.0117
2846.00,0.0114
2845.00,0.0112
2844.00,0.0109
2843.00,0.0107
2842.00,0.0105
2841.00,0.0104
2840.00,0.0102
2839.00,0.0102
2838.00,0.0101
2837.00,0.0100
2836.00,0.0100
2835.00,0.0100
2834.00,0.0099
2833.00,0.0099
2832.00,0.0098
2831.00,0.0098
2830.00,0.0098
2829.00,0.0097
2828.00,0.0097
2827.00,0.0097
2826.00,0.0097
2825.00,0.0097
2824.00,0.0097
2823.00,0.0096
2822.00,0.0096
2821.00,0.0096
2820.00,0.0096
2819.00,0.0096
2818.00,0.0096
2817.00,0.0095
2816.00,0.0095
2815.00,0.0095
2814.00,0.0095
2813.00,0.0095
2812.00,0.0095
2811.00,0.0095
2810.00,0.0094
2809.00,0.0094
2808.00,0.0094
2807.00,0.0094
2806.00,0.0093
2805.00,0.0093
2804.00,0.0093
2803.00,0.0092
2802.00,0.0092
2801.00,0.0092
2800.00,0.0092
2799.00,0.0092
2798.00,0.0092
2797.00,0.0092
2796.00,0.0092
2795.00,0.0092
2794.00,0.0092
2793.00,0.0091
2792.00,0.0091
2791.00,0.0091
2790.00,0.0091
2789.00,0.0091
2788.00,0.0090
2787.00,0.0090
2786.00,0.0090
2785.00,0.0090
2784.00,0.0090
2783.00,0.0090
2782.00,0.0090
2781.00,0.0090
2780.00,0.0090
2779.00,0.0090
2778.00,0.0089
2777.00,0.0089
2776.00,0.0089
2775.00,0.0089
2774.00,0.0088
2773.00,0.0088
2772.00,0.0088
2771.00,0.0088
2770.00,0.0088
2769.00,0.0088
2768.00,0.0088
2767.00,0.0088
2766.00,0.0088
2765.00,0.0088
2764.00,0.0088
2763.00,0.0087
2762.00,0.0087
2761.00,0.0087
2760.00,0.0087
2759.00,0.0087
2758.00,0.0087
2757.00,0.0086
