Created as New Dataset,Sample 971 By YargerLab Date Wednesday, July 30 2025
cm-1,A
4000.00,0.0016
3999.00,0.0016
3998.00,0.0016
3997.00,0.0016
3996.00,0.0016
3995.00,0.0016
3994.00,0.0016
3993.00,0.0016
3992.00,0.0016
3991.00,0.0016
3990.00,0.0016
3989.00,0.0016
3988.00,0.0016
3987.00,0.0016
3986.00,0.0016
3985.00,0.0016
3984.00,0.0016
3983.00,0.0016
3982.00,0.0016
3981.00,0.0016
3980.00,0.0016
3979.00,0.0016
3978.00,0.0016
3977.00,0.0016
3976.00,0.0016
3975.00,0.0016
3974.00,0.0016
3973.00,0.0016
3972.00,0.0016
3971.00,0.0016
3970.00,0.0016
3969.00,0.0016
3968.00,0.0015
3967.00,0.0015
3966.00,0.0015
3965.00,0.0016
3964.00,0.0016
3963.00,0.0016
3962.00,0.0016
3961.00,0.0016
3960.00,0.0015
3959.00,0.0015
3958.00,0.0015
3957.00,0.0015
3956.00,0.0016
3955.00,0.0016
3954.00,0.0016
3953.00,0.0016
3952.00,0.0016
3951.00,0.0015
3950.00,0.0015
3949.00,0.0015
3948.00,0.0015
3947.00,0.0015
3946.00,0.0015
3945.00,0.0015
3944.00,0.0015
3943.00,0.0016
3942.00,0.0016
3941.00,0.0016
3940.00,0.0015
3939.00,0.0015
3938.00,0.0015
3937.00,0.0015
3936.00,0.0015
3935.00,0.0015
3934.00,0.0015
3933.00,0.0015
3932.00,0.0015
3931.00,0.0015
3930.00,0.0015
3929.00,0.0015
3928.00,0.0015
3927.00,0.0015
3926.00,0.0015
3925.00,0.0015
3924.00,0.0015
3923.00,0.0015
3922.00,0.0014
3921.00,0.0014
3920.00,0.0015
3919.00,0.0015
3918.00,0.0015
3917.00,0.0015
3916.00,0.0015
3915.00,0.0015
3914.00,0.0015
3913.00,0.0015
3912.00,0.0015
3911.00,0.0015
3910.00,0.0015
3909.00,0.0015
3908.00,0.0015
3907.00,0.0014
3906.00,0.0014
3905.00,0.0014
3904.00,0.0014
3903.00,0.0014
3902.00,0.0013
3901.00,0.0013
3900.00,0.0013
3899.00,0.0013
3898.00,0.0014
3897.00,0.0014
3896.00,0.0014
3895.00,0.0014
3894.00,0.0014
3893.00,0.0014
3892.00,0.0015
3891.00,0.0015
3890.00,0.0015
3889.00,0.0014
3888.00,0.0014
3887.00,0.0014
3886.00,0.0014
3885.00,0.0014
3884.00,0.0014
3883.00,0.0014
3882.00,0.0014
3881.00,0.0014
3880.00,0.0014
3879.00,0.0014
3878.00,0.0014
3877.00,0.0014
3876.00,0.0014
3875.00,0.0014
3874.00,0.0014
3873.00,0.0014
3872.00,0.0014
3871.00,0.0014
3870.00,0.0014
3869.00,0.0013
3868.00,0.0013
3867.00,0.0013
3866.00,0.0013
3865.00,0.0013
3864.00,0.0013
3863.00,0.0013
3862.00,0.0014
3861.00,0.0014
3860.00,0.0014
3859.00,0.0014
3858.00,0.0014
3857.00,0.0014
3856.00,0.0013
3855.00,0.0013
3854.00,0.0013
3853.00,0.0013
3852.00,0.0013
3851.00,0.0013
3850.00,0.0013
3849.00,0.0014
3848.00,0.0014
3847.00,0.0015
3846.00,0.0015
3845.00,0.0015
3844.00,0.0014
3843.00,0.0014
3842.00,0.0014
3841.00,0.0013
3840.00,0.0013
3839.00,0.0013
3838.00,0.0013
3837.00,0.0013
3836.00,0.0013
3835.00,0.0013
3834.00,0.0013
3833.00,0.0013
3832.00,0.0013
3831.00,0.0014
3830.00,0.0014
3829.00,0.0014
3828.00,0.0014
3827.00,0.0015
3826.00,0.0015
3825.00,0.0014
3824.00,0.0014
3823.00,0.0013
3822.00,0.0014
3821.00,0.0014
3820.00,0.0014
3819.00,0.0013
3818.00,0.0013
3817.00,0.0013
3816.00,0.0013
3815.00,0.0014
3814.00,0.0014
3813.00,0.0014
3812.00,0.0014
3811.00,0.0014
3810.00,0.0014
3809.00,0.0014
3808.00,0.0014
3807.00,0.0014
3806.00,0.0014
3805.00,0.0013
3804.00,0.0013
3803.00,0.0012
3802.00,0.0013
3801.00,0.0013
3800.00,0.0012
3799.00,0.0012
3798.00,0.0013
3797.00,0.0013
3796.00,0.0014
3795.00,0.0015
3794.00,0.0015
3793.00,0.0015
3792.00,0.0015
3791.00,0.0015
3790.00,0.0015
3789.00,0.0015
3788.00,0.0016
3787.00,0.0016
3786.00,0.0015
3785.00,0.0015
3784.00,0.0015
3783.00,0.0015
3782.00,0.0015
3781.00,0.0015
3780.00,0.0015
3779.00,0.0015
3778.00,0.0015
3777.00,0.0015
3776.00,0.0015
3775.00,0.0015
3774.00,0.0015
3773.00,0.0015
3772.00,0.0015
3771.00,0.0015
3770.00,0.0015
3769.00,0.0015
3768.00,0.0015
3767.00,0.0015
3766.00,0.0015
3765.00,0.0015
3764.00,0.0015
3763.00,0.0015
3762.00,0.0014
3761.00,0.0014
3760.00,0.0014
3759.00,0.0014
3758.00,0.0014
3757.00,0.0014
3756.00,0.0014
3755.00,0.0014
3754.00,0.0014
3753.00,0.0014
3752.00,0.0014
3751.00,0.0013
3750.00,0.0012
3749.00,0.0012
3748.00,0.0011
3747.00,0.0011
3746.00,0.0011
3745.00,0.0012
3744.00,0.0012
3743.00,0.0012
3742.00,0.0012
3741.00,0.0013
3740.00,0.0013
3739.00,0.0012
3738.00,0.0012
3737.00,0.0012
3736.00,0.0012
3735.00,0.0012
3734.00,0.0011
3733.00,0.0011
3732.00,0.0012
3731.00,0.0012
3730.00,0.0013
3729.00,0.0013
3728.00,0.0013
3727.00,0.0014
3726.00,0.0014
3725.00,0.0014
3724.00,0.0014
3723.00,0.0014
3722.00,0.0014
3721.00,0.0014
3720.00,0.0014
3719.00,0.0014
3718.00,0.0014
3717.00,0.0014
3716.00,0.0014
3715.00,0.0014
3714.00,0.0014
3713.00,0.0013
3712.00,0.0013
3711.00,0.0013
3710.00,0.0013
3709.00,0.0013
3708.00,0.0013
3707.00,0.0013
3706.00,0.0014
3705.00,0.0014
3704.00,0.0014
3703.00,0.0014
3702.00,0.0014
3701.00,0.0014
3700.00,0.0014
3699.00,0.0014
3698.00,0.0014
3697.00,0.0015
3696.00,0.0015
3695.00,0.0015
3694.00,0.0015
3693.00,0.0015
3692.00,0.0015
3691.00,0.0015
3690.00,0.0015
3689.00,0.0015
3688.00,0.0016
3687.00,0.0016
3686.00,0.0017
3685.00,0.0018
3684.00,0.0018
3683.00,0.0019
3682.00,0.0019
3681.00,0.0019
3680.00,0.0019
3679.00,0.0019
3678.00,0.0018
3677.00,0.0018
3676.00,0.0018
3675.00,0.0018
3674.00,0.0018
3673.00,0.0018
3672.00,0.0018
3671.00,0.0019
3670.00,0.0019
3669.00,0.0020
3668.00,0.0020
3667.00,0.0020
3666.00,0.0021
3665.00,0.0021
3664.00,0.0022
3663.00,0.0023
3662.00,0.0023
3661.00,0.0023
3660.00,0.0023
3659.00,0.0023
3658.00,0.0023
3657.00,0.0024
3656.00,0.0024
3655.00,0.0025
3654.00,0.0025
3653.00,0.0025
3652.00,0.0025
3651.00,0.0025
3650.00,0.0026
3649.00,0.0026
3648.00,0.0026
3647.00,0.0026
3646.00,0.0026
3645.00,0.0027
3644.00,0.0028
3643.00,0.0029
3642.00,0.0030
3641.00,0.0031
3640.00,0.0031
3639.00,0.0031
3638.00,0.0032
3637.00,0.0032
3636.00,0.0032
3635.00,0.0033
3634.00,0.0033
3633.00,0.0034
3632.00,0.0033
3631.00,0.0033
3630.00,0.0033
3629.00,0.0033
3628.00,0.0034
3627.00,0.0034
3626.00,0.0035
3625.00,0.0036
3624.00,0.0038
3623.00,0.0038
3622.00,0.0039
3621.00,0.0039
3620.00,0.0039
3619.00,0.0040
3618.00,0.0041
3617.00,0.0041
3616.00,0.0042
3615.00,0.0043
3614.00,0.0043
3613.00,0.0044
3612.00,0.0044
3611.00,0.0045
3610.00,0.0046
3609.00,0.0046
3608.00,0.0047
3607.00,0.0048
3606.00,0.0049
3605.00,0.0050
3604.00,0.0051
3603.00,0.0051
3602.00,0.0052
3601.00,0.0053
3600.00,0.0054
3599.00,0.0054
3598.00,0.0055
3597.00,0.0056
3596.00,0.0057
3595.00,0.0058
3594.00,0.0059
3593.00,0.0060
3592.00,0.0060
3591.00,0.0061
3590.00,0.0062
3589.00,0.0062
3588.00,0.0063
3587.00,0.0064
3586.00,0.0065
3585.00,0.0067
3584.00,0.0068
3583.00,0.0069
3582.00,0.0070
3581.00,0.0071
3580.00,0.0072
3579.00,0.0073
3578.00,0.0074
3577.00,0.0075
3576.00,0.0076
3575.00,0.0077
3574.00,0.0078
3573.00,0.0079
3572.00,0.0080
3571.00,0.0081
3570.00,0.0081
3569.00,0.0082
3568.00,0.0083
3567.00,0.0083
3566.00,0.0084
3565.00,0.0085
3564.00,0.0087
3563.00,0.0088
3562.00,0.0088
3561.00,0.0089
3560.00,0.0090
3559.00,0.0091
3558.00,0.0092
3557.00,0.0093
3556.00,0.0094
3555.00,0.0095
3554.00,0.0096
3553.00,0.0097
3552.00,0.0097
3551.00,0.0098
3550.00,0.0099
3549.00,0.0100
3548.00,0.0101
3547.00,0.0102
3546.00,0.0102
3545.00,0.0103
3544.00,0.0103
3543.00,0.0103
3542.00,0.0104
3541.00,0.0105
3540.00,0.0105
3539.00,0.0106
3538.00,0.0107
3537.00,0.0108
3536.00,0.0108
3535.00,0.0109
3534.00,0.0110
3533.00,0.0110
3532.00,0.0111
3531.00,0.0111
3530.00,0.0111
3529.00,0.0112
3528.00,0.0112
3527.00,0.0113
3526.00,0.0113
3525.00,0.0114
3524.00,0.0114
3523.00,0.0115
3522.00,0.0116
3521.00,0.0116
3520.00,0.0117
3519.00,0.0117
3518.00,0.0118
3517.00,0.0118
3516.00,0.0119
3515.00,0.0120
3514.00,0.0120
3513.00,0.0121
3512.00,0.0121
3511.00,0.0121
3510.00,0.0121
3509.00,0.0121
3508.00,0.0122
3507.00,0.0122
3506.00,0.0123
3505.00,0.0123
3504.00,0.0124
3503.00,0.0124
3502.00,0.0125
3501.00,0.0125
3500.00,0.0126
3499.00,0.0126
3498.00,0.0127
3497.00,0.0127
3496.00,0.0128
3495.00,0.0128
3494.00,0.0129
3493.00,0.0129
3492.00,0.0130
3491.00,0.0130
3490.00,0.0130
3489.00,0.0131
3488.00,0.0131
3487.00,0.0131
3486.00,0.0132
3485.00,0.0132
3484.00,0.0133
3483.00,0.0133
3482.00,0.0134
3481.00,0.0134
3480.00,0.0135
3479.00,0.0136
3478.00,0.0136
3477.00,0.0136
3476.00,0.0137
3475.00,0.0137
3474.00,0.0137
3473.00,0.0137
3472.00,0.0138
3471.00,0.0138
3470.00,0.0139
3469.00,0.0139
3468.00,0.0139
3467.00,0.0140
3466.00,0.0140
3465.00,0.0140
3464.00,0.0140
3463.00,0.0140
3462.00,0.0140
3461.00,0.0141
3460.00,0.0141
3459.00,0.0141
3458.00,0.0142
3457.00,0.0142
3456.00,0.0142
3455.00,0.0142
3454.00,0.0142
3453.00,0.0142
3452.00,0.0142
3451.00,0.0143
3450.00,0.0143
3449.00,0.0142
3448.00,0.0142
3447.00,0.0142
3446.00,0.0142
3445.00,0.0143
3444.00,0.0143
3443.00,0.0143
3442.00,0.0143
3441.00,0.0143
3440.00,0.0143
3439.00,0.0143
3438.00,0.0143
3437.00,0.0143
3436.00,0.0143
3435.00,0.0143
3434.00,0.0143
3433.00,0.0143
3432.00,0.0143
3431.00,0.0143
3430.00,0.0143
3429.00,0.0143
3428.00,0.0142
3427.00,0.0142
3426.00,0.0142
3425.00,0.0142
3424.00,0.0142
3423.00,0.0142
3422.00,0.0142
3421.00,0.0141
3420.00,0.0141
3419.00,0.0141
3418.00,0.0141
3417.00,0.0141
3416.00,0.0141
3415.00,0.0140
3414.00,0.0140
3413.00,0.0140
3412.00,0.0140
3411.00,0.0140
3410.00,0.0140
3409.00,0.0139
3408.00,0.0139
3407.00,0.0139
3406.00,0.0139
3405.00,0.0139
3404.00,0.0139
3403.00,0.0139
3402.00,0.0138
3401.00,0.0138
3400.00,0.0138
3399.00,0.0138
3398.00,0.0137
3397.00,0.0137
3396.00,0.0137
3395.00,0.0137
3394.00,0.0137
3393.00,0.0137
3392.00,0.0137
3391.00,0.0136
3390.00,0.0136
3389.00,0.0136
3388.00,0.0135
3387.00,0.0135
3386.00,0.0135
3385.00,0.0135
3384.00,0.0135
3383.00,0.0135
3382.00,0.0135
3381.00,0.0135
3380.00,0.0134
3379.00,0.0134
3378.00,0.0134
3377.00,0.0133
3376.00,0.0133
3375.00,0.0133
3374.00,0.0133
3373.00,0.0133
3372.00,0.0132
3371.00,0.0132
3370.00,0.0131
3369.00,0.0131
3368.00,0.0131
3367.00,0.0130
3366.00,0.0130
3365.00,0.0131
3364.00,0.0131
3363.00,0.0131
3362.00,0.0131
3361.00,0.0131
3360.00,0.0131
3359.00,0.0131
3358.00,0.0131
3357.00,0.0131
3356.00,0.0131
3355.00,0.0130
3354.00,0.0130
3353.00,0.0129
3352.00,0.0129
3351.00,0.0129
3350.00,0.0128
3349.00,0.0129
3348.00,0.0129
3347.00,0.0129
3346.00,0.0129
3345.00,0.0128
3344.00,0.0128
3343.00,0.0128
3342.00,0.0127
3341.00,0.0127
3340.00,0.0127
3339.00,0.0126
3338.00,0.0126
3337.00,0.0127
3336.00,0.0127
3335.00,0.0127
3334.00,0.0127
3333.00,0.0127
3332.00,0.0127
3331.00,0.0126
3330.00,0.0126
3329.00,0.0126
3328.00,0.0125
3327.00,0.0125
3326.00,0.0125
3325.00,0.0124
3324.00,0.0125
3323.00,0.0125
3322.00,0.0125
3321.00,0.0125
3320.00,0.0125
3319.00,0.0125
3318.00,0.0124
3317.00,0.0124
3316.00,0.0124
3315.00,0.0123
3314.00,0.0123
3313.00,0.0123
3312.00,0.0123
3311.00,0.0122
3310.00,0.0122
3309.00,0.0121
3308.00,0.0120
3307.00,0.0119
3306.00,0.0119
3305.00,0.0120
3304.00,0.0120
3303.00,0.0121
3302.00,0.0121
3301.00,0.0122
3300.00,0.0122
3299.00,0.0121
3298.00,0.0121
3297.00,0.0121
3296.00,0.0120
3295.00,0.0120
3294.00,0.0120
3293.00,0.0120
3292.00,0.0120
3291.00,0.0120
3290.00,0.0121
3289.00,0.0121
3288.00,0.0121
3287.00,0.0121
3286.00,0.0121
3285.00,0.0120
3284.00,0.0120
3283.00,0.0120
3282.00,0.0120
3281.00,0.0120
3280.00,0.0119
3279.00,0.0119
3278.00,0.0119
3277.00,0.0119
3276.00,0.0119
3275.00,0.0118
3274.00,0.0118
3273.00,0.0118
3272.00,0.0117
3271.00,0.0117
3270.00,0.0117
3269.00,0.0118
3268.00,0.0118
3267.00,0.0118
3266.00,0.0117
3265.00,0.0117
3264.00,0.0117
3263.00,0.0117
3262.00,0.0117
3261.00,0.0117
3260.00,0.0117
3259.00,0.0117
3258.00,0.0116
3257.00,0.0116
3256.00,0.0116
3255.00,0.0115
3254.00,0.0115
3253.00,0.0115
3252.00,0.0115
3251.00,0.0115
3250.00,0.0114
3249.00,0.0114
3248.00,0.0114
3247.00,0.0113
3246.00,0.0113
3245.00,0.0113
3244.00,0.0113
3243.00,0.0113
3242.00,0.0113
3241.00,0.0113
3240.00,0.0113
3239.00,0.0113
3238.00,0.0112
3237.00,0.0112
3236.00,0.0112
3235.00,0.0112
3234.00,0.0112
3233.00,0.0111
3232.00,0.0111
3231.00,0.0111
3230.00,0.0111
3229.00,0.0111
3228.00,0.0111
3227.00,0.0111
3226.00,0.0110
3225.00,0.0110
3224.00,0.0110
3223.00,0.0109
3222.00,0.0109
3221.00,0.0109
3220.00,0.0109
3219.00,0.0109
3218.00,0.0108
3217.00,0.0108
3216.00,0.0108
3215.00,0.0108
3214.00,0.0108
3213.00,0.0107
3212.00,0.0107
3211.00,0.0107
3210.00,0.0106
3209.00,0.0106
3208.00,0.0106
3207.00,0.0106
3206.00,0.0106
3205.00,0.0105
3204.00,0.0105
3203.00,0.0105
3202.00,0.0104
3201.00,0.0104
3200.00,0.0104
3199.00,0.0104
3198.00,0.0103
3197.00,0.0103
3196.00,0.0103
3195.00,0.0103
3194.00,0.0103
3193.00,0.0102
3192.00,0.0102
3191.00,0.0102
3190.00,0.0102
3189.00,0.0102
3188.00,0.0102
3187.00,0.0102
3186.00,0.0102
3185.00,0.0102
3184.00,0.0102
3183.00,0.0101
3182.00,0.0101
3181.00,0.0100
3180.00,0.0100
3179.00,0.0100
3178.00,0.0100
3177.00,0.0100
3176.00,0.0100
3175.00,0.0100
3174.00,0.0099
3173.00,0.0099
3172.00,0.0099
3171.00,0.0099
3170.00,0.0099
3169.00,0.0099
3168.00,0.0099
3167.00,0.0098
3166.00,0.0098
3165.00,0.0098
3164.00,0.0098
3163.00,0.0097
3162.00,0.0097
3161.00,0.0097
3160.00,0.0097
3159.00,0.0097
3158.00,0.0096
3157.00,0.0096
3156.00,0.0096
3155.00,0.0096
3154.00,0.0095
3153.00,0.0095
3152.00,0.0095
3151.00,0.0095
3150.00,0.0094
3149.00,0.0094
3148.00,0.0094
3147.00,0.0093
3146.00,0.0093
3145.00,0.0093
3144.00,0.0093
3143.00,0.0093
3142.00,0.0093
3141.00,0.0093
3140.00,0.0093
3139.00,0.0093
3138.00,0.0092
3137.00,0.0092
3136.00,0.0092
3135.00,0.0091
3134.00,0.0091
3133.00,0.0091
3132.00,0.0091
3131.00,0.0091
3130.00,0.0091
3129.00,0.0091
3128.00,0.0091
3127.00,0.0090
3126.00,0.0090
3125.00,0.0090
3124.00,0.0090
3123.00,0.0091
3122.00,0.0091
3121.00,0.0091
3120.00,0.0091
3119.00,0.0090
3118.00,0.0090
3117.00,0.0090
3116.00,0.0090
3115.00,0.0089
3114.00,0.0089
3113.00,0.0089
3112.00,0.0089
3111.00,0.0088
3110.00,0.0088
3109.00,0.0088
3108.00,0.0087
3107.00,0.0087
3106.00,0.0087
3105.00,0.0087
3104.00,0.0087
3103.00,0.0086
3102.00,0.0086
3101.00,0.0086
3100.00,0.0086
3099.00,0.0085
3098.00,0.0085
3097.00,0.0085
3096.00,0.0085
3095.00,0.0085
3094.00,0.0085
3093.00,0.0085
3092.00,0.0085
3091.00,0.0085
3090.00,0.0085
3089.00,0.0085
3088.00,0.0085
3087.00,0.0085
3086.00,0.0085
3085.00,0.0085
3084.00,0.0085
3083.00,0.0085
3082.00,0.0085
3081.00,0.0086
3080.00,0.0086
3079.00,0.0086
3078.00,0.0086
3077.00,0.0085
3076.00,0.0085
3075.00,0.0085
3074.00,0.0085
3073.00,0.0085
3072.00,0.0085
3071.00,0.0084
3070.00,0.0084
3069.00,0.0084
3068.00,0.0084
3067.00,0.0083
3066.00,0.0083
3065.00,0.0083
3064.00,0.0082
3063.00,0.0082
3062.00,0.0082
3061.00,0.0082
3060.00,0.0082
3059.00,0.0082
3058.00,0.0082
3057.00,0.0082
3056.00,0.0082
3055.00,0.0081
3054.00,0.0081
3053.00,0.0081
3052.00,0.0081
3051.00,0.0080
3050.00,0.0080
3049.00,0.0080
3048.00,0.0080
3047.00,0.0080
3046.00,0.0080
3045.00,0.0080
3044.00,0.0080
3043.00,0.0080
3042.00,0.0080
3041.00,0.0080
3040.00,0.0080
3039.00,0.0080
3038.00,0.0080
3037.00,0.0080
3036.00,0.0080
3035.00,0.0080
3034.00,0.0080
3033.00,0.0080
3032.00,0.0080
3031.00,0.0080
3030.00,0.0080
3029.00,0.0080
3028.00,0.0080
3027.00,0.0080
3026.00,0.0080
3025.00,0.0080
3024.00,0.0080
3023.00,0.0080
3022.00,0.0080
3021.00,0.0080
3020.00,0.0081
3019.00,0.0081
3018.00,0.0082
3017.00,0.0082
3016.00,0.0083
3015.00,0.0083
3014.00,0.0084
3013.00,0.0085
3012.00,0.0086
3011.00,0.0087
3010.00,0.0089
3009.00,0.0090
3008.00,0.0092
3007.00,0.0094
3006.00,0.0096
3005.00,0.0099
3004.00,0.0101
3003.00,0.0104
3002.00,0.0107
3001.00,0.0110
3000.00,0.0114
2999.00,0.0117
2998.00,0.0121
2997.00,0.0126
2996.00,0.0130
2995.00,0.0135
2994.00,0.0140
2993.00,0.0145
2992.00,0.0150
2991.00,0.0156
2990.00,0.0161
2989.00,0.0167
2988.00,0.0172
2987.00,0.0178
2986.00,0.0183
2985.00,0.0188
2984.00,0.0192
2983.00,0.0197
2982.00,0.0201
2981.00,0.0205
2980.00,0.0208
2979.00,0.0212
2978.00,0.0215
2977.00,0.0218
2976.00,0.0220
2975.00,0.0223
2974.00,0.0225
2973.00,0.0227
2972.00,0.0229
2971.00,0.0232
2970.00,0.0234
2969.00,0.0237
2968.00,0.0240
2967.00,0.0243
2966.00,0.0246
2965.00,0.0249
2964.00,0.0253
2963.00,0.0257
2962.00,0.0261
2961.00,0.0264
2960.00,0.0268
2959.00,0.0271
2958.00,0.0274
2957.00,0.0277
2956.00,0.0280
2955.00,0.0282
2954.00,0.0284
2953.00,0.0285
2952.00,0.0286
2951.00,0.0287
2950.00,0.0286
2949.00,0.0286
2948.00,0.0285
2947.00,0.0283
2946.00,0.0282
2945.00,0.0281
2944.00,0.0281
2943.00,0.0280
2942.00,0.0279
2941.00,0.0279
2940.00,0.0279
2939.00,0.0280
2938.00,0.0280
2937.00,0.0282
2936.00,0.0284
2935.00,0.0286
2934.00,0.0288
2933.00,0.0290
2932.00,0.0293
2931.00,0.0295
2930.00,0.0298
2929.00,0.0300
2928.00,0.0302
2927.00,0.0304
2926.00,0.0305
2925.00,0.0306
2924.00,0.0306
2923.00,0.0306
2922.00,0.0305
2921.00,0.0303
2920.00,0.0301
2919.00,0.0299
2918.00,0.0296
2917.00,0.0292
2916.00,0.0288
2915.00,0.0283
2914.00,0.0279
2913.00,0.0273
2912.00,0.0268
2911.00,0.0262
2910.00,0.0257
2909.00,0.0252
2908.00,0.0248
2907.00,0.0244
2906.00,0.0240
2905.00,0.0237
2904.00,0.0234
2903.00,0.0232
2902.00,0.0230
2901.00,0.0228
2900.00,0.0227
2899.00,0.0226
2898.00,0.0226
2897.00,0.0225
2896.00,0.0225
2895.00,0.0226
2894.00,0.0226
2893.00,0.0226
2892.00,0.0226
2891.00,0.0225
2890.00,0.0225
2889.00,0.0225
2888.00,0.0224
2887.00,0.0224
2886.00,0.0224
2885.00,0.0223
2884.00,0.0223
2883.00,0.0223
2882.00,0.0223
2881.00,0.0223
2880.00,0.0224
2879.00,0.0224
2878.00,0.0225
2877.00,0.0225
2876.00,0.0226
2875.00,0.0227
2874.00,0.0227
2873.00,0.0228
2872.00,0.0228
2871.00,0.0228
2870.00,0.0227
2869.00,0.0226
2868.00,0.0225
2867.00,0.0224
2866.00,0.0223
2865.00,0.0222
2864.00,0.0221
2863.00,0.0221
2862.00,0.0221
2861.00,0.0221
2860.00,0.0220
2859.00,0.0220
2858.00,0.0218
2857.00,0.0216
2856.00,0.0214
2855.00,0.0211
2854.00,0.0207
2853.00,0.0202
2852.00,0.0197
2851.00,0.0192
2850.00,0.0186
2849.00,0.0180
2848.00,0.0174
2847.00,0.0168
2846.00,0.0163
2845.00,0.0157
2844.00,0.0152
2843.00,0.0147
2842.00,0.0142
2841.00,0.0138
2840.00,0.0134
2839.00,0.0130
2838.00,0.0127
2837.00,0.0124
2836.00,0.0121
2835.00,0.0118
2834.00,0.0116
2833.00,0.0113
2832.00,0.0111
2831.00,0.0108
2830.00,0.0106
2829.00,0.0104
2828.00,0.0102
2827.00,0.0100
2826.00,0.0098
2825.00,0.0096
2824.00,0.0094
2823.00,0.0093
2822.00,0.0091
2821.00,0.0089
2820.00,0.0088
2819.00,0.0086
2818.00,0.0085
2817.00,0.0083
2816.00,0.0082
2815.00,0.0081
2814.00,0.0080
2813.00,0.0079
2812.00,0.0077
2811.00,0.0076
2810.00,0.0075
2809.00,0.0074
2808.00,0.0073
2807.00,0.0071
2806.00,0.0070
2805.00,0.0069
2804.00,0.0068
2803.00,0.0068
2802.00,0.0067
2801.00,0.0066
2800.00,0.0065
2799.00,0.0065
2798.00,0.0064
2797.00,0.0063
2796.00,0.0062
2795.00,0.0062
2794.00,0.0061
2793.00,0.0061
2792.00,0.0061
2791.00,0.0060
2790.00,0.0059
2789.00,0.0059
2788.00,0.0058
2787.00,0.0058
2786.00,0.0058
2785.00,0.0057
2784.00,0.0057
2783.00,0.0056
2782.00,0.0056
2781.00,0.0056
2780.00,0.0055
2779.00,0.0055
2778.00,0.0054
2777.00,0.0054
2776.00,0.0054
2775.00,0.0053
2774.00,0.0053
2773.00,0.0053
2772.00,0.0052
2771.00,0.0052
2770.00,0.0052
2769.00,0.0051
2768.00,0.0051
2767.00,0.0051
2766.00,0.0051
2765.00,0.0050
2764.00,0.0050
2763.00,0.0050
2762.00,0.0050
2761.00,0.0050
2760.00,0.0050
2759.00,0.0050
2758.00,0.0049
2757.00,0.0049
