Created as New Dataset,Sample 955 By YargerLab Date Tuesday, July 29 2025
cm-1,A
4000.00,0.0075
3999.00,0.0075
3998.00,0.0075
3997.00,0.0075
3996.00,0.0075
3995.00,0.0075
3994.00,0.0075
3993.00,0.0075
3992.00,0.0074
3991.00,0.0074
3990.00,0.0074
3989.00,0.0075
3988.00,0.0075
3987.00,0.0075
3986.00,0.0075
3985.00,0.0075
3984.00,0.0075
3983.00,0.0075
3982.00,0.0075
3981.00,0.0074
3980.00,0.0074
3979.00,0.0074
3978.00,0.0075
3977.00,0.0075
3976.00,0.0075
3975.00,0.0076
3974.00,0.0076
3973.00,0.0076
3972.00,0.0076
3971.00,0.0077
3970.00,0.0077
3969.00,0.0077
3968.00,0.0076
3967.00,0.0076
3966.00,0.0076
3965.00,0.0076
3964.00,0.0076
3963.00,0.0076
3962.00,0.0076
3961.00,0.0075
3960.00,0.0075
3959.00,0.0075
3958.00,0.0075
3957.00,0.0075
3956.00,0.0075
3955.00,0.0075
3954.00,0.0075
3953.00,0.0075
3952.00,0.0075
3951.00,0.0075
3950.00,0.0075
3949.00,0.0075
3948.00,0.0076
3947.00,0.0076
3946.00,0.0075
3945.00,0.0075
3944.00,0.0075
3943.00,0.0075
3942.00,0.0075
3941.00,0.0075
3940.00,0.0075
3939.00,0.0075
3938.00,0.0075
3937.00,0.0075
3936.00,0.0074
3935.00,0.0074
3934.00,0.0074
3933.00,0.0074
3932.00,0.0074
3931.00,0.0075
3930.00,0.0075
3929.00,0.0075
3928.00,0.0074
3927.00,0.0074
3926.00,0.0075
3925.00,0.0075
3924.00,0.0075
3923.00,0.0075
3922.00,0.0075
3921.00,0.0075
3920.00,0.0075
3919.00,0.0075
3918.00,0.0075
3917.00,0.0075
3916.00,0.0075
3915.00,0.0075
3914.00,0.0075
3913.00,0.0075
3912.00,0.0075
3911.00,0.0075
3910.00,0.0075
3909.00,0.0075
3908.00,0.0075
3907.00,0.0074
3906.00,0.0074
3905.00,0.0074
3904.00,0.0074
3903.00,0.0075
3902.00,0.0075
3901.00,0.0075
3900.00,0.0075
3899.00,0.0075
3898.00,0.0075
3897.00,0.0075
3896.00,0.0074
3895.00,0.0074
3894.00,0.0074
3893.00,0.0074
3892.00,0.0074
3891.00,0.0074
3890.00,0.0074
3889.00,0.0074
3888.00,0.0074
3887.00,0.0074
3886.00,0.0074
3885.00,0.0074
3884.00,0.0074
3883.00,0.0074
3882.00,0.0074
3881.00,0.0074
3880.00,0.0074
3879.00,0.0074
3878.00,0.0074
3877.00,0.0074
3876.00,0.0073
3875.00,0.0073
3874.00,0.0073
3873.00,0.0073
3872.00,0.0073
3871.00,0.0073
3870.00,0.0073
3869.00,0.0072
3868.00,0.0073
3867.00,0.0073
3866.00,0.0073
3865.00,0.0073
3864.00,0.0073
3863.00,0.0073
3862.00,0.0073
3861.00,0.0073
3860.00,0.0073
3859.00,0.0073
3858.00,0.0073
3857.00,0.0074
3856.00,0.0074
3855.00,0.0074
3854.00,0.0074
3853.00,0.0074
3852.00,0.0073
3851.00,0.0073
3850.00,0.0073
3849.00,0.0073
3848.00,0.0073
3847.00,0.0073
3846.00,0.0073
3845.00,0.0073
3844.00,0.0072
3843.00,0.0072
3842.00,0.0072
3841.00,0.0072
3840.00,0.0072
3839.00,0.0072
3838.00,0.0072
3837.00,0.0072
3836.00,0.0072
3835.00,0.0072
3834.00,0.0072
3833.00,0.0072
3832.00,0.0072
3831.00,0.0072
3830.00,0.0072
3829.00,0.0073
3828.00,0.0073
3827.00,0.0072
3826.00,0.0072
3825.00,0.0072
3824.00,0.0072
3823.00,0.0072
3822.00,0.0072
3821.00,0.0072
3820.00,0.0071
3819.00,0.0071
3818.00,0.0072
3817.00,0.0072
3816.00,0.0072
3815.00,0.0072
3814.00,0.0072
3813.00,0.0073
3812.00,0.0073
3811.00,0.0073
3810.00,0.0072
3809.00,0.0072
3808.00,0.0072
3807.00,0.0072
3806.00,0.0071
3805.00,0.0071
3804.00,0.0071
3803.00,0.0071
3802.00,0.0071
3801.00,0.0071
3800.00,0.0071
3799.00,0.0071
3798.00,0.0071
3797.00,0.0072
3796.00,0.0072
3795.00,0.0072
3794.00,0.0072
3793.00,0.0072
3792.00,0.0073
3791.00,0.0073
3790.00,0.0072
3789.00,0.0072
3788.00,0.0072
3787.00,0.0073
3786.00,0.0073
3785.00,0.0073
3784.00,0.0072
3783.00,0.0072
3782.00,0.0072
3781.00,0.0072
3780.00,0.0072
3779.00,0.0072
3778.00,0.0072
3777.00,0.0072
3776.00,0.0072
3775.00,0.0072
3774.00,0.0072
3773.00,0.0072
3772.00,0.0072
3771.00,0.0072
3770.00,0.0072
3769.00,0.0072
3768.00,0.0073
3767.00,0.0073
3766.00,0.0073
3765.00,0.0073
3764.00,0.0073
3763.00,0.0073
3762.00,0.0073
3761.00,0.0073
3760.00,0.0073
3759.00,0.0072
3758.00,0.0072
3757.00,0.0072
3756.00,0.0071
3755.00,0.0071
3754.00,0.0071
3753.00,0.0071
3752.00,0.0070
3751.00,0.0070
3750.00,0.0070
3749.00,0.0070
3748.00,0.0070
3747.00,0.0071
3746.00,0.0072
3745.00,0.0072
3744.00,0.0071
3743.00,0.0071
3742.00,0.0071
3741.00,0.0071
3740.00,0.0071
3739.00,0.0071
3738.00,0.0071
3737.00,0.0071
3736.00,0.0070
3735.00,0.0070
3734.00,0.0070
3733.00,0.0071
3732.00,0.0071
3731.00,0.0070
3730.00,0.0071
3729.00,0.0071
3728.00,0.0071
3727.00,0.0071
3726.00,0.0071
3725.00,0.0071
3724.00,0.0071
3723.00,0.0071
3722.00,0.0071
3721.00,0.0071
3720.00,0.0071
3719.00,0.0071
3718.00,0.0071
3717.00,0.0070
3716.00,0.0070
3715.00,0.0070
3714.00,0.0070
3713.00,0.0070
3712.00,0.0069
3711.00,0.0069
3710.00,0.0069
3709.00,0.0069
3708.00,0.0069
3707.00,0.0069
3706.00,0.0069
3705.00,0.0069
3704.00,0.0069
3703.00,0.0069
3702.00,0.0069
3701.00,0.0069
3700.00,0.0069
3699.00,0.0069
3698.00,0.0069
3697.00,0.0069
3696.00,0.0069
3695.00,0.0069
3694.00,0.0069
3693.00,0.0069
3692.00,0.0069
3691.00,0.0069
3690.00,0.0069
3689.00,0.0069
3688.00,0.0069
3687.00,0.0069
3686.00,0.0069
3685.00,0.0069
3684.00,0.0069
3683.00,0.0069
3682.00,0.0069
3681.00,0.0069
3680.00,0.0069
3679.00,0.0068
3678.00,0.0068
3677.00,0.0068
3676.00,0.0068
3675.00,0.0067
3674.00,0.0068
3673.00,0.0068
3672.00,0.0069
3671.00,0.0069
3670.00,0.0068
3669.00,0.0069
3668.00,0.0069
3667.00,0.0070
3666.00,0.0070
3665.00,0.0070
3664.00,0.0069
3663.00,0.0069
3662.00,0.0069
3661.00,0.0069
3660.00,0.0069
3659.00,0.0069
3658.00,0.0069
3657.00,0.0069
3656.00,0.0069
3655.00,0.0068
3654.00,0.0069
3653.00,0.0069
3652.00,0.0069
3651.00,0.0068
3650.00,0.0068
3649.00,0.0067
3648.00,0.0067
3647.00,0.0068
3646.00,0.0068
3645.00,0.0068
3644.00,0.0068
3643.00,0.0068
3642.00,0.0068
3641.00,0.0068
3640.00,0.0068
3639.00,0.0069
3638.00,0.0069
3637.00,0.0069
3636.00,0.0069
3635.00,0.0069
3634.00,0.0069
3633.00,0.0069
3632.00,0.0069
3631.00,0.0069
3630.00,0.0070
3629.00,0.0070
3628.00,0.0070
3627.00,0.0070
3626.00,0.0069
3625.00,0.0069
3624.00,0.0069
3623.00,0.0069
3622.00,0.0069
3621.00,0.0070
3620.00,0.0070
3619.00,0.0069
3618.00,0.0069
3617.00,0.0069
3616.00,0.0069
3615.00,0.0069
3614.00,0.0069
3613.00,0.0070
3612.00,0.0070
3611.00,0.0071
3610.00,0.0071
3609.00,0.0071
3608.00,0.0072
3607.00,0.0072
3606.00,0.0072
3605.00,0.0072
3604.00,0.0072
3603.00,0.0071
3602.00,0.0071
3601.00,0.0071
3600.00,0.0070
3599.00,0.0070
3598.00,0.0070
3597.00,0.0071
3596.00,0.0071
3595.00,0.0071
3594.00,0.0071
3593.00,0.0071
3592.00,0.0071
3591.00,0.0071
3590.00,0.0071
3589.00,0.0071
3588.00,0.0071
3587.00,0.0072
3586.00,0.0072
3585.00,0.0073
3584.00,0.0073
3583.00,0.0073
3582.00,0.0073
3581.00,0.0073
3580.00,0.0073
3579.00,0.0073
3578.00,0.0073
3577.00,0.0073
3576.00,0.0073
3575.00,0.0074
3574.00,0.0074
3573.00,0.0074
3572.00,0.0074
3571.00,0.0074
3570.00,0.0074
3569.00,0.0075
3568.00,0.0075
3567.00,0.0075
3566.00,0.0075
3565.00,0.0076
3564.00,0.0076
3563.00,0.0076
3562.00,0.0076
3561.00,0.0077
3560.00,0.0077
3559.00,0.0077
3558.00,0.0077
3557.00,0.0078
3556.00,0.0078
3555.00,0.0078
3554.00,0.0079
3553.00,0.0079
3552.00,0.0079
3551.00,0.0079
3550.00,0.0080
3549.00,0.0080
3548.00,0.0081
3547.00,0.0081
3546.00,0.0082
3545.00,0.0082
3544.00,0.0083
3543.00,0.0083
3542.00,0.0084
3541.00,0.0084
3540.00,0.0084
3539.00,0.0084
3538.00,0.0084
3537.00,0.0085
3536.00,0.0085
3535.00,0.0086
3534.00,0.0086
3533.00,0.0087
3532.00,0.0087
3531.00,0.0087
3530.00,0.0087
3529.00,0.0088
3528.00,0.0089
3527.00,0.0089
3526.00,0.0090
3525.00,0.0091
3524.00,0.0092
3523.00,0.0092
3522.00,0.0092
3521.00,0.0093
3520.00,0.0093
3519.00,0.0093
3518.00,0.0094
3517.00,0.0095
3516.00,0.0095
3515.00,0.0095
3514.00,0.0095
3513.00,0.0096
3512.00,0.0096
3511.00,0.0097
3510.00,0.0098
3509.00,0.0098
3508.00,0.0099
3507.00,0.0099
3506.00,0.0100
3505.00,0.0100
3504.00,0.0101
3503.00,0.0102
3502.00,0.0103
3501.00,0.0103
3500.00,0.0104
3499.00,0.0104
3498.00,0.0105
3497.00,0.0106
3496.00,0.0107
3495.00,0.0108
3494.00,0.0109
3493.00,0.0109
3492.00,0.0110
3491.00,0.0111
3490.00,0.0112
3489.00,0.0113
3488.00,0.0114
3487.00,0.0115
3486.00,0.0117
3485.00,0.0118
3484.00,0.0119
3483.00,0.0120
3482.00,0.0122
3481.00,0.0123
3480.00,0.0124
3479.00,0.0125
3478.00,0.0127
3477.00,0.0128
3476.00,0.0129
3475.00,0.0131
3474.00,0.0132
3473.00,0.0134
3472.00,0.0135
3471.00,0.0136
3470.00,0.0138
3469.00,0.0139
3468.00,0.0141
3467.00,0.0143
3466.00,0.0144
3465.00,0.0146
3464.00,0.0148
3463.00,0.0149
3462.00,0.0151
3461.00,0.0153
3460.00,0.0155
3459.00,0.0156
3458.00,0.0158
3457.00,0.0160
3456.00,0.0162
3455.00,0.0164
3454.00,0.0166
3453.00,0.0168
3452.00,0.0170
3451.00,0.0172
3450.00,0.0173
3449.00,0.0175
3448.00,0.0177
3447.00,0.0180
3446.00,0.0182
3445.00,0.0184
3444.00,0.0186
3443.00,0.0189
3442.00,0.0191
3441.00,0.0193
3440.00,0.0196
3439.00,0.0198
3438.00,0.0201
3437.00,0.0203
3436.00,0.0206
3435.00,0.0209
3434.00,0.0211
3433.00,0.0214
3432.00,0.0217
3431.00,0.0220
3430.00,0.0223
3429.00,0.0226
3428.00,0.0230
3427.00,0.0233
3426.00,0.0236
3425.00,0.0239
3424.00,0.0243
3423.00,0.0246
3422.00,0.0249
3421.00,0.0252
3420.00,0.0256
3419.00,0.0260
3418.00,0.0263
3417.00,0.0266
3416.00,0.0270
3415.00,0.0273
3414.00,0.0276
3413.00,0.0278
3412.00,0.0281
3411.00,0.0284
3410.00,0.0286
3409.00,0.0289
3408.00,0.0291
3407.00,0.0293
3406.00,0.0295
3405.00,0.0297
3404.00,0.0298
3403.00,0.0300
3402.00,0.0301
3401.00,0.0302
3400.00,0.0303
3399.00,0.0303
3398.00,0.0303
3397.00,0.0303
3396.00,0.0302
3395.00,0.0302
3394.00,0.0302
3393.00,0.0301
3392.00,0.0300
3391.00,0.0299
3390.00,0.0298
3389.00,0.0296
3388.00,0.0295
3387.00,0.0293
3386.00,0.0291
3385.00,0.0290
3384.00,0.0288
3383.00,0.0286
3382.00,0.0284
3381.00,0.0282
3380.00,0.0280
3379.00,0.0278
3378.00,0.0276
3377.00,0.0274
3376.00,0.0272
3375.00,0.0270
3374.00,0.0268
3373.00,0.0266
3372.00,0.0264
3371.00,0.0262
3370.00,0.0261
3369.00,0.0259
3368.00,0.0257
3367.00,0.0256
3366.00,0.0254
3365.00,0.0252
3364.00,0.0251
3363.00,0.0249
3362.00,0.0247
3361.00,0.0246
3360.00,0.0245
3359.00,0.0243
3358.00,0.0242
3357.00,0.0241
3356.00,0.0240
3355.00,0.0239
3354.00,0.0238
3353.00,0.0236
3352.00,0.0235
3351.00,0.0234
3350.00,0.0233
3349.00,0.0232
3348.00,0.0231
3347.00,0.0231
3346.00,0.0230
3345.00,0.0230
3344.00,0.0229
3343.00,0.0229
3342.00,0.0228
3341.00,0.0228
3340.00,0.0227
3339.00,0.0227
3338.00,0.0227
3337.00,0.0226
3336.00,0.0226
3335.00,0.0226
3334.00,0.0226
3333.00,0.0226
3332.00,0.0226
3331.00,0.0226
3330.00,0.0226
3329.00,0.0226
3328.00,0.0226
3327.00,0.0226
3326.00,0.0226
3325.00,0.0227
3324.00,0.0227
3323.00,0.0227
3322.00,0.0228
3321.00,0.0228
3320.00,0.0228
3319.00,0.0229
3318.00,0.0229
3317.00,0.0230
3316.00,0.0231
3315.00,0.0231
3314.00,0.0232
3313.00,0.0233
3312.00,0.0234
3311.00,0.0234
3310.00,0.0235
3309.00,0.0236
3308.00,0.0237
3307.00,0.0238
3306.00,0.0239
3305.00,0.0240
3304.00,0.0241
3303.00,0.0242
3302.00,0.0243
3301.00,0.0244
3300.00,0.0245
3299.00,0.0247
3298.00,0.0248
3297.00,0.0249
3296.00,0.0250
3295.00,0.0251
3294.00,0.0252
3293.00,0.0253
3292.00,0.0254
3291.00,0.0256
3290.00,0.0257
3289.00,0.0258
3288.00,0.0259
3287.00,0.0261
3286.00,0.0262
3285.00,0.0264
3284.00,0.0265
3283.00,0.0267
3282.00,0.0268
3281.00,0.0269
3280.00,0.0271
3279.00,0.0272
3278.00,0.0273
3277.00,0.0275
3276.00,0.0276
3275.00,0.0277
3274.00,0.0279
3273.00,0.0280
3272.00,0.0282
3271.00,0.0283
3270.00,0.0285
3269.00,0.0286
3268.00,0.0287
3267.00,0.0288
3266.00,0.0289
3265.00,0.0291
3264.00,0.0292
3263.00,0.0294
3262.00,0.0295
3261.00,0.0297
3260.00,0.0299
3259.00,0.0300
3258.00,0.0301
3257.00,0.0303
3256.00,0.0304
3255.00,0.0305
3254.00,0.0307
3253.00,0.0309
3252.00,0.0311
3251.00,0.0312
3250.00,0.0313
3249.00,0.0314
3248.00,0.0315
3247.00,0.0316
3246.00,0.0317
3245.00,0.0318
3244.00,0.0319
3243.00,0.0321
3242.00,0.0322
3241.00,0.0323
3240.00,0.0323
3239.00,0.0324
3238.00,0.0325
3237.00,0.0325
3236.00,0.0324
3235.00,0.0324
3234.00,0.0324
3233.00,0.0324
3232.00,0.0325
3231.00,0.0325
3230.00,0.0326
3229.00,0.0326
3228.00,0.0326
3227.00,0.0327
3226.00,0.0327
3225.00,0.0327
3224.00,0.0327
3223.00,0.0327
3222.00,0.0326
3221.00,0.0326
3220.00,0.0325
3219.00,0.0324
3218.00,0.0323
3217.00,0.0323
3216.00,0.0322
3215.00,0.0321
3214.00,0.0320
3213.00,0.0319
3212.00,0.0318
3211.00,0.0317
3210.00,0.0316
3209.00,0.0315
3208.00,0.0314
3207.00,0.0312
3206.00,0.0311
3205.00,0.0309
3204.00,0.0307
3203.00,0.0306
3202.00,0.0304
3201.00,0.0302
3200.00,0.0301
3199.00,0.0299
3198.00,0.0297
3197.00,0.0296
3196.00,0.0294
3195.00,0.0292
3194.00,0.0291
3193.00,0.0289
3192.00,0.0287
3191.00,0.0285
3190.00,0.0283
3189.00,0.0281
3188.00,0.0280
3187.00,0.0278
3186.00,0.0277
3185.00,0.0275
3184.00,0.0273
3183.00,0.0271
3182.00,0.0269
3181.00,0.0267
3180.00,0.0265
3179.00,0.0263
3178.00,0.0261
3177.00,0.0260
3176.00,0.0258
3175.00,0.0256
3174.00,0.0254
3173.00,0.0252
3172.00,0.0250
3171.00,0.0248
3170.00,0.0246
3169.00,0.0244
3168.00,0.0243
3167.00,0.0241
3166.00,0.0239
3165.00,0.0237
3164.00,0.0234
3163.00,0.0232
3162.00,0.0230
3161.00,0.0228
3160.00,0.0226
3159.00,0.0224
3158.00,0.0222
3157.00,0.0220
3156.00,0.0218
3155.00,0.0215
3154.00,0.0213
3153.00,0.0211
3152.00,0.0209
3151.00,0.0208
3150.00,0.0206
3149.00,0.0204
3148.00,0.0203
3147.00,0.0201
3146.00,0.0199
3145.00,0.0198
3144.00,0.0196
3143.00,0.0194
3142.00,0.0192
3141.00,0.0191
3140.00,0.0189
3139.00,0.0187
3138.00,0.0186
3137.00,0.0185
3136.00,0.0184
3135.00,0.0182
3134.00,0.0181
3133.00,0.0180
3132.00,0.0179
3131.00,0.0177
3130.00,0.0176
3129.00,0.0175
3128.00,0.0175
3127.00,0.0174
3126.00,0.0172
3125.00,0.0171
3124.00,0.0170
3123.00,0.0169
3122.00,0.0168
3121.00,0.0167
3120.00,0.0166
3119.00,0.0165
3118.00,0.0164
3117.00,0.0163
3116.00,0.0161
3115.00,0.0160
3114.00,0.0159
3113.00,0.0157
3112.00,0.0156
3111.00,0.0155
3110.00,0.0153
3109.00,0.0152
3108.00,0.0151
3107.00,0.0150
3106.00,0.0149
3105.00,0.0147
3104.00,0.0146
3103.00,0.0145
3102.00,0.0145
3101.00,0.0144
3100.00,0.0143
3099.00,0.0143
3098.00,0.0142
3097.00,0.0142
3096.00,0.0141
3095.00,0.0141
3094.00,0.0141
3093.00,0.0142
3092.00,0.0142
3091.00,0.0143
3090.00,0.0143
3089.00,0.0144
3088.00,0.0144
3087.00,0.0144
3086.00,0.0144
3085.00,0.0144
3084.00,0.0144
3083.00,0.0144
3082.00,0.0144
3081.00,0.0143
3080.00,0.0143
3079.00,0.0142
3078.00,0.0142
3077.00,0.0141
3076.00,0.0140
3075.00,0.0140
3074.00,0.0140
3073.00,0.0139
3072.00,0.0139
3071.00,0.0138
3070.00,0.0138
3069.00,0.0137
3068.00,0.0137
3067.00,0.0136
3066.00,0.0136
3065.00,0.0136
3064.00,0.0137
3063.00,0.0137
3062.00,0.0137
3061.00,0.0137
3060.00,0.0138
3059.00,0.0138
3058.00,0.0138
3057.00,0.0139
3056.00,0.0139
3055.00,0.0139
3054.00,0.0139
3053.00,0.0139
3052.00,0.0139
3051.00,0.0138
3050.00,0.0138
3049.00,0.0138
3048.00,0.0137
3047.00,0.0137
3046.00,0.0136
3045.00,0.0136
3044.00,0.0136
3043.00,0.0136
3042.00,0.0137
3041.00,0.0138
3040.00,0.0138
3039.00,0.0140
3038.00,0.0141
3037.00,0.0142
3036.00,0.0143
3035.00,0.0145
3034.00,0.0146
3033.00,0.0147
3032.00,0.0147
3031.00,0.0147
3030.00,0.0146
3029.00,0.0144
3028.00,0.0143
3027.00,0.0141
3026.00,0.0139
3025.00,0.0137
3024.00,0.0136
3023.00,0.0134
3022.00,0.0132
3021.00,0.0130
3020.00,0.0129
3019.00,0.0128
3018.00,0.0127
3017.00,0.0126
3016.00,0.0126
3015.00,0.0125
3014.00,0.0125
3013.00,0.0125
3012.00,0.0125
3011.00,0.0126
3010.00,0.0127
3009.00,0.0128
3008.00,0.0129
3007.00,0.0131
3006.00,0.0133
3005.00,0.0136
3004.00,0.0138
3003.00,0.0142
3002.00,0.0145
3001.00,0.0149
3000.00,0.0154
2999.00,0.0159
2998.00,0.0164
2997.00,0.0171
2996.00,0.0177
2995.00,0.0183
2994.00,0.0188
2993.00,0.0193
2992.00,0.0197
2991.00,0.0200
2990.00,0.0203
2989.00,0.0206
2988.00,0.0210
2987.00,0.0214
2986.00,0.0220
2985.00,0.0228
2984.00,0.0237
2983.00,0.0248
2982.00,0.0260
2981.00,0.0273
2980.00,0.0284
2979.00,0.0292
2978.00,0.0298
2977.00,0.0301
2976.00,0.0304
2975.00,0.0310
2974.00,0.0321
2973.00,0.0334
2972.00,0.0349
2971.00,0.0364
2970.00,0.0376
2969.00,0.0384
2968.00,0.0390
2967.00,0.0395
2966.00,0.0400
2965.00,0.0407
2964.00,0.0414
2963.00,0.0423
2962.00,0.0430
2961.00,0.0436
2960.00,0.0438
2959.00,0.0435
2958.00,0.0429
2957.00,0.0418
2956.00,0.0405
2955.00,0.0390
2954.00,0.0375
2953.00,0.0362
2952.00,0.0350
2951.00,0.0340
2950.00,0.0333
2949.00,0.0329
2948.00,0.0327
2947.00,0.0329
2946.00,0.0333
2945.00,0.0339
2944.00,0.0348
2943.00,0.0358
2942.00,0.0369
2941.00,0.0382
2940.00,0.0397
2939.00,0.0413
2938.00,0.0433
2937.00,0.0456
2936.00,0.0481
2935.00,0.0509
2934.00,0.0539
2933.00,0.0569
2932.00,0.0600
2931.00,0.0629
2930.00,0.0655
2929.00,0.0677
2928.00,0.0693
2927.00,0.0702
2926.00,0.0705
2925.00,0.0700
2924.00,0.0690
2923.00,0.0676
2922.00,0.0660
2921.00,0.0641
2920.00,0.0622
2919.00,0.0601
2918.00,0.0580
2917.00,0.0559
2916.00,0.0538
2915.00,0.0519
2914.00,0.0501
2913.00,0.0485
2912.00,0.0469
2911.00,0.0455
2910.00,0.0442
2909.00,0.0430
2908.00,0.0419
2907.00,0.0408
2906.00,0.0397
2905.00,0.0387
2904.00,0.0378
2903.00,0.0369
2902.00,0.0360
2901.00,0.0352
2900.00,0.0344
2899.00,0.0336
2898.00,0.0329
2897.00,0.0322
2896.00,0.0316
2895.00,0.0310
2894.00,0.0305
2893.00,0.0300
2892.00,0.0295
2891.00,0.0290
2890.00,0.0286
2889.00,0.0282
2888.00,0.0278
2887.00,0.0274
2886.00,0.0271
2885.00,0.0269
2884.00,0.0267
2883.00,0.0267
2882.00,0.0267
2881.00,0.0270
2880.00,0.0274
2879.00,0.0280
2878.00,0.0289
2877.00,0.0299
2876.00,0.0309
2875.00,0.0319
2874.00,0.0328
2873.00,0.0334
2872.00,0.0337
2871.00,0.0338
2870.00,0.0337
2869.00,0.0335
2868.00,0.0333
2867.00,0.0334
2866.00,0.0337
2865.00,0.0344
2864.00,0.0356
2863.00,0.0373
2862.00,0.0393
2861.00,0.0417
2860.00,0.0442
2859.00,0.0466
2858.00,0.0486
2857.00,0.0501
2856.00,0.0511
2855.00,0.0516
2854.00,0.0516
2853.00,0.0511
2852.00,0.0503
2851.00,0.0490
2850.00,0.0471
2849.00,0.0448
2848.00,0.0423
2847.00,0.0397
2846.00,0.0371
2845.00,0.0348
2844.00,0.0327
2843.00,0.0308
2842.00,0.0291
2841.00,0.0276
2840.00,0.0263
2839.00,0.0251
2838.00,0.0241
2837.00,0.0233
2836.00,0.0226
2835.00,0.0220
2834.00,0.0214
2833.00,0.0209
2832.00,0.0204
2831.00,0.0200
2830.00,0.0196
2829.00,0.0192
2828.00,0.0188
2827.00,0.0185
2826.00,0.0182
2825.00,0.0179
2824.00,0.0176
2823.00,0.0174
2822.00,0.0171
2821.00,0.0169
2820.00,0.0167
2819.00,0.0165
2818.00,0.0164
2817.00,0.0162
2816.00,0.0161
2815.00,0.0159
2814.00,0.0158
2813.00,0.0156
2812.00,0.0155
2811.00,0.0153
2810.00,0.0152
2809.00,0.0151
2808.00,0.0150
2807.00,0.0150
2806.00,0.0149
2805.00,0.0148
2804.00,0.0147
2803.00,0.0146
2802.00,0.0146
2801.00,0.0145
2800.00,0.0144
2799.00,0.0143
2798.00,0.0142
2797.00,0.0141
2796.00,0.0140
2795.00,0.0139
2794.00,0.0138
2793.00,0.0137
2792.00,0.0137
2791.00,0.0136
2790.00,0.0135
2789.00,0.0134
2788.00,0.0133
2787.00,0.0133
2786.00,0.0132
2785.00,0.0131
2784.00,0.0131
2783.00,0.0130
2782.00,0.0129
2781.00,0.0129
2780.00,0.0128
2779.00,0.0128
2778.00,0.0127
2777.00,0.0127
2776.00,0.0126
2775.00,0.0126
2774.00,0.0126
2773.00,0.0126
2772.00,0.0126
2771.00,0.0125
2770.00,0.0125
2769.00,0.0124
2768.00,0.0124
2767.00,0.0124
2766.00,0.0123
2765.00,0.0123
2764.00,0.0123
2763.00,0.0123
2762.00,0.0123
2761.00,0.0123
2760.00,0.0123
2759.00,0.0123
2758.00,0.0123
2757.00,0.0123
