Created as New Dataset,Sample 632 By YargerLab Date Friday, June 06 2025
cm-1,A
4000.00,0.0040
3999.00,0.0040
3998.00,0.0040
3997.00,0.0040
3996.00,0.0040
3995.00,0.0040
3994.00,0.0040
3993.00,0.0040
3992.00,0.0040
3991.00,0.0040
3990.00,0.0040
3989.00,0.0040
3988.00,0.0040
3987.00,0.0040
3986.00,0.0040
3985.00,0.0040
3984.00,0.0040
3983.00,0.0040
3982.00,0.0040
3981.00,0.0040
3980.00,0.0040
3979.00,0.0040
3978.00,0.0040
3977.00,0.0040
3976.00,0.0040
3975.00,0.0039
3974.00,0.0039
3973.00,0.0039
3972.00,0.0039
3971.00,0.0039
3970.00,0.0039
3969.00,0.0039
3968.00,0.0039
3967.00,0.0039
3966.00,0.0039
3965.00,0.0040
3964.00,0.0040
3963.00,0.0039
3962.00,0.0039
3961.00,0.0039
3960.00,0.0039
3959.00,0.0039
3958.00,0.0040
3957.00,0.0040
3956.00,0.0040
3955.00,0.0040
3954.00,0.0040
3953.00,0.0039
3952.00,0.0039
3951.00,0.0039
3950.00,0.0040
3949.00,0.0040
3948.00,0.0040
3947.00,0.0040
3946.00,0.0040
3945.00,0.0040
3944.00,0.0040
3943.00,0.0040
3942.00,0.0040
3941.00,0.0039
3940.00,0.0039
3939.00,0.0040
3938.00,0.0040
3937.00,0.0040
3936.00,0.0040
3935.00,0.0040
3934.00,0.0040
3933.00,0.0040
3932.00,0.0040
3931.00,0.0040
3930.00,0.0040
3929.00,0.0040
3928.00,0.0040
3927.00,0.0040
3926.00,0.0040
3925.00,0.0040
3924.00,0.0040
3923.00,0.0040
3922.00,0.0040
3921.00,0.0040
3920.00,0.0040
3919.00,0.0040
3918.00,0.0040
3917.00,0.0040
3916.00,0.0040
3915.00,0.0040
3914.00,0.0039
3913.00,0.0039
3912.00,0.0039
3911.00,0.0039
3910.00,0.0039
3909.00,0.0039
3908.00,0.0039
3907.00,0.0039
3906.00,0.0039
3905.00,0.0039
3904.00,0.0039
3903.00,0.0039
3902.00,0.0039
3901.00,0.0039
3900.00,0.0039
3899.00,0.0039
3898.00,0.0039
3897.00,0.0039
3896.00,0.0039
3895.00,0.0039
3894.00,0.0039
3893.00,0.0039
3892.00,0.0039
3891.00,0.0039
3890.00,0.0040
3889.00,0.0039
3888.00,0.0039
3887.00,0.0039
3886.00,0.0039
3885.00,0.0039
3884.00,0.0039
3883.00,0.0039
3882.00,0.0039
3881.00,0.0039
3880.00,0.0039
3879.00,0.0040
3878.00,0.0040
3877.00,0.0039
3876.00,0.0039
3875.00,0.0040
3874.00,0.0040
3873.00,0.0040
3872.00,0.0039
3871.00,0.0038
3870.00,0.0038
3869.00,0.0039
3868.00,0.0039
3867.00,0.0038
3866.00,0.0038
3865.00,0.0039
3864.00,0.0039
3863.00,0.0039
3862.00,0.0039
3861.00,0.0039
3860.00,0.0040
3859.00,0.0040
3858.00,0.0040
3857.00,0.0039
3856.00,0.0039
3855.00,0.0038
3854.00,0.0039
3853.00,0.0039
3852.00,0.0039
3851.00,0.0038
3850.00,0.0038
3849.00,0.0038
3848.00,0.0038
3847.00,0.0039
3846.00,0.0039
3845.00,0.0039
3844.00,0.0039
3843.00,0.0039
3842.00,0.0039
3841.00,0.0039
3840.00,0.0039
3839.00,0.0039
3838.00,0.0039
3837.00,0.0039
3836.00,0.0039
3835.00,0.0039
3834.00,0.0039
3833.00,0.0039
3832.00,0.0039
3831.00,0.0040
3830.00,0.0040
3829.00,0.0039
3828.00,0.0039
3827.00,0.0039
3826.00,0.0039
3825.00,0.0040
3824.00,0.0039
3823.00,0.0039
3822.00,0.0039
3821.00,0.0039
3820.00,0.0039
3819.00,0.0039
3818.00,0.0038
3817.00,0.0038
3816.00,0.0039
3815.00,0.0040
3814.00,0.0040
3813.00,0.0039
3812.00,0.0039
3811.00,0.0040
3810.00,0.0040
3809.00,0.0040
3808.00,0.0040
3807.00,0.0040
3806.00,0.0040
3805.00,0.0040
3804.00,0.0039
3803.00,0.0039
3802.00,0.0039
3801.00,0.0039
3800.00,0.0039
3799.00,0.0039
3798.00,0.0039
3797.00,0.0039
3796.00,0.0040
3795.00,0.0040
3794.00,0.0040
3793.00,0.0040
3792.00,0.0040
3791.00,0.0040
3790.00,0.0040
3789.00,0.0040
3788.00,0.0040
3787.00,0.0040
3786.00,0.0040
3785.00,0.0040
3784.00,0.0040
3783.00,0.0040
3782.00,0.0040
3781.00,0.0040
3780.00,0.0040
3779.00,0.0040
3778.00,0.0040
3777.00,0.0040
3776.00,0.0039
3775.00,0.0040
3774.00,0.0040
3773.00,0.0040
3772.00,0.0040
3771.00,0.0040
3770.00,0.0040
3769.00,0.0040
3768.00,0.0040
3767.00,0.0039
3766.00,0.0039
3765.00,0.0039
3764.00,0.0040
3763.00,0.0040
3762.00,0.0039
3761.00,0.0039
3760.00,0.0039
3759.00,0.0039
3758.00,0.0039
3757.00,0.0039
3756.00,0.0039
3755.00,0.0039
3754.00,0.0039
3753.00,0.0039
3752.00,0.0039
3751.00,0.0039
3750.00,0.0039
3749.00,0.0038
3748.00,0.0038
3747.00,0.0037
3746.00,0.0037
3745.00,0.0038
3744.00,0.0038
3743.00,0.0039
3742.00,0.0039
3741.00,0.0039
3740.00,0.0039
3739.00,0.0039
3738.00,0.0039
3737.00,0.0039
3736.00,0.0039
3735.00,0.0038
3734.00,0.0038
3733.00,0.0038
3732.00,0.0038
3731.00,0.0039
3730.00,0.0039
3729.00,0.0039
3728.00,0.0039
3727.00,0.0039
3726.00,0.0039
3725.00,0.0039
3724.00,0.0039
3723.00,0.0039
3722.00,0.0039
3721.00,0.0039
3720.00,0.0039
3719.00,0.0039
3718.00,0.0039
3717.00,0.0039
3716.00,0.0039
3715.00,0.0039
3714.00,0.0039
3713.00,0.0039
3712.00,0.0039
3711.00,0.0039
3710.00,0.0039
3709.00,0.0038
3708.00,0.0038
3707.00,0.0038
3706.00,0.0039
3705.00,0.0039
3704.00,0.0038
3703.00,0.0038
3702.00,0.0038
3701.00,0.0038
3700.00,0.0038
3699.00,0.0038
3698.00,0.0038
3697.00,0.0038
3696.00,0.0038
3695.00,0.0038
3694.00,0.0038
3693.00,0.0038
3692.00,0.0038
3691.00,0.0038
3690.00,0.0038
3689.00,0.0038
3688.00,0.0038
3687.00,0.0038
3686.00,0.0038
3685.00,0.0038
3684.00,0.0038
3683.00,0.0038
3682.00,0.0039
3681.00,0.0039
3680.00,0.0039
3679.00,0.0038
3678.00,0.0038
3677.00,0.0038
3676.00,0.0037
3675.00,0.0038
3674.00,0.0038
3673.00,0.0037
3672.00,0.0037
3671.00,0.0037
3670.00,0.0037
3669.00,0.0037
3668.00,0.0037
3667.00,0.0037
3666.00,0.0037
3665.00,0.0037
3664.00,0.0037
3663.00,0.0037
3662.00,0.0038
3661.00,0.0038
3660.00,0.0038
3659.00,0.0038
3658.00,0.0038
3657.00,0.0038
3656.00,0.0038
3655.00,0.0037
3654.00,0.0037
3653.00,0.0036
3652.00,0.0036
3651.00,0.0036
3650.00,0.0037
3649.00,0.0037
3648.00,0.0037
3647.00,0.0037
3646.00,0.0037
3645.00,0.0037
3644.00,0.0037
3643.00,0.0038
3642.00,0.0038
3641.00,0.0038
3640.00,0.0038
3639.00,0.0038
3638.00,0.0038
3637.00,0.0038
3636.00,0.0038
3635.00,0.0038
3634.00,0.0038
3633.00,0.0038
3632.00,0.0038
3631.00,0.0037
3630.00,0.0037
3629.00,0.0037
3628.00,0.0037
3627.00,0.0037
3626.00,0.0037
3625.00,0.0038
3624.00,0.0038
3623.00,0.0038
3622.00,0.0038
3621.00,0.0038
3620.00,0.0037
3619.00,0.0037
3618.00,0.0037
3617.00,0.0037
3616.00,0.0037
3615.00,0.0037
3614.00,0.0038
3613.00,0.0038
3612.00,0.0038
3611.00,0.0038
3610.00,0.0037
3609.00,0.0037
3608.00,0.0037
3607.00,0.0038
3606.00,0.0038
3605.00,0.0038
3604.00,0.0038
3603.00,0.0039
3602.00,0.0039
3601.00,0.0039
3600.00,0.0039
3599.00,0.0039
3598.00,0.0039
3597.00,0.0039
3596.00,0.0038
3595.00,0.0038
3594.00,0.0038
3593.00,0.0038
3592.00,0.0038
3591.00,0.0038
3590.00,0.0038
3589.00,0.0039
3588.00,0.0039
3587.00,0.0039
3586.00,0.0039
3585.00,0.0038
3584.00,0.0038
3583.00,0.0039
3582.00,0.0039
3581.00,0.0039
3580.00,0.0039
3579.00,0.0039
3578.00,0.0039
3577.00,0.0039
3576.00,0.0039
3575.00,0.0039
3574.00,0.0039
3573.00,0.0040
3572.00,0.0040
3571.00,0.0040
3570.00,0.0039
3569.00,0.0039
3568.00,0.0039
3567.00,0.0039
3566.00,0.0039
3565.00,0.0039
3564.00,0.0038
3563.00,0.0039
3562.00,0.0039
3561.00,0.0039
3560.00,0.0040
3559.00,0.0041
3558.00,0.0041
3557.00,0.0041
3556.00,0.0041
3555.00,0.0041
3554.00,0.0041
3553.00,0.0041
3552.00,0.0041
3551.00,0.0041
3550.00,0.0041
3549.00,0.0041
3548.00,0.0041
3547.00,0.0041
3546.00,0.0041
3545.00,0.0041
3544.00,0.0041
3543.00,0.0041
3542.00,0.0041
3541.00,0.0041
3540.00,0.0041
3539.00,0.0041
3538.00,0.0041
3537.00,0.0041
3536.00,0.0041
3535.00,0.0041
3534.00,0.0041
3533.00,0.0041
3532.00,0.0041
3531.00,0.0041
3530.00,0.0041
3529.00,0.0041
3528.00,0.0040
3527.00,0.0040
3526.00,0.0040
3525.00,0.0040
3524.00,0.0040
3523.00,0.0040
3522.00,0.0040
3521.00,0.0041
3520.00,0.0041
3519.00,0.0041
3518.00,0.0041
3517.00,0.0041
3516.00,0.0041
3515.00,0.0041
3514.00,0.0041
3513.00,0.0041
3512.00,0.0041
3511.00,0.0041
3510.00,0.0041
3509.00,0.0041
3508.00,0.0041
3507.00,0.0041
3506.00,0.0041
3505.00,0.0041
3504.00,0.0041
3503.00,0.0041
3502.00,0.0041
3501.00,0.0041
3500.00,0.0041
3499.00,0.0041
3498.00,0.0041
3497.00,0.0042
3496.00,0.0042
3495.00,0.0041
3494.00,0.0041
3493.00,0.0041
3492.00,0.0041
3491.00,0.0041
3490.00,0.0041
3489.00,0.0041
3488.00,0.0041
3487.00,0.0041
3486.00,0.0041
3485.00,0.0040
3484.00,0.0040
3483.00,0.0040
3482.00,0.0040
3481.00,0.0041
3480.00,0.0041
3479.00,0.0041
3478.00,0.0041
3477.00,0.0041
3476.00,0.0041
3475.00,0.0041
3474.00,0.0041
3473.00,0.0041
3472.00,0.0041
3471.00,0.0040
3470.00,0.0040
3469.00,0.0040
3468.00,0.0041
3467.00,0.0041
3466.00,0.0041
3465.00,0.0041
3464.00,0.0041
3463.00,0.0041
3462.00,0.0041
3461.00,0.0040
3460.00,0.0040
3459.00,0.0040
3458.00,0.0040
3457.00,0.0040
3456.00,0.0040
3455.00,0.0041
3454.00,0.0041
3453.00,0.0041
3452.00,0.0041
3451.00,0.0041
3450.00,0.0041
3449.00,0.0041
3448.00,0.0041
3447.00,0.0042
3446.00,0.0042
3445.00,0.0042
3444.00,0.0042
3443.00,0.0042
3442.00,0.0042
3441.00,0.0043
3440.00,0.0043
3439.00,0.0043
3438.00,0.0043
3437.00,0.0044
3436.00,0.0044
3435.00,0.0044
3434.00,0.0044
3433.00,0.0045
3432.00,0.0045
3431.00,0.0046
3430.00,0.0046
3429.00,0.0047
3428.00,0.0047
3427.00,0.0047
3426.00,0.0047
3425.00,0.0048
3424.00,0.0048
3423.00,0.0048
3422.00,0.0049
3421.00,0.0049
3420.00,0.0049
3419.00,0.0049
3418.00,0.0049
3417.00,0.0049
3416.00,0.0049
3415.00,0.0049
3414.00,0.0049
3413.00,0.0050
3412.00,0.0050
3411.00,0.0050
3410.00,0.0051
3409.00,0.0051
3408.00,0.0051
3407.00,0.0051
3406.00,0.0051
3405.00,0.0051
3404.00,0.0052
3403.00,0.0052
3402.00,0.0052
3401.00,0.0052
3400.00,0.0052
3399.00,0.0052
3398.00,0.0052
3397.00,0.0053
3396.00,0.0053
3395.00,0.0054
3394.00,0.0054
3393.00,0.0054
3392.00,0.0055
3391.00,0.0055
3390.00,0.0055
3389.00,0.0056
3388.00,0.0056
3387.00,0.0057
3386.00,0.0058
3385.00,0.0059
3384.00,0.0060
3383.00,0.0061
3382.00,0.0062
3381.00,0.0063
3380.00,0.0064
3379.00,0.0065
3378.00,0.0066
3377.00,0.0067
3376.00,0.0068
3375.00,0.0070
3374.00,0.0071
3373.00,0.0072
3372.00,0.0073
3371.00,0.0075
3370.00,0.0076
3369.00,0.0078
3368.00,0.0079
3367.00,0.0080
3366.00,0.0081
3365.00,0.0083
3364.00,0.0084
3363.00,0.0086
3362.00,0.0087
3361.00,0.0089
3360.00,0.0090
3359.00,0.0091
3358.00,0.0093
3357.00,0.0094
3356.00,0.0095
3355.00,0.0097
3354.00,0.0098
3353.00,0.0100
3352.00,0.0101
3351.00,0.0102
3350.00,0.0104
3349.00,0.0105
3348.00,0.0106
3347.00,0.0107
3346.00,0.0109
3345.00,0.0110
3344.00,0.0110
3343.00,0.0111
3342.00,0.0112
3341.00,0.0113
3340.00,0.0113
3339.00,0.0114
3338.00,0.0114
3337.00,0.0114
3336.00,0.0114
3335.00,0.0114
3334.00,0.0114
3333.00,0.0114
3332.00,0.0114
3331.00,0.0114
3330.00,0.0114
3329.00,0.0114
3328.00,0.0113
3327.00,0.0113
3326.00,0.0112
3325.00,0.0112
3324.00,0.0111
3323.00,0.0111
3322.00,0.0110
3321.00,0.0110
3320.00,0.0109
3319.00,0.0108
3318.00,0.0107
3317.00,0.0107
3316.00,0.0106
3315.00,0.0105
3314.00,0.0104
3313.00,0.0103
3312.00,0.0102
3311.00,0.0101
3310.00,0.0100
3309.00,0.0099
3308.00,0.0098
3307.00,0.0097
3306.00,0.0096
3305.00,0.0094
3304.00,0.0093
3303.00,0.0092
3302.00,0.0091
3301.00,0.0091
3300.00,0.0090
3299.00,0.0088
3298.00,0.0087
3297.00,0.0086
3296.00,0.0085
3295.00,0.0084
3294.00,0.0084
3293.00,0.0083
3292.00,0.0082
3291.00,0.0081
3290.00,0.0080
3289.00,0.0079
3288.00,0.0078
3287.00,0.0077
3286.00,0.0076
3285.00,0.0075
3284.00,0.0074
3283.00,0.0073
3282.00,0.0073
3281.00,0.0072
3280.00,0.0071
3279.00,0.0070
3278.00,0.0070
3277.00,0.0069
3276.00,0.0069
3275.00,0.0068
3274.00,0.0068
3273.00,0.0068
3272.00,0.0067
3271.00,0.0067
3270.00,0.0067
3269.00,0.0066
3268.00,0.0066
3267.00,0.0065
3266.00,0.0065
3265.00,0.0065
3264.00,0.0065
3263.00,0.0065
3262.00,0.0064
3261.00,0.0064
3260.00,0.0064
3259.00,0.0064
3258.00,0.0064
3257.00,0.0064
3256.00,0.0064
3255.00,0.0064
3254.00,0.0064
3253.00,0.0064
3252.00,0.0063
3251.00,0.0063
3250.00,0.0063
3249.00,0.0063
3248.00,0.0063
3247.00,0.0063
3246.00,0.0063
3245.00,0.0063
3244.00,0.0063
3243.00,0.0063
3242.00,0.0063
3241.00,0.0062
3240.00,0.0062
3239.00,0.0062
3238.00,0.0062
3237.00,0.0062
3236.00,0.0061
3235.00,0.0061
3234.00,0.0061
3233.00,0.0060
3232.00,0.0060
3231.00,0.0060
3230.00,0.0060
3229.00,0.0059
3228.00,0.0059
3227.00,0.0059
3226.00,0.0058
3225.00,0.0058
3224.00,0.0058
3223.00,0.0057
3222.00,0.0057
3221.00,0.0057
3220.00,0.0056
3219.00,0.0056
3218.00,0.0055
3217.00,0.0055
3216.00,0.0055
3215.00,0.0055
3214.00,0.0055
3213.00,0.0054
3212.00,0.0054
3211.00,0.0054
3210.00,0.0053
3209.00,0.0053
3208.00,0.0053
3207.00,0.0052
3206.00,0.0052
3205.00,0.0051
3204.00,0.0051
3203.00,0.0051
3202.00,0.0051
3201.00,0.0051
3200.00,0.0050
3199.00,0.0050
3198.00,0.0050
3197.00,0.0050
3196.00,0.0050
3195.00,0.0050
3194.00,0.0049
3193.00,0.0049
3192.00,0.0049
3191.00,0.0049
3190.00,0.0049
3189.00,0.0048
3188.00,0.0048
3187.00,0.0048
3186.00,0.0048
3185.00,0.0048
3184.00,0.0048
3183.00,0.0048
3182.00,0.0048
3181.00,0.0048
3180.00,0.0047
3179.00,0.0047
3178.00,0.0047
3177.00,0.0047
3176.00,0.0047
3175.00,0.0047
3174.00,0.0047
3173.00,0.0047
3172.00,0.0047
3171.00,0.0047
3170.00,0.0046
3169.00,0.0046
3168.00,0.0046
3167.00,0.0047
3166.00,0.0047
3165.00,0.0047
3164.00,0.0047
3163.00,0.0046
3162.00,0.0046
3161.00,0.0046
3160.00,0.0046
3159.00,0.0046
3158.00,0.0046
3157.00,0.0046
3156.00,0.0046
3155.00,0.0046
3154.00,0.0046
3153.00,0.0046
3152.00,0.0046
3151.00,0.0046
3150.00,0.0046
3149.00,0.0046
3148.00,0.0046
3147.00,0.0046
3146.00,0.0046
3145.00,0.0046
3144.00,0.0046
3143.00,0.0046
3142.00,0.0046
3141.00,0.0046
3140.00,0.0047
3139.00,0.0047
3138.00,0.0047
3137.00,0.0047
3136.00,0.0047
3135.00,0.0047
3134.00,0.0047
3133.00,0.0047
3132.00,0.0047
3131.00,0.0047
3130.00,0.0048
3129.00,0.0048
3128.00,0.0048
3127.00,0.0048
3126.00,0.0049
3125.00,0.0049
3124.00,0.0049
3123.00,0.0049
3122.00,0.0049
3121.00,0.0050
3120.00,0.0050
3119.00,0.0050
3118.00,0.0051
3117.00,0.0051
3116.00,0.0051
3115.00,0.0052
3114.00,0.0052
3113.00,0.0053
3112.00,0.0053
3111.00,0.0053
3110.00,0.0053
3109.00,0.0054
3108.00,0.0054
3107.00,0.0054
3106.00,0.0054
3105.00,0.0054
3104.00,0.0054
3103.00,0.0055
3102.00,0.0055
3101.00,0.0055
3100.00,0.0055
3099.00,0.0055
3098.00,0.0054
3097.00,0.0054
3096.00,0.0054
3095.00,0.0054
3094.00,0.0054
3093.00,0.0054
3092.00,0.0053
3091.00,0.0053
3090.00,0.0053
3089.00,0.0053
3088.00,0.0052
3087.00,0.0052
3086.00,0.0052
3085.00,0.0052
3084.00,0.0051
3083.00,0.0051
3082.00,0.0051
3081.00,0.0051
3080.00,0.0051
3079.00,0.0051
3078.00,0.0050
3077.00,0.0050
3076.00,0.0050
3075.00,0.0050
3074.00,0.0049
3073.00,0.0049
3072.00,0.0049
3071.00,0.0049
3070.00,0.0049
3069.00,0.0049
3068.00,0.0050
3067.00,0.0049
3066.00,0.0049
3065.00,0.0049
3064.00,0.0049
3063.00,0.0049
3062.00,0.0049
3061.00,0.0048
3060.00,0.0048
3059.00,0.0048
3058.00,0.0048
3057.00,0.0048
3056.00,0.0048
3055.00,0.0048
3054.00,0.0048
3053.00,0.0048
3052.00,0.0047
3051.00,0.0047
3050.00,0.0047
3049.00,0.0046
3048.00,0.0046
3047.00,0.0046
3046.00,0.0046
3045.00,0.0046
3044.00,0.0046
3043.00,0.0046
3042.00,0.0046
3041.00,0.0046
3040.00,0.0046
3039.00,0.0046
3038.00,0.0046
3037.00,0.0046
3036.00,0.0046
3035.00,0.0046
3034.00,0.0046
3033.00,0.0046
3032.00,0.0046
3031.00,0.0046
3030.00,0.0047
3029.00,0.0047
3028.00,0.0047
3027.00,0.0048
3026.00,0.0048
3025.00,0.0048
3024.00,0.0048
3023.00,0.0048
3022.00,0.0049
3021.00,0.0049
3020.00,0.0049
3019.00,0.0049
3018.00,0.0050
3017.00,0.0050
3016.00,0.0050
3015.00,0.0050
3014.00,0.0051
3013.00,0.0051
3012.00,0.0051
3011.00,0.0051
3010.00,0.0052
3009.00,0.0052
3008.00,0.0053
3007.00,0.0053
3006.00,0.0054
3005.00,0.0054
3004.00,0.0055
3003.00,0.0056
3002.00,0.0057
3001.00,0.0058
3000.00,0.0059
2999.00,0.0059
2998.00,0.0060
2997.00,0.0061
2996.00,0.0062
2995.00,0.0063
2994.00,0.0065
2993.00,0.0066
2992.00,0.0067
2991.00,0.0068
2990.00,0.0069
2989.00,0.0069
2988.00,0.0070
2987.00,0.0070
2986.00,0.0070
2985.00,0.0070
2984.00,0.0070
2983.00,0.0069
2982.00,0.0069
2981.00,0.0069
2980.00,0.0069
2979.00,0.0069
2978.00,0.0070
2977.00,0.0069
2976.00,0.0069
2975.00,0.0068
2974.00,0.0067
2973.00,0.0066
2972.00,0.0065
2971.00,0.0064
2970.00,0.0063
2969.00,0.0062
2968.00,0.0062
2967.00,0.0061
2966.00,0.0061
2965.00,0.0061
2964.00,0.0061
2963.00,0.0061
2962.00,0.0062
2961.00,0.0062
2960.00,0.0063
2959.00,0.0063
2958.00,0.0064
2957.00,0.0065
2956.00,0.0066
2955.00,0.0067
2954.00,0.0068
2953.00,0.0070
2952.00,0.0071
2951.00,0.0072
2950.00,0.0073
2949.00,0.0074
2948.00,0.0074
2947.00,0.0074
2946.00,0.0074
2945.00,0.0074
2944.00,0.0073
2943.00,0.0073
2942.00,0.0072
2941.00,0.0071
2940.00,0.0070
2939.00,0.0069
2938.00,0.0068
2937.00,0.0068
2936.00,0.0067
2935.00,0.0067
2934.00,0.0066
2933.00,0.0066
2932.00,0.0065
2931.00,0.0065
2930.00,0.0064
2929.00,0.0064
2928.00,0.0063
2927.00,0.0063
2926.00,0.0062
2925.00,0.0062
2924.00,0.0061
2923.00,0.0060
2922.00,0.0059
2921.00,0.0059
2920.00,0.0058
2919.00,0.0058
2918.00,0.0058
2917.00,0.0058
2916.00,0.0057
2915.00,0.0057
2914.00,0.0057
2913.00,0.0056
2912.00,0.0056
2911.00,0.0056
2910.00,0.0056
2909.00,0.0056
2908.00,0.0056
2907.00,0.0057
2906.00,0.0057
2905.00,0.0057
2904.00,0.0057
2903.00,0.0057
2902.00,0.0057
2901.00,0.0057
2900.00,0.0057
2899.00,0.0057
2898.00,0.0057
2897.00,0.0056
2896.00,0.0055
2895.00,0.0054
2894.00,0.0053
2893.00,0.0053
2892.00,0.0052
2891.00,0.0052
2890.00,0.0051
2889.00,0.0051
2888.00,0.0051
2887.00,0.0051
2886.00,0.0050
2885.00,0.0050
2884.00,0.0050
2883.00,0.0050
2882.00,0.0050
2881.00,0.0050
2880.00,0.0050
2879.00,0.0050
2878.00,0.0050
2877.00,0.0050
2876.00,0.0049
2875.00,0.0049
2874.00,0.0049
2873.00,0.0049
2872.00,0.0049
2871.00,0.0049
2870.00,0.0049
2869.00,0.0049
2868.00,0.0048
2867.00,0.0048
2866.00,0.0048
2865.00,0.0048
2864.00,0.0048
2863.00,0.0048
2862.00,0.0048
2861.00,0.0048
2860.00,0.0048
2859.00,0.0048
2858.00,0.0048
2857.00,0.0048
2856.00,0.0048
2855.00,0.0048
2854.00,0.0048
2853.00,0.0048
2852.00,0.0048
2851.00,0.0049
2850.00,0.0049
2849.00,0.0049
2848.00,0.0049
2847.00,0.0049
2846.00,0.0049
2845.00,0.0050
2844.00,0.0050
2843.00,0.0050
2842.00,0.0050
2841.00,0.0050
2840.00,0.0050
2839.00,0.0050
2838.00,0.0050
2837.00,0.0050
2836.00,0.0049
2835.00,0.0049
2834.00,0.0049
2833.00,0.0049
2832.00,0.0048
2831.00,0.0048
2830.00,0.0048
2829.00,0.0047
2828.00,0.0047
2827.00,0.0047
2826.00,0.0047
2825.00,0.0047
2824.00,0.0047
2823.00,0.0046
2822.00,0.0046
2821.00,0.0046
2820.00,0.0047
2819.00,0.0047
2818.00,0.0047
2817.00,0.0047
2816.00,0.0047
2815.00,0.0047
2814.00,0.0047
2813.00,0.0047
2812.00,0.0047
2811.00,0.0047
2810.00,0.0047
2809.00,0.0047
2808.00,0.0047
2807.00,0.0047
2806.00,0.0047
2805.00,0.0047
2804.00,0.0047
2803.00,0.0046
2802.00,0.0046
2801.00,0.0046
2800.00,0.0046
2799.00,0.0046
2798.00,0.0046
2797.00,0.0046
2796.00,0.0046
2795.00,0.0045
2794.00,0.0045
2793.00,0.0045
2792.00,0.0045
2791.00,0.0045
2790.00,0.0045
2789.00,0.0045
2788.00,0.0045
2787.00,0.0045
2786.00,0.0045
2785.00,0.0044
2784.00,0.0044
2783.00,0.0044
2782.00,0.0044
2781.00,0.0044
2780.00,0.0044
2779.00,0.0044
2778.00,0.0044
2777.00,0.0044
2776.00,0.0043
2775.00,0.0043
2774.00,0.0043
2773.00,0.0043
2772.00,0.0043
2771.00,0.0043
2770.00,0.0043
2769.00,0.0043
2768.00,0.0043
2767.00,0.0043
2766.00,0.0043
2765.00,0.0043
2764.00,0.0043
2763.00,0.0043
2762.00,0.0044
2761.00,0.0044
2760.00,0.0043
2759.00,0.0043
2758.00,0.0043
2757.00,0.0043
