Created as New Dataset,Sample 674 By YargerLab Date Thursday, June 12 2025
cm-1,A
4000.00,0.0052
3999.00,0.0052
3998.00,0.0052
3997.00,0.0052
3996.00,0.0052
3995.00,0.0052
3994.00,0.0052
3993.00,0.0052
3992.00,0.0052
3991.00,0.0052
3990.00,0.0052
3989.00,0.0052
3988.00,0.0052
3987.00,0.0052
3986.00,0.0052
3985.00,0.0052
3984.00,0.0052
3983.00,0.0052
3982.00,0.0052
3981.00,0.0052
3980.00,0.0052
3979.00,0.0051
3978.00,0.0052
3977.00,0.0052
3976.00,0.0052
3975.00,0.0052
3974.00,0.0052
3973.00,0.0052
3972.00,0.0052
3971.00,0.0052
3970.00,0.0052
3969.00,0.0052
3968.00,0.0052
3967.00,0.0052
3966.00,0.0052
3965.00,0.0052
3964.00,0.0052
3963.00,0.0052
3962.00,0.0052
3961.00,0.0052
3960.00,0.0052
3959.00,0.0052
3958.00,0.0052
3957.00,0.0051
3956.00,0.0051
3955.00,0.0051
3954.00,0.0052
3953.00,0.0052
3952.00,0.0052
3951.00,0.0052
3950.00,0.0052
3949.00,0.0052
3948.00,0.0051
3947.00,0.0051
3946.00,0.0051
3945.00,0.0051
3944.00,0.0051
3943.00,0.0051
3942.00,0.0051
3941.00,0.0051
3940.00,0.0051
3939.00,0.0052
3938.00,0.0052
3937.00,0.0052
3936.00,0.0052
3935.00,0.0052
3934.00,0.0052
3933.00,0.0052
3932.00,0.0052
3931.00,0.0052
3930.00,0.0052
3929.00,0.0052
3928.00,0.0052
3927.00,0.0051
3926.00,0.0051
3925.00,0.0052
3924.00,0.0052
3923.00,0.0052
3922.00,0.0052
3921.00,0.0052
3920.00,0.0052
3919.00,0.0051
3918.00,0.0051
3917.00,0.0051
3916.00,0.0051
3915.00,0.0051
3914.00,0.0051
3913.00,0.0051
3912.00,0.0051
3911.00,0.0051
3910.00,0.0051
3909.00,0.0051
3908.00,0.0051
3907.00,0.0051
3906.00,0.0051
3905.00,0.0051
3904.00,0.0051
3903.00,0.0051
3902.00,0.0051
3901.00,0.0051
3900.00,0.0051
3899.00,0.0051
3898.00,0.0051
3897.00,0.0051
3896.00,0.0051
3895.00,0.0051
3894.00,0.0051
3893.00,0.0051
3892.00,0.0051
3891.00,0.0051
3890.00,0.0051
3889.00,0.0051
3888.00,0.0051
3887.00,0.0051
3886.00,0.0051
3885.00,0.0051
3884.00,0.0051
3883.00,0.0051
3882.00,0.0051
3881.00,0.0051
3880.00,0.0050
3879.00,0.0050
3878.00,0.0050
3877.00,0.0050
3876.00,0.0050
3875.00,0.0050
3874.00,0.0050
3873.00,0.0050
3872.00,0.0050
3871.00,0.0051
3870.00,0.0051
3869.00,0.0051
3868.00,0.0051
3867.00,0.0051
3866.00,0.0051
3865.00,0.0051
3864.00,0.0051
3863.00,0.0050
3862.00,0.0050
3861.00,0.0051
3860.00,0.0051
3859.00,0.0051
3858.00,0.0051
3857.00,0.0050
3856.00,0.0050
3855.00,0.0050
3854.00,0.0050
3853.00,0.0050
3852.00,0.0050
3851.00,0.0050
3850.00,0.0050
3849.00,0.0050
3848.00,0.0050
3847.00,0.0050
3846.00,0.0050
3845.00,0.0050
3844.00,0.0050
3843.00,0.0051
3842.00,0.0051
3841.00,0.0051
3840.00,0.0051
3839.00,0.0051
3838.00,0.0050
3837.00,0.0050
3836.00,0.0050
3835.00,0.0050
3834.00,0.0050
3833.00,0.0051
3832.00,0.0051
3831.00,0.0051
3830.00,0.0051
3829.00,0.0050
3828.00,0.0050
3827.00,0.0050
3826.00,0.0050
3825.00,0.0050
3824.00,0.0050
3823.00,0.0050
3822.00,0.0050
3821.00,0.0050
3820.00,0.0050
3819.00,0.0050
3818.00,0.0050
3817.00,0.0050
3816.00,0.0050
3815.00,0.0050
3814.00,0.0050
3813.00,0.0050
3812.00,0.0050
3811.00,0.0050
3810.00,0.0050
3809.00,0.0050
3808.00,0.0050
3807.00,0.0050
3806.00,0.0050
3805.00,0.0050
3804.00,0.0050
3803.00,0.0050
3802.00,0.0050
3801.00,0.0050
3800.00,0.0050
3799.00,0.0050
3798.00,0.0050
3797.00,0.0050
3796.00,0.0050
3795.00,0.0050
3794.00,0.0050
3793.00,0.0050
3792.00,0.0050
3791.00,0.0050
3790.00,0.0050
3789.00,0.0050
3788.00,0.0050
3787.00,0.0050
3786.00,0.0050
3785.00,0.0050
3784.00,0.0050
3783.00,0.0050
3782.00,0.0050
3781.00,0.0051
3780.00,0.0051
3779.00,0.0051
3778.00,0.0051
3777.00,0.0051
3776.00,0.0051
3775.00,0.0051
3774.00,0.0051
3773.00,0.0051
3772.00,0.0051
3771.00,0.0051
3770.00,0.0050
3769.00,0.0050
3768.00,0.0050
3767.00,0.0050
3766.00,0.0050
3765.00,0.0050
3764.00,0.0050
3763.00,0.0050
3762.00,0.0050
3761.00,0.0050
3760.00,0.0051
3759.00,0.0051
3758.00,0.0051
3757.00,0.0050
3756.00,0.0050
3755.00,0.0050
3754.00,0.0050
3753.00,0.0050
3752.00,0.0050
3751.00,0.0050
3750.00,0.0050
3749.00,0.0050
3748.00,0.0050
3747.00,0.0050
3746.00,0.0050
3745.00,0.0050
3744.00,0.0050
3743.00,0.0049
3742.00,0.0049
3741.00,0.0049
3740.00,0.0049
3739.00,0.0049
3738.00,0.0049
3737.00,0.0049
3736.00,0.0049
3735.00,0.0049
3734.00,0.0049
3733.00,0.0049
3732.00,0.0049
3731.00,0.0050
3730.00,0.0050
3729.00,0.0050
3728.00,0.0049
3727.00,0.0049
3726.00,0.0049
3725.00,0.0049
3724.00,0.0049
3723.00,0.0049
3722.00,0.0050
3721.00,0.0050
3720.00,0.0050
3719.00,0.0050
3718.00,0.0049
3717.00,0.0049
3716.00,0.0049
3715.00,0.0049
3714.00,0.0049
3713.00,0.0049
3712.00,0.0049
3711.00,0.0049
3710.00,0.0049
3709.00,0.0049
3708.00,0.0049
3707.00,0.0049
3706.00,0.0049
3705.00,0.0049
3704.00,0.0049
3703.00,0.0048
3702.00,0.0048
3701.00,0.0048
3700.00,0.0048
3699.00,0.0048
3698.00,0.0048
3697.00,0.0048
3696.00,0.0048
3695.00,0.0048
3694.00,0.0048
3693.00,0.0048
3692.00,0.0048
3691.00,0.0048
3690.00,0.0048
3689.00,0.0048
3688.00,0.0048
3687.00,0.0048
3686.00,0.0048
3685.00,0.0048
3684.00,0.0048
3683.00,0.0048
3682.00,0.0048
3681.00,0.0048
3680.00,0.0048
3679.00,0.0048
3678.00,0.0047
3677.00,0.0047
3676.00,0.0047
3675.00,0.0047
3674.00,0.0046
3673.00,0.0046
3672.00,0.0046
3671.00,0.0046
3670.00,0.0046
3669.00,0.0047
3668.00,0.0047
3667.00,0.0047
3666.00,0.0047
3665.00,0.0047
3664.00,0.0047
3663.00,0.0047
3662.00,0.0047
3661.00,0.0047
3660.00,0.0047
3659.00,0.0047
3658.00,0.0047
3657.00,0.0047
3656.00,0.0047
3655.00,0.0047
3654.00,0.0047
3653.00,0.0046
3652.00,0.0046
3651.00,0.0046
3650.00,0.0046
3649.00,0.0045
3648.00,0.0045
3647.00,0.0045
3646.00,0.0046
3645.00,0.0046
3644.00,0.0047
3643.00,0.0047
3642.00,0.0047
3641.00,0.0047
3640.00,0.0047
3639.00,0.0047
3638.00,0.0047
3637.00,0.0047
3636.00,0.0047
3635.00,0.0047
3634.00,0.0047
3633.00,0.0047
3632.00,0.0047
3631.00,0.0047
3630.00,0.0047
3629.00,0.0047
3628.00,0.0047
3627.00,0.0047
3626.00,0.0047
3625.00,0.0047
3624.00,0.0047
3623.00,0.0047
3622.00,0.0048
3621.00,0.0048
3620.00,0.0048
3619.00,0.0048
3618.00,0.0048
3617.00,0.0048
3616.00,0.0048
3615.00,0.0048
3614.00,0.0048
3613.00,0.0048
3612.00,0.0048
3611.00,0.0048
3610.00,0.0047
3609.00,0.0047
3608.00,0.0047
3607.00,0.0047
3606.00,0.0047
3605.00,0.0047
3604.00,0.0047
3603.00,0.0047
3602.00,0.0047
3601.00,0.0047
3600.00,0.0047
3599.00,0.0047
3598.00,0.0047
3597.00,0.0047
3596.00,0.0047
3595.00,0.0047
3594.00,0.0047
3593.00,0.0047
3592.00,0.0047
3591.00,0.0047
3590.00,0.0047
3589.00,0.0047
3588.00,0.0047
3587.00,0.0047
3586.00,0.0047
3585.00,0.0047
3584.00,0.0047
3583.00,0.0047
3582.00,0.0047
3581.00,0.0047
3580.00,0.0047
3579.00,0.0047
3578.00,0.0047
3577.00,0.0047
3576.00,0.0047
3575.00,0.0047
3574.00,0.0047
3573.00,0.0047
3572.00,0.0047
3571.00,0.0047
3570.00,0.0047
3569.00,0.0047
3568.00,0.0047
3567.00,0.0047
3566.00,0.0047
3565.00,0.0047
3564.00,0.0047
3563.00,0.0048
3562.00,0.0048
3561.00,0.0048
3560.00,0.0048
3559.00,0.0048
3558.00,0.0048
3557.00,0.0048
3556.00,0.0048
3555.00,0.0048
3554.00,0.0048
3553.00,0.0048
3552.00,0.0048
3551.00,0.0048
3550.00,0.0048
3549.00,0.0048
3548.00,0.0048
3547.00,0.0048
3546.00,0.0048
3545.00,0.0048
3544.00,0.0048
3543.00,0.0048
3542.00,0.0048
3541.00,0.0048
3540.00,0.0048
3539.00,0.0048
3538.00,0.0048
3537.00,0.0048
3536.00,0.0048
3535.00,0.0048
3534.00,0.0048
3533.00,0.0048
3532.00,0.0048
3531.00,0.0048
3530.00,0.0048
3529.00,0.0048
3528.00,0.0048
3527.00,0.0049
3526.00,0.0049
3525.00,0.0049
3524.00,0.0049
3523.00,0.0048
3522.00,0.0048
3521.00,0.0048
3520.00,0.0048
3519.00,0.0049
3518.00,0.0049
3517.00,0.0049
3516.00,0.0049
3515.00,0.0049
3514.00,0.0049
3513.00,0.0048
3512.00,0.0048
3511.00,0.0048
3510.00,0.0048
3509.00,0.0048
3508.00,0.0048
3507.00,0.0048
3506.00,0.0048
3505.00,0.0048
3504.00,0.0048
3503.00,0.0048
3502.00,0.0049
3501.00,0.0049
3500.00,0.0049
3499.00,0.0049
3498.00,0.0049
3497.00,0.0049
3496.00,0.0049
3495.00,0.0049
3494.00,0.0049
3493.00,0.0049
3492.00,0.0049
3491.00,0.0049
3490.00,0.0049
3489.00,0.0049
3488.00,0.0049
3487.00,0.0049
3486.00,0.0049
3485.00,0.0049
3484.00,0.0049
3483.00,0.0049
3482.00,0.0049
3481.00,0.0050
3480.00,0.0050
3479.00,0.0050
3478.00,0.0050
3477.00,0.0049
3476.00,0.0049
3475.00,0.0049
3474.00,0.0049
3473.00,0.0049
3472.00,0.0049
3471.00,0.0049
3470.00,0.0049
3469.00,0.0049
3468.00,0.0049
3467.00,0.0049
3466.00,0.0050
3465.00,0.0050
3464.00,0.0050
3463.00,0.0050
3462.00,0.0050
3461.00,0.0050
3460.00,0.0050
3459.00,0.0050
3458.00,0.0049
3457.00,0.0049
3456.00,0.0049
3455.00,0.0049
3454.00,0.0049
3453.00,0.0050
3452.00,0.0050
3451.00,0.0050
3450.00,0.0050
3449.00,0.0050
3448.00,0.0050
3447.00,0.0050
3446.00,0.0050
3445.00,0.0050
3444.00,0.0050
3443.00,0.0050
3442.00,0.0050
3441.00,0.0050
3440.00,0.0050
3439.00,0.0050
3438.00,0.0050
3437.00,0.0050
3436.00,0.0051
3435.00,0.0051
3434.00,0.0051
3433.00,0.0051
3432.00,0.0051
3431.00,0.0051
3430.00,0.0051
3429.00,0.0051
3428.00,0.0051
3427.00,0.0051
3426.00,0.0051
3425.00,0.0051
3424.00,0.0051
3423.00,0.0051
3422.00,0.0051
3421.00,0.0052
3420.00,0.0052
3419.00,0.0052
3418.00,0.0052
3417.00,0.0052
3416.00,0.0052
3415.00,0.0052
3414.00,0.0052
3413.00,0.0053
3412.00,0.0053
3411.00,0.0053
3410.00,0.0053
3409.00,0.0053
3408.00,0.0053
3407.00,0.0053
3406.00,0.0053
3405.00,0.0053
3404.00,0.0053
3403.00,0.0053
3402.00,0.0053
3401.00,0.0054
3400.00,0.0054
3399.00,0.0054
3398.00,0.0055
3397.00,0.0055
3396.00,0.0056
3395.00,0.0056
3394.00,0.0057
3393.00,0.0057
3392.00,0.0058
3391.00,0.0058
3390.00,0.0059
3389.00,0.0059
3388.00,0.0060
3387.00,0.0061
3386.00,0.0062
3385.00,0.0062
3384.00,0.0063
3383.00,0.0064
3382.00,0.0065
3381.00,0.0065
3380.00,0.0066
3379.00,0.0067
3378.00,0.0068
3377.00,0.0069
3376.00,0.0069
3375.00,0.0070
3374.00,0.0071
3373.00,0.0071
3372.00,0.0071
3371.00,0.0071
3370.00,0.0072
3369.00,0.0073
3368.00,0.0074
3367.00,0.0075
3366.00,0.0077
3365.00,0.0078
3364.00,0.0080
3363.00,0.0082
3362.00,0.0084
3361.00,0.0085
3360.00,0.0088
3359.00,0.0090
3358.00,0.0093
3357.00,0.0095
3356.00,0.0098
3355.00,0.0101
3354.00,0.0103
3353.00,0.0106
3352.00,0.0109
3351.00,0.0112
3350.00,0.0116
3349.00,0.0120
3348.00,0.0125
3347.00,0.0130
3346.00,0.0136
3345.00,0.0142
3344.00,0.0148
3343.00,0.0155
3342.00,0.0163
3341.00,0.0172
3340.00,0.0181
3339.00,0.0190
3338.00,0.0199
3337.00,0.0208
3336.00,0.0217
3335.00,0.0224
3334.00,0.0230
3333.00,0.0235
3332.00,0.0239
3331.00,0.0241
3330.00,0.0241
3329.00,0.0241
3328.00,0.0240
3327.00,0.0238
3326.00,0.0236
3325.00,0.0234
3324.00,0.0231
3323.00,0.0228
3322.00,0.0224
3321.00,0.0220
3320.00,0.0215
3319.00,0.0210
3318.00,0.0205
3317.00,0.0199
3316.00,0.0194
3315.00,0.0188
3314.00,0.0182
3313.00,0.0177
3312.00,0.0172
3311.00,0.0167
3310.00,0.0162
3309.00,0.0158
3308.00,0.0154
3307.00,0.0150
3306.00,0.0147
3305.00,0.0144
3304.00,0.0142
3303.00,0.0139
3302.00,0.0137
3301.00,0.0135
3300.00,0.0134
3299.00,0.0132
3298.00,0.0130
3297.00,0.0129
3296.00,0.0127
3295.00,0.0126
3294.00,0.0124
3293.00,0.0123
3292.00,0.0122
3291.00,0.0122
3290.00,0.0121
3289.00,0.0120
3288.00,0.0118
3287.00,0.0117
3286.00,0.0115
3285.00,0.0113
3284.00,0.0112
3283.00,0.0110
3282.00,0.0109
3281.00,0.0108
3280.00,0.0107
3279.00,0.0106
3278.00,0.0105
3277.00,0.0104
3276.00,0.0103
3275.00,0.0102
3274.00,0.0102
3273.00,0.0102
3272.00,0.0101
3271.00,0.0101
3270.00,0.0101
3269.00,0.0101
3268.00,0.0101
3267.00,0.0102
3266.00,0.0102
3265.00,0.0102
3264.00,0.0102
3263.00,0.0101
3262.00,0.0101
3261.00,0.0101
3260.00,0.0100
3259.00,0.0100
3258.00,0.0099
3257.00,0.0099
3256.00,0.0099
3255.00,0.0099
3254.00,0.0099
3253.00,0.0098
3252.00,0.0098
3251.00,0.0098
3250.00,0.0097
3249.00,0.0097
3248.00,0.0096
3247.00,0.0096
3246.00,0.0096
3245.00,0.0096
3244.00,0.0096
3243.00,0.0096
3242.00,0.0096
3241.00,0.0096
3240.00,0.0096
3239.00,0.0095
3238.00,0.0095
3237.00,0.0095
3236.00,0.0094
3235.00,0.0093
3234.00,0.0093
3233.00,0.0092
3232.00,0.0091
3231.00,0.0090
3230.00,0.0090
3229.00,0.0089
3228.00,0.0088
3227.00,0.0087
3226.00,0.0086
3225.00,0.0085
3224.00,0.0084
3223.00,0.0083
3222.00,0.0082
3221.00,0.0081
3220.00,0.0080
3219.00,0.0080
3218.00,0.0079
3217.00,0.0079
3216.00,0.0078
3215.00,0.0077
3214.00,0.0077
3213.00,0.0076
3212.00,0.0076
3211.00,0.0075
3210.00,0.0075
3209.00,0.0074
3208.00,0.0074
3207.00,0.0074
3206.00,0.0073
3205.00,0.0073
3204.00,0.0072
3203.00,0.0071
3202.00,0.0071
3201.00,0.0071
3200.00,0.0070
3199.00,0.0070
3198.00,0.0069
3197.00,0.0069
3196.00,0.0069
3195.00,0.0069
3194.00,0.0069
3193.00,0.0069
3192.00,0.0068
3191.00,0.0068
3190.00,0.0068
3189.00,0.0067
3188.00,0.0067
3187.00,0.0067
3186.00,0.0067
3185.00,0.0067
3184.00,0.0067
3183.00,0.0067
3182.00,0.0067
3181.00,0.0067
3180.00,0.0067
3179.00,0.0067
3178.00,0.0067
3177.00,0.0066
3176.00,0.0066
3175.00,0.0066
3174.00,0.0066
3173.00,0.0066
3172.00,0.0066
3171.00,0.0066
3170.00,0.0066
3169.00,0.0066
3168.00,0.0066
3167.00,0.0066
3166.00,0.0065
3165.00,0.0065
3164.00,0.0065
3163.00,0.0065
3162.00,0.0065
3161.00,0.0064
3160.00,0.0064
3159.00,0.0064
3158.00,0.0064
3157.00,0.0064
3156.00,0.0064
3155.00,0.0064
3154.00,0.0064
3153.00,0.0064
3152.00,0.0064
3151.00,0.0065
3150.00,0.0065
3149.00,0.0065
3148.00,0.0065
3147.00,0.0065
3146.00,0.0065
3145.00,0.0066
3144.00,0.0066
3143.00,0.0066
3142.00,0.0066
3141.00,0.0066
3140.00,0.0066
3139.00,0.0066
3138.00,0.0066
3137.00,0.0066
3136.00,0.0066
3135.00,0.0066
3134.00,0.0066
3133.00,0.0066
3132.00,0.0067
3131.00,0.0067
3130.00,0.0067
3129.00,0.0068
3128.00,0.0068
3127.00,0.0068
3126.00,0.0068
3125.00,0.0069
3124.00,0.0069
3123.00,0.0069
3122.00,0.0069
3121.00,0.0070
3120.00,0.0070
3119.00,0.0071
3118.00,0.0071
3117.00,0.0072
3116.00,0.0072
3115.00,0.0073
3114.00,0.0074
3113.00,0.0074
3112.00,0.0075
3111.00,0.0076
3110.00,0.0077
3109.00,0.0077
3108.00,0.0078
3107.00,0.0079
3106.00,0.0080
3105.00,0.0081
3104.00,0.0082
3103.00,0.0082
3102.00,0.0082
3101.00,0.0082
3100.00,0.0081
3099.00,0.0081
3098.00,0.0081
3097.00,0.0080
3096.00,0.0079
3095.00,0.0079
3094.00,0.0078
3093.00,0.0077
3092.00,0.0076
3091.00,0.0076
3090.00,0.0075
3089.00,0.0075
3088.00,0.0075
3087.00,0.0075
3086.00,0.0076
3085.00,0.0076
3084.00,0.0077
3083.00,0.0077
3082.00,0.0077
3081.00,0.0077
3080.00,0.0077
3079.00,0.0077
3078.00,0.0077
3077.00,0.0077
3076.00,0.0076
3075.00,0.0075
3074.00,0.0074
3073.00,0.0072
3072.00,0.0071
3071.00,0.0070
3070.00,0.0069
3069.00,0.0069
3068.00,0.0069
3067.00,0.0070
3066.00,0.0070
3065.00,0.0071
3064.00,0.0072
3063.00,0.0072
3062.00,0.0072
3061.00,0.0072
3060.00,0.0071
3059.00,0.0070
3058.00,0.0069
3057.00,0.0069
3056.00,0.0068
3055.00,0.0068
3054.00,0.0067
3053.00,0.0067
3052.00,0.0067
3051.00,0.0067
3050.00,0.0067
3049.00,0.0067
3048.00,0.0067
3047.00,0.0066
3046.00,0.0066
3045.00,0.0065
3044.00,0.0065
3043.00,0.0065
3042.00,0.0066
3041.00,0.0066
3040.00,0.0067
3039.00,0.0068
3038.00,0.0068
3037.00,0.0069
3036.00,0.0069
3035.00,0.0069
3034.00,0.0070
3033.00,0.0070
3032.00,0.0071
3031.00,0.0072
3030.00,0.0072
3029.00,0.0072
3028.00,0.0073
3027.00,0.0073
3026.00,0.0072
3025.00,0.0072
3024.00,0.0072
3023.00,0.0071
3022.00,0.0071
3021.00,0.0070
3020.00,0.0069
3019.00,0.0069
3018.00,0.0068
3017.00,0.0068
3016.00,0.0068
3015.00,0.0068
3014.00,0.0068
3013.00,0.0068
3012.00,0.0068
3011.00,0.0069
3010.00,0.0070
3009.00,0.0071
3008.00,0.0073
3007.00,0.0074
3006.00,0.0076
3005.00,0.0078
3004.00,0.0080
3003.00,0.0082
3002.00,0.0084
3001.00,0.0085
3000.00,0.0087
2999.00,0.0088
2998.00,0.0089
2997.00,0.0089
2996.00,0.0088
2995.00,0.0087
2994.00,0.0085
2993.00,0.0082
2992.00,0.0079
2991.00,0.0077
2990.00,0.0075
2989.00,0.0073
2988.00,0.0072
2987.00,0.0071
2986.00,0.0070
2985.00,0.0068
2984.00,0.0067
2983.00,0.0065
2982.00,0.0064
2981.00,0.0063
2980.00,0.0063
2979.00,0.0063
2978.00,0.0064
2977.00,0.0065
2976.00,0.0065
2975.00,0.0065
2974.00,0.0066
2973.00,0.0066
2972.00,0.0066
2971.00,0.0067
2970.00,0.0068
2969.00,0.0069
2968.00,0.0070
2967.00,0.0072
2966.00,0.0074
2965.00,0.0076
2964.00,0.0079
2963.00,0.0083
2962.00,0.0087
2961.00,0.0091
2960.00,0.0097
2959.00,0.0102
2958.00,0.0107
2957.00,0.0111
2956.00,0.0115
2955.00,0.0118
2954.00,0.0120
2953.00,0.0120
2952.00,0.0119
2951.00,0.0116
2950.00,0.0113
2949.00,0.0109
2948.00,0.0105
2947.00,0.0100
2946.00,0.0097
2945.00,0.0093
2944.00,0.0091
2943.00,0.0088
2942.00,0.0087
2941.00,0.0085
2940.00,0.0084
2939.00,0.0083
2938.00,0.0082
2937.00,0.0082
2936.00,0.0081
2935.00,0.0081
2934.00,0.0081
2933.00,0.0081
2932.00,0.0080
2931.00,0.0080
2930.00,0.0080
2929.00,0.0080
2928.00,0.0079
2927.00,0.0079
2926.00,0.0078
2925.00,0.0078
2924.00,0.0077
2923.00,0.0076
2922.00,0.0076
2921.00,0.0075
2920.00,0.0074
2919.00,0.0074
2918.00,0.0074
2917.00,0.0073
2916.00,0.0073
2915.00,0.0073
2914.00,0.0073
2913.00,0.0072
2912.00,0.0072
2911.00,0.0071
2910.00,0.0071
2909.00,0.0071
2908.00,0.0070
2907.00,0.0070
2906.00,0.0070
2905.00,0.0069
2904.00,0.0069
2903.00,0.0069
2902.00,0.0068
2901.00,0.0068
2900.00,0.0067
2899.00,0.0067
2898.00,0.0067
2897.00,0.0067
2896.00,0.0066
2895.00,0.0066
2894.00,0.0066
2893.00,0.0065
2892.00,0.0065
2891.00,0.0065
2890.00,0.0065
2889.00,0.0065
2888.00,0.0066
2887.00,0.0066
2886.00,0.0066
2885.00,0.0066
2884.00,0.0066
2883.00,0.0066
2882.00,0.0067
2881.00,0.0067
2880.00,0.0068
2879.00,0.0068
2878.00,0.0068
2877.00,0.0069
2876.00,0.0069
2875.00,0.0069
2874.00,0.0070
2873.00,0.0070
2872.00,0.0071
2871.00,0.0071
2870.00,0.0071
2869.00,0.0071
2868.00,0.0071
2867.00,0.0071
2866.00,0.0071
2865.00,0.0070
2864.00,0.0070
2863.00,0.0069
2862.00,0.0068
2861.00,0.0068
2860.00,0.0068
2859.00,0.0068
2858.00,0.0068
2857.00,0.0068
2856.00,0.0067
2855.00,0.0067
2854.00,0.0067
2853.00,0.0067
2852.00,0.0067
2851.00,0.0068
2850.00,0.0068
2849.00,0.0069
2848.00,0.0070
2847.00,0.0071
2846.00,0.0072
2845.00,0.0073
2844.00,0.0074
2843.00,0.0075
2842.00,0.0074
2841.00,0.0074
2840.00,0.0072
2839.00,0.0071
2838.00,0.0070
2837.00,0.0069
2836.00,0.0068
2835.00,0.0067
2834.00,0.0066
2833.00,0.0066
2832.00,0.0065
2831.00,0.0065
2830.00,0.0065
2829.00,0.0064
2828.00,0.0064
2827.00,0.0064
2826.00,0.0064
2825.00,0.0063
2824.00,0.0063
2823.00,0.0063
2822.00,0.0063
2821.00,0.0063
2820.00,0.0063
2819.00,0.0063
2818.00,0.0063
2817.00,0.0063
2816.00,0.0063
2815.00,0.0064
2814.00,0.0064
2813.00,0.0064
2812.00,0.0064
2811.00,0.0064
2810.00,0.0064
2809.00,0.0064
2808.00,0.0064
2807.00,0.0064
2806.00,0.0064
2805.00,0.0064
2804.00,0.0064
2803.00,0.0063
2802.00,0.0063
2801.00,0.0063
2800.00,0.0063
2799.00,0.0063
2798.00,0.0062
2797.00,0.0062
2796.00,0.0062
2795.00,0.0061
2794.00,0.0061
2793.00,0.0061
2792.00,0.0061
2791.00,0.0060
2790.00,0.0060
2789.00,0.0060
2788.00,0.0059
2787.00,0.0059
2786.00,0.0059
2785.00,0.0059
2784.00,0.0059
2783.00,0.0058
2782.00,0.0058
2781.00,0.0058
2780.00,0.0058
2779.00,0.0058
2778.00,0.0058
2777.00,0.0058
2776.00,0.0058
2775.00,0.0057
2774.00,0.0057
2773.00,0.0057
2772.00,0.0057
2771.00,0.0058
2770.00,0.0058
2769.00,0.0058
2768.00,0.0058
2767.00,0.0058
2766.00,0.0057
2765.00,0.0057
2764.00,0.0057
2763.00,0.0057
2762.00,0.0058
2761.00,0.0058
2760.00,0.0057
2759.00,0.0057
2758.00,0.0057
2757.00,0.0057
