Created as New Dataset,Sample 969 By YargerLab Date Wednesday, July 30 2025
cm-1,A
4000.00,0.0005
3999.00,0.0005
3998.00,0.0005
3997.00,0.0005
3996.00,0.0005
3995.00,0.0005
3994.00,0.0005
3993.00,0.0004
3992.00,0.0004
3991.00,0.0004
3990.00,0.0004
3989.00,0.0004
3988.00,0.0004
3987.00,0.0004
3986.00,0.0004
3985.00,0.0004
3984.00,0.0004
3983.00,0.0004
3982.00,0.0004
3981.00,0.0005
3980.00,0.0005
3979.00,0.0005
3978.00,0.0005
3977.00,0.0005
3976.00,0.0005
3975.00,0.0005
3974.00,0.0005
3973.00,0.0004
3972.00,0.0004
3971.00,0.0004
3970.00,0.0004
3969.00,0.0004
3968.00,0.0004
3967.00,0.0004
3966.00,0.0004
3965.00,0.0004
3964.00,0.0004
3963.00,0.0003
3962.00,0.0003
3961.00,0.0003
3960.00,0.0003
3959.00,0.0003
3958.00,0.0004
3957.00,0.0004
3956.00,0.0004
3955.00,0.0004
3954.00,0.0004
3953.00,0.0004
3952.00,0.0004
3951.00,0.0004
3950.00,0.0004
3949.00,0.0003
3948.00,0.0003
3947.00,0.0003
3946.00,0.0003
3945.00,0.0003
3944.00,0.0003
3943.00,0.0003
3942.00,0.0003
3941.00,0.0003
3940.00,0.0003
3939.00,0.0003
3938.00,0.0003
3937.00,0.0003
3936.00,0.0003
3935.00,0.0004
3934.00,0.0004
3933.00,0.0004
3932.00,0.0003
3931.00,0.0003
3930.00,0.0003
3929.00,0.0003
3928.00,0.0003
3927.00,0.0003
3926.00,0.0003
3925.00,0.0003
3924.00,0.0003
3923.00,0.0003
3922.00,0.0003
3921.00,0.0003
3920.00,0.0003
3919.00,0.0003
3918.00,0.0003
3917.00,0.0003
3916.00,0.0003
3915.00,0.0003
3914.00,0.0003
3913.00,0.0003
3912.00,0.0003
3911.00,0.0003
3910.00,0.0003
3909.00,0.0003
3908.00,0.0003
3907.00,0.0004
3906.00,0.0004
3905.00,0.0004
3904.00,0.0004
3903.00,0.0004
3902.00,0.0004
3901.00,0.0004
3900.00,0.0003
3899.00,0.0003
3898.00,0.0003
3897.00,0.0003
3896.00,0.0003
3895.00,0.0003
3894.00,0.0003
3893.00,0.0003
3892.00,0.0003
3891.00,0.0004
3890.00,0.0004
3889.00,0.0004
3888.00,0.0004
3887.00,0.0003
3886.00,0.0003
3885.00,0.0003
3884.00,0.0004
3883.00,0.0004
3882.00,0.0004
3881.00,0.0003
3880.00,0.0003
3879.00,0.0004
3878.00,0.0004
3877.00,0.0004
3876.00,0.0003
3875.00,0.0003
3874.00,0.0003
3873.00,0.0004
3872.00,0.0004
3871.00,0.0004
3870.00,0.0004
3869.00,0.0004
3868.00,0.0004
3867.00,0.0004
3866.00,0.0004
3865.00,0.0003
3864.00,0.0003
3863.00,0.0003
3862.00,0.0003
3861.00,0.0003
3860.00,0.0003
3859.00,0.0004
3858.00,0.0004
3857.00,0.0005
3856.00,0.0006
3855.00,0.0006
3854.00,0.0006
3853.00,0.0005
3852.00,0.0005
3851.00,0.0005
3850.00,0.0004
3849.00,0.0004
3848.00,0.0003
3847.00,0.0003
3846.00,0.0003
3845.00,0.0004
3844.00,0.0004
3843.00,0.0004
3842.00,0.0005
3841.00,0.0005
3840.00,0.0005
3839.00,0.0005
3838.00,0.0005
3837.00,0.0005
3836.00,0.0005
3835.00,0.0005
3834.00,0.0004
3833.00,0.0004
3832.00,0.0004
3831.00,0.0004
3830.00,0.0004
3829.00,0.0004
3828.00,0.0004
3827.00,0.0004
3826.00,0.0005
3825.00,0.0005
3824.00,0.0005
3823.00,0.0005
3822.00,0.0005
3821.00,0.0005
3820.00,0.0005
3819.00,0.0006
3818.00,0.0006
3817.00,0.0005
3816.00,0.0005
3815.00,0.0005
3814.00,0.0005
3813.00,0.0004
3812.00,0.0004
3811.00,0.0004
3810.00,0.0004
3809.00,0.0004
3808.00,0.0004
3807.00,0.0004
3806.00,0.0005
3805.00,0.0005
3804.00,0.0005
3803.00,0.0005
3802.00,0.0005
3801.00,0.0005
3800.00,0.0005
3799.00,0.0005
3798.00,0.0004
3797.00,0.0004
3796.00,0.0004
3795.00,0.0004
3794.00,0.0004
3793.00,0.0004
3792.00,0.0003
3791.00,0.0003
3790.00,0.0004
3789.00,0.0004
3788.00,0.0004
3787.00,0.0004
3786.00,0.0003
3785.00,0.0003
3784.00,0.0004
3783.00,0.0004
3782.00,0.0004
3781.00,0.0004
3780.00,0.0004
3779.00,0.0004
3778.00,0.0004
3777.00,0.0005
3776.00,0.0005
3775.00,0.0005
3774.00,0.0005
3773.00,0.0005
3772.00,0.0005
3771.00,0.0004
3770.00,0.0004
3769.00,0.0004
3768.00,0.0005
3767.00,0.0005
3766.00,0.0005
3765.00,0.0004
3764.00,0.0005
3763.00,0.0005
3762.00,0.0005
3761.00,0.0005
3760.00,0.0005
3759.00,0.0005
3758.00,0.0005
3757.00,0.0005
3756.00,0.0006
3755.00,0.0006
3754.00,0.0006
3753.00,0.0007
3752.00,0.0007
3751.00,0.0006
3750.00,0.0006
3749.00,0.0007
3748.00,0.0007
3747.00,0.0006
3746.00,0.0006
3745.00,0.0005
3744.00,0.0005
3743.00,0.0006
3742.00,0.0006
3741.00,0.0005
3740.00,0.0005
3739.00,0.0005
3738.00,0.0005
3737.00,0.0005
3736.00,0.0005
3735.00,0.0005
3734.00,0.0005
3733.00,0.0005
3732.00,0.0004
3731.00,0.0004
3730.00,0.0004
3729.00,0.0004
3728.00,0.0004
3727.00,0.0004
3726.00,0.0004
3725.00,0.0004
3724.00,0.0004
3723.00,0.0003
3722.00,0.0003
3721.00,0.0003
3720.00,0.0003
3719.00,0.0003
3718.00,0.0003
3717.00,0.0003
3716.00,0.0004
3715.00,0.0004
3714.00,0.0004
3713.00,0.0005
3712.00,0.0005
3711.00,0.0005
3710.00,0.0005
3709.00,0.0005
3708.00,0.0005
3707.00,0.0004
3706.00,0.0004
3705.00,0.0004
3704.00,0.0004
3703.00,0.0004
3702.00,0.0004
3701.00,0.0004
3700.00,0.0004
3699.00,0.0004
3698.00,0.0003
3697.00,0.0003
3696.00,0.0003
3695.00,0.0003
3694.00,0.0004
3693.00,0.0004
3692.00,0.0004
3691.00,0.0004
3690.00,0.0004
3689.00,0.0004
3688.00,0.0004
3687.00,0.0004
3686.00,0.0004
3685.00,0.0003
3684.00,0.0003
3683.00,0.0003
3682.00,0.0003
3681.00,0.0004
3680.00,0.0004
3679.00,0.0005
3678.00,0.0005
3677.00,0.0005
3676.00,0.0005
3675.00,0.0005
3674.00,0.0005
3673.00,0.0006
3672.00,0.0005
3671.00,0.0005
3670.00,0.0004
3669.00,0.0004
3668.00,0.0004
3667.00,0.0004
3666.00,0.0004
3665.00,0.0003
3664.00,0.0003
3663.00,0.0003
3662.00,0.0003
3661.00,0.0003
3660.00,0.0004
3659.00,0.0004
3658.00,0.0004
3657.00,0.0004
3656.00,0.0004
3655.00,0.0005
3654.00,0.0005
3653.00,0.0005
3652.00,0.0005
3651.00,0.0005
3650.00,0.0005
3649.00,0.0005
3648.00,0.0005
3647.00,0.0005
3646.00,0.0005
3645.00,0.0005
3644.00,0.0005
3643.00,0.0005
3642.00,0.0005
3641.00,0.0005
3640.00,0.0005
3639.00,0.0005
3638.00,0.0005
3637.00,0.0005
3636.00,0.0006
3635.00,0.0006
3634.00,0.0006
3633.00,0.0007
3632.00,0.0007
3631.00,0.0007
3630.00,0.0007
3629.00,0.0007
3628.00,0.0007
3627.00,0.0007
3626.00,0.0007
3625.00,0.0006
3624.00,0.0006
3623.00,0.0006
3622.00,0.0007
3621.00,0.0007
3620.00,0.0007
3619.00,0.0007
3618.00,0.0007
3617.00,0.0008
3616.00,0.0008
3615.00,0.0007
3614.00,0.0007
3613.00,0.0007
3612.00,0.0007
3611.00,0.0008
3610.00,0.0008
3609.00,0.0008
3608.00,0.0008
3607.00,0.0008
3606.00,0.0008
3605.00,0.0008
3604.00,0.0008
3603.00,0.0008
3602.00,0.0008
3601.00,0.0009
3600.00,0.0009
3599.00,0.0009
3598.00,0.0010
3597.00,0.0010
3596.00,0.0009
3595.00,0.0009
3594.00,0.0009
3593.00,0.0010
3592.00,0.0010
3591.00,0.0011
3590.00,0.0011
3589.00,0.0011
3588.00,0.0010
3587.00,0.0010
3586.00,0.0009
3585.00,0.0009
3584.00,0.0010
3583.00,0.0010
3582.00,0.0010
3581.00,0.0010
3580.00,0.0011
3579.00,0.0011
3578.00,0.0011
3577.00,0.0011
3576.00,0.0011
3575.00,0.0012
3574.00,0.0012
3573.00,0.0013
3572.00,0.0013
3571.00,0.0013
3570.00,0.0013
3569.00,0.0013
3568.00,0.0013
3567.00,0.0012
3566.00,0.0012
3565.00,0.0012
3564.00,0.0013
3563.00,0.0013
3562.00,0.0013
3561.00,0.0013
3560.00,0.0014
3559.00,0.0014
3558.00,0.0014
3557.00,0.0014
3556.00,0.0015
3555.00,0.0015
3554.00,0.0015
3553.00,0.0015
3552.00,0.0015
3551.00,0.0015
3550.00,0.0016
3549.00,0.0016
3548.00,0.0016
3547.00,0.0016
3546.00,0.0016
3545.00,0.0016
3544.00,0.0016
3543.00,0.0016
3542.00,0.0017
3541.00,0.0017
3540.00,0.0017
3539.00,0.0018
3538.00,0.0018
3537.00,0.0018
3536.00,0.0018
3535.00,0.0019
3534.00,0.0019
3533.00,0.0019
3532.00,0.0019
3531.00,0.0019
3530.00,0.0019
3529.00,0.0019
3528.00,0.0019
3527.00,0.0019
3526.00,0.0019
3525.00,0.0019
3524.00,0.0019
3523.00,0.0020
3522.00,0.0020
3521.00,0.0020
3520.00,0.0020
3519.00,0.0020
3518.00,0.0020
3517.00,0.0021
3516.00,0.0021
3515.00,0.0021
3514.00,0.0021
3513.00,0.0022
3512.00,0.0022
3511.00,0.0022
3510.00,0.0022
3509.00,0.0022
3508.00,0.0022
3507.00,0.0022
3506.00,0.0023
3505.00,0.0023
3504.00,0.0023
3503.00,0.0023
3502.00,0.0022
3501.00,0.0022
3500.00,0.0022
3499.00,0.0022
3498.00,0.0023
3497.00,0.0023
3496.00,0.0023
3495.00,0.0023
3494.00,0.0024
3493.00,0.0024
3492.00,0.0024
3491.00,0.0024
3490.00,0.0024
3489.00,0.0024
3488.00,0.0024
3487.00,0.0024
3486.00,0.0024
3485.00,0.0024
3484.00,0.0024
3483.00,0.0024
3482.00,0.0024
3481.00,0.0024
3480.00,0.0024
3479.00,0.0024
3478.00,0.0024
3477.00,0.0024
3476.00,0.0024
3475.00,0.0024
3474.00,0.0024
3473.00,0.0024
3472.00,0.0024
3471.00,0.0024
3470.00,0.0025
3469.00,0.0025
3468.00,0.0025
3467.00,0.0025
3466.00,0.0025
3465.00,0.0025
3464.00,0.0025
3463.00,0.0025
3462.00,0.0025
3461.00,0.0025
3460.00,0.0025
3459.00,0.0025
3458.00,0.0025
3457.00,0.0025
3456.00,0.0025
3455.00,0.0025
3454.00,0.0025
3453.00,0.0026
3452.00,0.0026
3451.00,0.0026
3450.00,0.0026
3449.00,0.0027
3448.00,0.0027
3447.00,0.0026
3446.00,0.0026
3445.00,0.0026
3444.00,0.0026
3443.00,0.0026
3442.00,0.0027
3441.00,0.0027
3440.00,0.0027
3439.00,0.0027
3438.00,0.0027
3437.00,0.0027
3436.00,0.0027
3435.00,0.0027
3434.00,0.0028
3433.00,0.0028
3432.00,0.0028
3431.00,0.0028
3430.00,0.0028
3429.00,0.0028
3428.00,0.0028
3427.00,0.0028
3426.00,0.0028
3425.00,0.0029
3424.00,0.0029
3423.00,0.0029
3422.00,0.0029
3421.00,0.0029
3420.00,0.0029
3419.00,0.0029
3418.00,0.0029
3417.00,0.0029
3416.00,0.0030
3415.00,0.0030
3414.00,0.0030
3413.00,0.0030
3412.00,0.0030
3411.00,0.0031
3410.00,0.0031
3409.00,0.0031
3408.00,0.0031
3407.00,0.0031
3406.00,0.0031
3405.00,0.0031
3404.00,0.0032
3403.00,0.0032
3402.00,0.0033
3401.00,0.0033
3400.00,0.0033
3399.00,0.0033
3398.00,0.0033
3397.00,0.0033
3396.00,0.0033
3395.00,0.0033
3394.00,0.0033
3393.00,0.0033
3392.00,0.0033
3391.00,0.0033
3390.00,0.0033
3389.00,0.0033
3388.00,0.0034
3387.00,0.0034
3386.00,0.0034
3385.00,0.0035
3384.00,0.0035
3383.00,0.0035
3382.00,0.0035
3381.00,0.0035
3380.00,0.0035
3379.00,0.0036
3378.00,0.0036
3377.00,0.0036
3376.00,0.0036
3375.00,0.0036
3374.00,0.0036
3373.00,0.0036
3372.00,0.0036
3371.00,0.0037
3370.00,0.0037
3369.00,0.0038
3368.00,0.0038
3367.00,0.0038
3366.00,0.0038
3365.00,0.0038
3364.00,0.0038
3363.00,0.0039
3362.00,0.0039
3361.00,0.0040
3360.00,0.0040
3359.00,0.0040
3358.00,0.0040
3357.00,0.0041
3356.00,0.0041
3355.00,0.0041
3354.00,0.0042
3353.00,0.0042
3352.00,0.0042
3351.00,0.0043
3350.00,0.0043
3349.00,0.0044
3348.00,0.0044
3347.00,0.0045
3346.00,0.0045
3345.00,0.0046
3344.00,0.0046
3343.00,0.0047
3342.00,0.0047
3341.00,0.0048
3340.00,0.0049
3339.00,0.0050
3338.00,0.0050
3337.00,0.0051
3336.00,0.0052
3335.00,0.0052
3334.00,0.0053
3333.00,0.0054
3332.00,0.0055
3331.00,0.0055
3330.00,0.0056
3329.00,0.0057
3328.00,0.0058
3327.00,0.0059
3326.00,0.0060
3325.00,0.0061
3324.00,0.0062
3323.00,0.0063
3322.00,0.0064
3321.00,0.0065
3320.00,0.0066
3319.00,0.0067
3318.00,0.0068
3317.00,0.0069
3316.00,0.0071
3315.00,0.0072
3314.00,0.0073
3313.00,0.0075
3312.00,0.0076
3311.00,0.0077
3310.00,0.0079
3309.00,0.0080
3308.00,0.0081
3307.00,0.0083
3306.00,0.0084
3305.00,0.0085
3304.00,0.0087
3303.00,0.0088
3302.00,0.0089
3301.00,0.0090
3300.00,0.0092
3299.00,0.0093
3298.00,0.0095
3297.00,0.0096
3296.00,0.0097
3295.00,0.0098
3294.00,0.0099
3293.00,0.0100
3292.00,0.0102
3291.00,0.0103
3290.00,0.0104
3289.00,0.0105
3288.00,0.0105
3287.00,0.0106
3286.00,0.0107
3285.00,0.0107
3284.00,0.0108
3283.00,0.0108
3282.00,0.0108
3281.00,0.0108
3280.00,0.0108
3279.00,0.0108
3278.00,0.0108
3277.00,0.0108
3276.00,0.0108
3275.00,0.0107
3274.00,0.0107
3273.00,0.0106
3272.00,0.0105
3271.00,0.0104
3270.00,0.0103
3269.00,0.0102
3268.00,0.0101
3267.00,0.0100
3266.00,0.0099
3265.00,0.0098
3264.00,0.0096
3263.00,0.0095
3262.00,0.0093
3261.00,0.0092
3260.00,0.0091
3259.00,0.0090
3258.00,0.0088
3257.00,0.0087
3256.00,0.0086
3255.00,0.0085
3254.00,0.0084
3253.00,0.0083
3252.00,0.0082
3251.00,0.0080
3250.00,0.0079
3249.00,0.0078
3248.00,0.0077
3247.00,0.0076
3246.00,0.0075
3245.00,0.0073
3244.00,0.0073
3243.00,0.0072
3242.00,0.0071
3241.00,0.0070
3240.00,0.0069
3239.00,0.0068
3238.00,0.0067
3237.00,0.0066
3236.00,0.0066
3235.00,0.0065
3234.00,0.0064
3233.00,0.0064
3232.00,0.0063
3231.00,0.0062
3230.00,0.0061
3229.00,0.0061
3228.00,0.0060
3227.00,0.0060
3226.00,0.0059
3225.00,0.0058
3224.00,0.0058
3223.00,0.0057
3222.00,0.0057
3221.00,0.0056
3220.00,0.0056
3219.00,0.0055
3218.00,0.0054
3217.00,0.0054
3216.00,0.0053
3215.00,0.0052
3214.00,0.0052
3213.00,0.0051
3212.00,0.0051
3211.00,0.0050
3210.00,0.0050
3209.00,0.0049
3208.00,0.0049
3207.00,0.0048
3206.00,0.0048
3205.00,0.0047
3204.00,0.0047
3203.00,0.0046
3202.00,0.0046
3201.00,0.0045
3200.00,0.0044
3199.00,0.0044
3198.00,0.0044
3197.00,0.0043
3196.00,0.0043
3195.00,0.0043
3194.00,0.0042
3193.00,0.0042
3192.00,0.0041
3191.00,0.0041
3190.00,0.0040
3189.00,0.0040
3188.00,0.0039
3187.00,0.0039
3186.00,0.0038
3185.00,0.0038
3184.00,0.0037
3183.00,0.0037
3182.00,0.0037
3181.00,0.0036
3180.00,0.0036
3179.00,0.0036
3178.00,0.0035
3177.00,0.0035
3176.00,0.0034
3175.00,0.0034
3174.00,0.0034
3173.00,0.0033
3172.00,0.0033
3171.00,0.0032
3170.00,0.0032
3169.00,0.0032
3168.00,0.0032
3167.00,0.0031
3166.00,0.0031
3165.00,0.0031
3164.00,0.0031
3163.00,0.0030
3162.00,0.0030
3161.00,0.0030
3160.00,0.0029
3159.00,0.0029
3158.00,0.0029
3157.00,0.0029
3156.00,0.0029
3155.00,0.0029
3154.00,0.0028
3153.00,0.0028
3152.00,0.0028
3151.00,0.0027
3150.00,0.0027
3149.00,0.0027
3148.00,0.0027
3147.00,0.0027
3146.00,0.0027
3145.00,0.0026
3144.00,0.0026
3143.00,0.0026
3142.00,0.0026
3141.00,0.0026
3140.00,0.0026
3139.00,0.0026
3138.00,0.0026
3137.00,0.0026
3136.00,0.0026
3135.00,0.0026
3134.00,0.0026
3133.00,0.0025
3132.00,0.0025
3131.00,0.0025
3130.00,0.0025
3129.00,0.0025
3128.00,0.0025
3127.00,0.0025
3126.00,0.0025
3125.00,0.0025
3124.00,0.0025
3123.00,0.0025
3122.00,0.0025
3121.00,0.0025
3120.00,0.0025
3119.00,0.0025
3118.00,0.0025
3117.00,0.0025
3116.00,0.0025
3115.00,0.0025
3114.00,0.0025
3113.00,0.0026
3112.00,0.0026
3111.00,0.0026
3110.00,0.0026
3109.00,0.0026
3108.00,0.0026
3107.00,0.0027
3106.00,0.0027
3105.00,0.0027
3104.00,0.0027
3103.00,0.0027
3102.00,0.0027
3101.00,0.0027
3100.00,0.0027
3099.00,0.0027
3098.00,0.0027
3097.00,0.0028
3096.00,0.0028
3095.00,0.0028
3094.00,0.0028
3093.00,0.0029
3092.00,0.0029
3091.00,0.0029
3090.00,0.0029
3089.00,0.0029
3088.00,0.0029
3087.00,0.0029
3086.00,0.0030
3085.00,0.0030
3084.00,0.0030
3083.00,0.0030
3082.00,0.0030
3081.00,0.0030
3080.00,0.0030
3079.00,0.0030
3078.00,0.0030
3077.00,0.0030
3076.00,0.0031
3075.00,0.0031
3074.00,0.0031
3073.00,0.0031
3072.00,0.0030
3071.00,0.0030
3070.00,0.0030
3069.00,0.0030
3068.00,0.0031
3067.00,0.0031
3066.00,0.0031
3065.00,0.0031
3064.00,0.0031
3063.00,0.0030
3062.00,0.0030
3061.00,0.0030
3060.00,0.0030
3059.00,0.0029
3058.00,0.0029
3057.00,0.0029
3056.00,0.0029
3055.00,0.0028
3054.00,0.0028
3053.00,0.0028
3052.00,0.0028
3051.00,0.0027
3050.00,0.0027
3049.00,0.0027
3048.00,0.0027
3047.00,0.0026
3046.00,0.0026
3045.00,0.0026
3044.00,0.0026
3043.00,0.0025
3042.00,0.0025
3041.00,0.0025
3040.00,0.0025
3039.00,0.0024
3038.00,0.0024
3037.00,0.0024
3036.00,0.0024
3035.00,0.0023
3034.00,0.0023
3033.00,0.0023
3032.00,0.0023
3031.00,0.0023
3030.00,0.0023
3029.00,0.0023
3028.00,0.0023
3027.00,0.0023
3026.00,0.0023
3025.00,0.0022
3024.00,0.0022
3023.00,0.0022
3022.00,0.0022
3021.00,0.0022
3020.00,0.0022
3019.00,0.0021
3018.00,0.0021
3017.00,0.0021
3016.00,0.0021
3015.00,0.0021
3014.00,0.0021
3013.00,0.0021
3012.00,0.0021
3011.00,0.0021
3010.00,0.0021
3009.00,0.0021
3008.00,0.0021
3007.00,0.0021
3006.00,0.0020
3005.00,0.0020
3004.00,0.0020
3003.00,0.0020
3002.00,0.0020
3001.00,0.0020
3000.00,0.0020
2999.00,0.0020
2998.00,0.0020
2997.00,0.0019
2996.00,0.0019
2995.00,0.0019
2994.00,0.0019
2993.00,0.0019
2992.00,0.0019
2991.00,0.0019
2990.00,0.0019
2989.00,0.0019
2988.00,0.0019
2987.00,0.0019
2986.00,0.0018
2985.00,0.0018
2984.00,0.0018
2983.00,0.0018
2982.00,0.0018
2981.00,0.0018
2980.00,0.0018
2979.00,0.0018
2978.00,0.0017
2977.00,0.0017
2976.00,0.0017
2975.00,0.0017
2974.00,0.0017
2973.00,0.0016
2972.00,0.0016
2971.00,0.0016
2970.00,0.0015
2969.00,0.0015
2968.00,0.0014
2967.00,0.0014
2966.00,0.0013
2965.00,0.0013
2964.00,0.0012
2963.00,0.0012
2962.00,0.0012
2961.00,0.0012
2960.00,0.0012
2959.00,0.0012
2958.00,0.0013
2957.00,0.0014
2956.00,0.0014
2955.00,0.0015
2954.00,0.0016
2953.00,0.0018
2952.00,0.0019
2951.00,0.0021
2950.00,0.0022
2949.00,0.0023
2948.00,0.0024
2947.00,0.0025
2946.00,0.0025
2945.00,0.0025
2944.00,0.0025
2943.00,0.0025
2942.00,0.0024
2941.00,0.0023
2940.00,0.0022
2939.00,0.0021
2938.00,0.0019
2937.00,0.0018
2936.00,0.0017
2935.00,0.0016
2934.00,0.0015
2933.00,0.0014
2932.00,0.0012
2931.00,0.0011
2930.00,0.0011
2929.00,0.0010
2928.00,0.0010
2927.00,0.0010
2926.00,0.0010
2925.00,0.0010
2924.00,0.0011
2923.00,0.0012
2922.00,0.0013
2921.00,0.0014
2920.00,0.0015
2919.00,0.0017
2918.00,0.0019
2917.00,0.0021
2916.00,0.0024
2915.00,0.0029
2914.00,0.0033
2913.00,0.0038
2912.00,0.0043
2911.00,0.0048
2910.00,0.0054
2909.00,0.0059
2908.00,0.0063
2907.00,0.0068
2906.00,0.0072
2905.00,0.0077
2904.00,0.0081
2903.00,0.0086
2902.00,0.0090
2901.00,0.0095
2900.00,0.0100
2899.00,0.0105
2898.00,0.0110
2897.00,0.0116
2896.00,0.0121
2895.00,0.0126
2894.00,0.0131
2893.00,0.0136
2892.00,0.0140
2891.00,0.0144
2890.00,0.0147
2889.00,0.0150
2888.00,0.0152
2887.00,0.0154
2886.00,0.0156
2885.00,0.0157
2884.00,0.0157
2883.00,0.0158
2882.00,0.0158
2881.00,0.0158
2880.00,0.0157
2879.00,0.0157
2878.00,0.0156
2877.00,0.0155
2876.00,0.0154
2875.00,0.0153
2874.00,0.0151
2873.00,0.0149
2872.00,0.0146
2871.00,0.0144
2870.00,0.0141
2869.00,0.0139
2868.00,0.0137
2867.00,0.0136
2866.00,0.0134
2865.00,0.0133
2864.00,0.0133
2863.00,0.0132
2862.00,0.0131
2861.00,0.0131
2860.00,0.0130
2859.00,0.0128
2858.00,0.0127
2857.00,0.0124
2856.00,0.0120
2855.00,0.0116
2854.00,0.0111
2853.00,0.0105
2852.00,0.0099
2851.00,0.0094
2850.00,0.0089
2849.00,0.0085
2848.00,0.0082
2847.00,0.0080
2846.00,0.0079
2845.00,0.0078
2844.00,0.0077
2843.00,0.0077
2842.00,0.0076
2841.00,0.0075
2840.00,0.0074
2839.00,0.0073
2838.00,0.0072
2837.00,0.0072
2836.00,0.0071
2835.00,0.0071
2834.00,0.0070
2833.00,0.0070
2832.00,0.0070
2831.00,0.0070
2830.00,0.0069
2829.00,0.0069
2828.00,0.0069
2827.00,0.0068
2826.00,0.0068
2825.00,0.0068
2824.00,0.0068
2823.00,0.0067
2822.00,0.0067
2821.00,0.0067
2820.00,0.0067
2819.00,0.0066
2818.00,0.0066
2817.00,0.0065
2816.00,0.0065
2815.00,0.0064
2814.00,0.0064
2813.00,0.0063
2812.00,0.0063
2811.00,0.0062
2810.00,0.0062
2809.00,0.0062
2808.00,0.0062
2807.00,0.0062
2806.00,0.0062
2805.00,0.0062
2804.00,0.0062
2803.00,0.0061
2802.00,0.0061
2801.00,0.0060
2800.00,0.0059
2799.00,0.0057
2798.00,0.0055
2797.00,0.0054
2796.00,0.0052
2795.00,0.0050
2794.00,0.0049
2793.00,0.0048
2792.00,0.0047
2791.00,0.0046
2790.00,0.0045
2789.00,0.0043
2788.00,0.0042
2787.00,0.0041
2786.00,0.0040
2785.00,0.0039
2784.00,0.0038
2783.00,0.0037
2782.00,0.0037
2781.00,0.0036
2780.00,0.0036
2779.00,0.0035
2778.00,0.0034
2777.00,0.0034
2776.00,0.0033
2775.00,0.0033
2774.00,0.0032
2773.00,0.0032
2772.00,0.0031
2771.00,0.0031
2770.00,0.0030
2769.00,0.0030
2768.00,0.0029
2767.00,0.0029
2766.00,0.0029
2765.00,0.0029
2764.00,0.0029
2763.00,0.0028
2762.00,0.0028
2761.00,0.0028
2760.00,0.0027
2759.00,0.0027
2758.00,0.0027
2757.00,0.0027
