Created as New Dataset,Sample 709 By YargerLab Date Wednesday, June 18 2025
cm-1,A
4000.00,0.0023
3999.00,0.0023
3998.00,0.0023
3997.00,0.0023
3996.00,0.0023
3995.00,0.0023
3994.00,0.0023
3993.00,0.0023
3992.00,0.0023
3991.00,0.0023
3990.00,0.0023
3989.00,0.0023
3988.00,0.0023
3987.00,0.0023
3986.00,0.0023
3985.00,0.0023
3984.00,0.0023
3983.00,0.0023
3982.00,0.0023
3981.00,0.0023
3980.00,0.0023
3979.00,0.0023
3978.00,0.0023
3977.00,0.0023
3976.00,0.0023
3975.00,0.0023
3974.00,0.0023
3973.00,0.0023
3972.00,0.0023
3971.00,0.0023
3970.00,0.0023
3969.00,0.0023
3968.00,0.0023
3967.00,0.0023
3966.00,0.0024
3965.00,0.0023
3964.00,0.0023
3963.00,0.0023
3962.00,0.0023
3961.00,0.0023
3960.00,0.0023
3959.00,0.0023
3958.00,0.0023
3957.00,0.0023
3956.00,0.0023
3955.00,0.0023
3954.00,0.0023
3953.00,0.0023
3952.00,0.0023
3951.00,0.0023
3950.00,0.0023
3949.00,0.0023
3948.00,0.0023
3947.00,0.0022
3946.00,0.0022
3945.00,0.0022
3944.00,0.0022
3943.00,0.0022
3942.00,0.0022
3941.00,0.0023
3940.00,0.0023
3939.00,0.0023
3938.00,0.0023
3937.00,0.0023
3936.00,0.0023
3935.00,0.0023
3934.00,0.0022
3933.00,0.0022
3932.00,0.0022
3931.00,0.0022
3930.00,0.0022
3929.00,0.0022
3928.00,0.0022
3927.00,0.0022
3926.00,0.0022
3925.00,0.0022
3924.00,0.0023
3923.00,0.0023
3922.00,0.0023
3921.00,0.0023
3920.00,0.0022
3919.00,0.0022
3918.00,0.0022
3917.00,0.0022
3916.00,0.0022
3915.00,0.0022
3914.00,0.0022
3913.00,0.0022
3912.00,0.0022
3911.00,0.0023
3910.00,0.0023
3909.00,0.0023
3908.00,0.0023
3907.00,0.0022
3906.00,0.0022
3905.00,0.0022
3904.00,0.0022
3903.00,0.0022
3902.00,0.0022
3901.00,0.0022
3900.00,0.0022
3899.00,0.0022
3898.00,0.0022
3897.00,0.0022
3896.00,0.0021
3895.00,0.0021
3894.00,0.0021
3893.00,0.0022
3892.00,0.0022
3891.00,0.0022
3890.00,0.0022
3889.00,0.0022
3888.00,0.0022
3887.00,0.0021
3886.00,0.0021
3885.00,0.0021
3884.00,0.0021
3883.00,0.0021
3882.00,0.0021
3881.00,0.0021
3880.00,0.0021
3879.00,0.0022
3878.00,0.0022
3877.00,0.0021
3876.00,0.0021
3875.00,0.0021
3874.00,0.0021
3873.00,0.0021
3872.00,0.0022
3871.00,0.0022
3870.00,0.0022
3869.00,0.0022
3868.00,0.0022
3867.00,0.0022
3866.00,0.0022
3865.00,0.0022
3864.00,0.0022
3863.00,0.0022
3862.00,0.0022
3861.00,0.0022
3860.00,0.0022
3859.00,0.0022
3858.00,0.0022
3857.00,0.0022
3856.00,0.0023
3855.00,0.0023
3854.00,0.0023
3853.00,0.0022
3852.00,0.0022
3851.00,0.0021
3850.00,0.0021
3849.00,0.0021
3848.00,0.0021
3847.00,0.0021
3846.00,0.0021
3845.00,0.0022
3844.00,0.0022
3843.00,0.0021
3842.00,0.0021
3841.00,0.0021
3840.00,0.0020
3839.00,0.0021
3838.00,0.0021
3837.00,0.0021
3836.00,0.0021
3835.00,0.0021
3834.00,0.0022
3833.00,0.0022
3832.00,0.0021
3831.00,0.0021
3830.00,0.0021
3829.00,0.0021
3828.00,0.0021
3827.00,0.0021
3826.00,0.0021
3825.00,0.0021
3824.00,0.0021
3823.00,0.0021
3822.00,0.0021
3821.00,0.0021
3820.00,0.0022
3819.00,0.0022
3818.00,0.0022
3817.00,0.0021
3816.00,0.0021
3815.00,0.0021
3814.00,0.0021
3813.00,0.0021
3812.00,0.0021
3811.00,0.0021
3810.00,0.0021
3809.00,0.0021
3808.00,0.0021
3807.00,0.0021
3806.00,0.0021
3805.00,0.0021
3804.00,0.0021
3803.00,0.0021
3802.00,0.0021
3801.00,0.0021
3800.00,0.0021
3799.00,0.0021
3798.00,0.0021
3797.00,0.0021
3796.00,0.0021
3795.00,0.0021
3794.00,0.0021
3793.00,0.0021
3792.00,0.0021
3791.00,0.0021
3790.00,0.0022
3789.00,0.0022
3788.00,0.0022
3787.00,0.0021
3786.00,0.0021
3785.00,0.0021
3784.00,0.0021
3783.00,0.0021
3782.00,0.0021
3781.00,0.0021
3780.00,0.0022
3779.00,0.0022
3778.00,0.0022
3777.00,0.0022
3776.00,0.0022
3775.00,0.0022
3774.00,0.0022
3773.00,0.0022
3772.00,0.0022
3771.00,0.0022
3770.00,0.0021
3769.00,0.0021
3768.00,0.0021
3767.00,0.0021
3766.00,0.0021
3765.00,0.0021
3764.00,0.0021
3763.00,0.0021
3762.00,0.0021
3761.00,0.0021
3760.00,0.0021
3759.00,0.0021
3758.00,0.0021
3757.00,0.0021
3756.00,0.0021
3755.00,0.0021
3754.00,0.0021
3753.00,0.0021
3752.00,0.0021
3751.00,0.0021
3750.00,0.0020
3749.00,0.0020
3748.00,0.0020
3747.00,0.0020
3746.00,0.0020
3745.00,0.0019
3744.00,0.0019
3743.00,0.0019
3742.00,0.0019
3741.00,0.0019
3740.00,0.0018
3739.00,0.0018
3738.00,0.0018
3737.00,0.0018
3736.00,0.0018
3735.00,0.0018
3734.00,0.0019
3733.00,0.0019
3732.00,0.0018
3731.00,0.0019
3730.00,0.0019
3729.00,0.0019
3728.00,0.0019
3727.00,0.0019
3726.00,0.0019
3725.00,0.0019
3724.00,0.0018
3723.00,0.0018
3722.00,0.0018
3721.00,0.0018
3720.00,0.0019
3719.00,0.0019
3718.00,0.0019
3717.00,0.0019
3716.00,0.0020
3715.00,0.0020
3714.00,0.0020
3713.00,0.0019
3712.00,0.0019
3711.00,0.0018
3710.00,0.0018
3709.00,0.0018
3708.00,0.0018
3707.00,0.0018
3706.00,0.0018
3705.00,0.0018
3704.00,0.0019
3703.00,0.0019
3702.00,0.0019
3701.00,0.0019
3700.00,0.0019
3699.00,0.0019
3698.00,0.0019
3697.00,0.0019
3696.00,0.0019
3695.00,0.0019
3694.00,0.0019
3693.00,0.0019
3692.00,0.0019
3691.00,0.0019
3690.00,0.0018
3689.00,0.0018
3688.00,0.0018
3687.00,0.0018
3686.00,0.0018
3685.00,0.0018
3684.00,0.0018
3683.00,0.0019
3682.00,0.0019
3681.00,0.0019
3680.00,0.0019
3679.00,0.0019
3678.00,0.0019
3677.00,0.0018
3676.00,0.0018
3675.00,0.0018
3674.00,0.0018
3673.00,0.0018
3672.00,0.0018
3671.00,0.0018
3670.00,0.0018
3669.00,0.0018
3668.00,0.0018
3667.00,0.0018
3666.00,0.0018
3665.00,0.0018
3664.00,0.0018
3663.00,0.0018
3662.00,0.0018
3661.00,0.0019
3660.00,0.0019
3659.00,0.0019
3658.00,0.0019
3657.00,0.0018
3656.00,0.0018
3655.00,0.0018
3654.00,0.0017
3653.00,0.0017
3652.00,0.0017
3651.00,0.0017
3650.00,0.0017
3649.00,0.0017
3648.00,0.0017
3647.00,0.0017
3646.00,0.0018
3645.00,0.0018
3644.00,0.0018
3643.00,0.0018
3642.00,0.0018
3641.00,0.0018
3640.00,0.0018
3639.00,0.0019
3638.00,0.0019
3637.00,0.0018
3636.00,0.0018
3635.00,0.0018
3634.00,0.0018
3633.00,0.0018
3632.00,0.0018
3631.00,0.0018
3630.00,0.0018
3629.00,0.0018
3628.00,0.0018
3627.00,0.0018
3626.00,0.0018
3625.00,0.0018
3624.00,0.0019
3623.00,0.0019
3622.00,0.0019
3621.00,0.0019
3620.00,0.0019
3619.00,0.0019
3618.00,0.0020
3617.00,0.0020
3616.00,0.0020
3615.00,0.0020
3614.00,0.0021
3613.00,0.0021
3612.00,0.0022
3611.00,0.0022
3610.00,0.0021
3609.00,0.0021
3608.00,0.0021
3607.00,0.0021
3606.00,0.0021
3605.00,0.0021
3604.00,0.0021
3603.00,0.0021
3602.00,0.0021
3601.00,0.0021
3600.00,0.0021
3599.00,0.0021
3598.00,0.0021
3597.00,0.0021
3596.00,0.0021
3595.00,0.0021
3594.00,0.0021
3593.00,0.0021
3592.00,0.0022
3591.00,0.0022
3590.00,0.0022
3589.00,0.0022
3588.00,0.0022
3587.00,0.0022
3586.00,0.0022
3585.00,0.0022
3584.00,0.0022
3583.00,0.0022
3582.00,0.0023
3581.00,0.0023
3580.00,0.0023
3579.00,0.0024
3578.00,0.0024
3577.00,0.0024
3576.00,0.0024
3575.00,0.0024
3574.00,0.0024
3573.00,0.0024
3572.00,0.0025
3571.00,0.0024
3570.00,0.0024
3569.00,0.0024
3568.00,0.0024
3567.00,0.0024
3566.00,0.0025
3565.00,0.0025
3564.00,0.0025
3563.00,0.0026
3562.00,0.0026
3561.00,0.0027
3560.00,0.0027
3559.00,0.0028
3558.00,0.0028
3557.00,0.0028
3556.00,0.0028
3555.00,0.0029
3554.00,0.0029
3553.00,0.0029
3552.00,0.0030
3551.00,0.0030
3550.00,0.0030
3549.00,0.0030
3548.00,0.0030
3547.00,0.0030
3546.00,0.0031
3545.00,0.0031
3544.00,0.0032
3543.00,0.0032
3542.00,0.0032
3541.00,0.0033
3540.00,0.0033
3539.00,0.0034
3538.00,0.0034
3537.00,0.0034
3536.00,0.0035
3535.00,0.0035
3534.00,0.0036
3533.00,0.0036
3532.00,0.0037
3531.00,0.0037
3530.00,0.0037
3529.00,0.0038
3528.00,0.0038
3527.00,0.0038
3526.00,0.0039
3525.00,0.0039
3524.00,0.0040
3523.00,0.0040
3522.00,0.0041
3521.00,0.0042
3520.00,0.0042
3519.00,0.0043
3518.00,0.0044
3517.00,0.0044
3516.00,0.0045
3515.00,0.0046
3514.00,0.0047
3513.00,0.0048
3512.00,0.0048
3511.00,0.0049
3510.00,0.0050
3509.00,0.0051
3508.00,0.0052
3507.00,0.0053
3506.00,0.0054
3505.00,0.0055
3504.00,0.0056
3503.00,0.0057
3502.00,0.0058
3501.00,0.0059
3500.00,0.0060
3499.00,0.0061
3498.00,0.0063
3497.00,0.0064
3496.00,0.0065
3495.00,0.0067
3494.00,0.0069
3493.00,0.0070
3492.00,0.0072
3491.00,0.0074
3490.00,0.0076
3489.00,0.0077
3488.00,0.0079
3487.00,0.0081
3486.00,0.0083
3485.00,0.0086
3484.00,0.0088
3483.00,0.0090
3482.00,0.0092
3481.00,0.0095
3480.00,0.0097
3479.00,0.0099
3478.00,0.0102
3477.00,0.0105
3476.00,0.0107
3475.00,0.0111
3474.00,0.0114
3473.00,0.0118
3472.00,0.0121
3471.00,0.0125
3470.00,0.0130
3469.00,0.0135
3468.00,0.0142
3467.00,0.0148
3466.00,0.0156
3465.00,0.0164
3464.00,0.0173
3463.00,0.0184
3462.00,0.0196
3461.00,0.0210
3460.00,0.0225
3459.00,0.0241
3458.00,0.0259
3457.00,0.0277
3456.00,0.0296
3455.00,0.0315
3454.00,0.0334
3453.00,0.0350
3452.00,0.0364
3451.00,0.0374
3450.00,0.0381
3449.00,0.0384
3448.00,0.0382
3447.00,0.0378
3446.00,0.0370
3445.00,0.0359
3444.00,0.0346
3443.00,0.0332
3442.00,0.0318
3441.00,0.0303
3440.00,0.0288
3439.00,0.0273
3438.00,0.0260
3437.00,0.0247
3436.00,0.0235
3435.00,0.0223
3434.00,0.0213
3433.00,0.0203
3432.00,0.0194
3431.00,0.0185
3430.00,0.0177
3429.00,0.0170
3428.00,0.0164
3427.00,0.0158
3426.00,0.0153
3425.00,0.0148
3424.00,0.0144
3423.00,0.0140
3422.00,0.0136
3421.00,0.0133
3420.00,0.0130
3419.00,0.0127
3418.00,0.0125
3417.00,0.0123
3416.00,0.0121
3415.00,0.0119
3414.00,0.0118
3413.00,0.0116
3412.00,0.0115
3411.00,0.0114
3410.00,0.0113
3409.00,0.0112
3408.00,0.0111
3407.00,0.0110
3406.00,0.0109
3405.00,0.0109
3404.00,0.0108
3403.00,0.0107
3402.00,0.0106
3401.00,0.0106
3400.00,0.0105
3399.00,0.0105
3398.00,0.0104
3397.00,0.0104
3396.00,0.0104
3395.00,0.0104
3394.00,0.0103
3393.00,0.0103
3392.00,0.0103
3391.00,0.0103
3390.00,0.0103
3389.00,0.0103
3388.00,0.0103
3387.00,0.0102
3386.00,0.0102
3385.00,0.0102
3384.00,0.0102
3383.00,0.0102
3382.00,0.0103
3381.00,0.0103
3380.00,0.0103
3379.00,0.0102
3378.00,0.0102
3377.00,0.0102
3376.00,0.0102
3375.00,0.0103
3374.00,0.0103
3373.00,0.0102
3372.00,0.0102
3371.00,0.0102
3370.00,0.0102
3369.00,0.0103
3368.00,0.0103
3367.00,0.0103
3366.00,0.0103
3365.00,0.0104
3364.00,0.0104
3363.00,0.0104
3362.00,0.0104
3361.00,0.0105
3360.00,0.0105
3359.00,0.0105
3358.00,0.0106
3357.00,0.0106
3356.00,0.0106
3355.00,0.0106
3354.00,0.0106
3353.00,0.0107
3352.00,0.0108
3351.00,0.0108
3350.00,0.0108
3349.00,0.0109
3348.00,0.0109
3347.00,0.0109
3346.00,0.0110
3345.00,0.0110
3344.00,0.0110
3343.00,0.0110
3342.00,0.0110
3341.00,0.0110
3340.00,0.0110
3339.00,0.0111
3338.00,0.0111
3337.00,0.0111
3336.00,0.0112
3335.00,0.0112
3334.00,0.0113
3333.00,0.0113
3332.00,0.0114
3331.00,0.0114
3330.00,0.0115
3329.00,0.0115
3328.00,0.0115
3327.00,0.0116
3326.00,0.0116
3325.00,0.0116
3324.00,0.0117
3323.00,0.0118
3322.00,0.0118
3321.00,0.0119
3320.00,0.0120
3319.00,0.0120
3318.00,0.0121
3317.00,0.0121
3316.00,0.0122
3315.00,0.0122
3314.00,0.0123
3313.00,0.0124
3312.00,0.0124
3311.00,0.0124
3310.00,0.0125
3309.00,0.0125
3308.00,0.0126
3307.00,0.0126
3306.00,0.0127
3305.00,0.0128
3304.00,0.0129
3303.00,0.0130
3302.00,0.0131
3301.00,0.0131
3300.00,0.0132
3299.00,0.0133
3298.00,0.0133
3297.00,0.0134
3296.00,0.0135
3295.00,0.0135
3294.00,0.0136
3293.00,0.0136
3292.00,0.0137
3291.00,0.0138
3290.00,0.0140
3289.00,0.0141
3288.00,0.0142
3287.00,0.0143
3286.00,0.0144
3285.00,0.0145
3284.00,0.0146
3283.00,0.0147
3282.00,0.0148
3281.00,0.0149
3280.00,0.0150
3279.00,0.0150
3278.00,0.0151
3277.00,0.0151
3276.00,0.0151
3275.00,0.0152
3274.00,0.0152
3273.00,0.0152
3272.00,0.0153
3271.00,0.0154
3270.00,0.0156
3269.00,0.0158
3268.00,0.0160
3267.00,0.0161
3266.00,0.0163
3265.00,0.0164
3264.00,0.0164
3263.00,0.0165
3262.00,0.0166
3261.00,0.0166
3260.00,0.0167
3259.00,0.0167
3258.00,0.0167
3257.00,0.0167
3256.00,0.0168
3255.00,0.0169
3254.00,0.0170
3253.00,0.0171
3252.00,0.0172
3251.00,0.0172
3250.00,0.0173
3249.00,0.0173
3248.00,0.0173
3247.00,0.0174
3246.00,0.0175
3245.00,0.0177
3244.00,0.0178
3243.00,0.0179
3242.00,0.0179
3241.00,0.0180
3240.00,0.0180
3239.00,0.0181
3238.00,0.0181
3237.00,0.0182
3236.00,0.0182
3235.00,0.0183
3234.00,0.0184
3233.00,0.0185
3232.00,0.0186
3231.00,0.0187
3230.00,0.0188
3229.00,0.0189
3228.00,0.0190
3227.00,0.0191
3226.00,0.0191
3225.00,0.0192
3224.00,0.0192
3223.00,0.0193
3222.00,0.0194
3221.00,0.0194
3220.00,0.0195
3219.00,0.0196
3218.00,0.0196
3217.00,0.0197
3216.00,0.0198
3215.00,0.0199
3214.00,0.0200
3213.00,0.0201
3212.00,0.0202
3211.00,0.0202
3210.00,0.0203
3209.00,0.0205
3208.00,0.0206
3207.00,0.0207
3206.00,0.0207
3205.00,0.0208
3204.00,0.0209
3203.00,0.0210
3202.00,0.0211
3201.00,0.0212
3200.00,0.0213
3199.00,0.0213
3198.00,0.0214
3197.00,0.0215
3196.00,0.0215
3195.00,0.0216
3194.00,0.0216
3193.00,0.0217
3192.00,0.0218
3191.00,0.0218
3190.00,0.0219
3189.00,0.0219
3188.00,0.0220
3187.00,0.0220
3186.00,0.0221
3185.00,0.0222
3184.00,0.0222
3183.00,0.0223
3182.00,0.0223
3181.00,0.0224
3180.00,0.0224
3179.00,0.0225
3178.00,0.0225
3177.00,0.0226
3176.00,0.0226
3175.00,0.0227
3174.00,0.0227
3173.00,0.0227
3172.00,0.0228
3171.00,0.0228
3170.00,0.0228
3169.00,0.0228
3168.00,0.0229
3167.00,0.0230
3166.00,0.0230
3165.00,0.0230
3164.00,0.0230
3163.00,0.0230
3162.00,0.0230
3161.00,0.0231
3160.00,0.0231
3159.00,0.0231
3158.00,0.0231
3157.00,0.0231
3156.00,0.0231
3155.00,0.0230
3154.00,0.0229
3153.00,0.0230
3152.00,0.0231
3151.00,0.0233
3150.00,0.0235
3149.00,0.0236
3148.00,0.0237
3147.00,0.0238
3146.00,0.0239
3145.00,0.0240
3144.00,0.0241
3143.00,0.0242
3142.00,0.0242
3141.00,0.0242
3140.00,0.0242
3139.00,0.0243
3138.00,0.0244
3137.00,0.0245
3136.00,0.0246
3135.00,0.0247
3134.00,0.0248
3133.00,0.0248
3132.00,0.0248
3131.00,0.0249
3130.00,0.0249
3129.00,0.0250
3128.00,0.0251
3127.00,0.0251
3126.00,0.0252
3125.00,0.0252
3124.00,0.0252
3123.00,0.0252
3122.00,0.0251
3121.00,0.0251
3120.00,0.0251
3119.00,0.0252
3118.00,0.0252
3117.00,0.0253
3116.00,0.0254
3115.00,0.0255
3114.00,0.0256
3113.00,0.0257
3112.00,0.0258
3111.00,0.0258
3110.00,0.0259
3109.00,0.0260
3108.00,0.0261
3107.00,0.0262
3106.00,0.0262
3105.00,0.0263
3104.00,0.0263
3103.00,0.0264
3102.00,0.0264
3101.00,0.0264
3100.00,0.0265
3099.00,0.0265
3098.00,0.0265
3097.00,0.0266
3096.00,0.0266
3095.00,0.0266
3094.00,0.0267
3093.00,0.0267
3092.00,0.0267
3091.00,0.0267
3090.00,0.0267
3089.00,0.0267
3088.00,0.0267
3087.00,0.0267
3086.00,0.0268
3085.00,0.0268
3084.00,0.0269
3083.00,0.0270
3082.00,0.0270
3081.00,0.0271
3080.00,0.0272
3079.00,0.0274
3078.00,0.0276
3077.00,0.0278
3076.00,0.0280
3075.00,0.0283
3074.00,0.0285
3073.00,0.0286
3072.00,0.0287
3071.00,0.0288
3070.00,0.0288
3069.00,0.0287
3068.00,0.0285
3067.00,0.0283
3066.00,0.0281
3065.00,0.0278
3064.00,0.0276
3063.00,0.0273
3062.00,0.0270
3061.00,0.0266
3060.00,0.0263
3059.00,0.0260
3058.00,0.0257
3057.00,0.0255
3056.00,0.0253
3055.00,0.0251
3054.00,0.0249
3053.00,0.0248
3052.00,0.0246
3051.00,0.0245
3050.00,0.0244
3049.00,0.0243
3048.00,0.0242
3047.00,0.0241
3046.00,0.0240
3045.00,0.0239
3044.00,0.0238
3043.00,0.0238
3042.00,0.0237
3041.00,0.0237
3040.00,0.0237
3039.00,0.0236
3038.00,0.0236
3037.00,0.0235
3036.00,0.0234
3035.00,0.0234
3034.00,0.0233
3033.00,0.0232
3032.00,0.0232
3031.00,0.0231
3030.00,0.0231
3029.00,0.0230
3028.00,0.0229
3027.00,0.0228
3026.00,0.0227
3025.00,0.0226
3024.00,0.0225
3023.00,0.0224
3022.00,0.0223
3021.00,0.0222
3020.00,0.0221
3019.00,0.0220
3018.00,0.0220
3017.00,0.0219
3016.00,0.0218
3015.00,0.0218
3014.00,0.0218
3013.00,0.0218
3012.00,0.0218
3011.00,0.0218
3010.00,0.0218
3009.00,0.0218
3008.00,0.0218
3007.00,0.0218
3006.00,0.0218
3005.00,0.0219
3004.00,0.0219
3003.00,0.0220
3002.00,0.0221
3001.00,0.0221
3000.00,0.0222
2999.00,0.0224
2998.00,0.0225
2997.00,0.0227
2996.00,0.0229
2995.00,0.0232
2994.00,0.0235
2993.00,0.0238
2992.00,0.0241
2991.00,0.0244
2990.00,0.0247
2989.00,0.0249
2988.00,0.0251
2987.00,0.0252
2986.00,0.0254
2985.00,0.0255
2984.00,0.0257
2983.00,0.0259
2982.00,0.0261
2981.00,0.0265
2980.00,0.0270
2979.00,0.0275
2978.00,0.0280
2977.00,0.0285
2976.00,0.0289
2975.00,0.0293
2974.00,0.0296
2973.00,0.0298
2972.00,0.0300
2971.00,0.0302
2970.00,0.0305
2969.00,0.0308
2968.00,0.0313
2967.00,0.0318
2966.00,0.0324
2965.00,0.0331
2964.00,0.0340
2963.00,0.0349
2962.00,0.0360
2961.00,0.0371
2960.00,0.0383
2959.00,0.0394
2958.00,0.0403
2957.00,0.0412
2956.00,0.0419
2955.00,0.0423
2954.00,0.0426
2953.00,0.0427
2952.00,0.0426
2951.00,0.0423
2950.00,0.0417
2949.00,0.0410
2948.00,0.0403
2947.00,0.0397
2946.00,0.0394
2945.00,0.0394
2944.00,0.0396
2943.00,0.0402
2942.00,0.0409
2941.00,0.0418
2940.00,0.0428
2939.00,0.0440
2938.00,0.0452
2937.00,0.0465
2936.00,0.0479
2935.00,0.0494
2934.00,0.0511
2933.00,0.0530
2932.00,0.0550
2931.00,0.0570
2930.00,0.0589
2929.00,0.0606
2928.00,0.0620
2927.00,0.0631
2926.00,0.0637
2925.00,0.0640
2924.00,0.0639
2923.00,0.0635
2922.00,0.0629
2921.00,0.0620
2920.00,0.0608
2919.00,0.0596
2918.00,0.0583
2917.00,0.0569
2916.00,0.0555
2915.00,0.0540
2914.00,0.0525
2913.00,0.0510
2912.00,0.0495
2911.00,0.0480
2910.00,0.0465
2909.00,0.0450
2908.00,0.0436
2907.00,0.0423
2906.00,0.0411
2905.00,0.0400
2904.00,0.0391
2903.00,0.0383
2902.00,0.0376
2901.00,0.0370
2900.00,0.0364
2899.00,0.0358
2898.00,0.0353
2897.00,0.0348
2896.00,0.0344
2895.00,0.0340
2894.00,0.0337
2893.00,0.0334
2892.00,0.0331
2891.00,0.0329
2890.00,0.0327
2889.00,0.0325
2888.00,0.0324
2887.00,0.0323
2886.00,0.0322
2885.00,0.0321
2884.00,0.0320
2883.00,0.0320
2882.00,0.0320
2881.00,0.0320
2880.00,0.0322
2879.00,0.0324
2878.00,0.0327
2877.00,0.0331
2876.00,0.0336
2875.00,0.0341
2874.00,0.0348
2873.00,0.0354
2872.00,0.0359
2871.00,0.0362
2870.00,0.0362
2869.00,0.0358
2868.00,0.0353
2867.00,0.0348
2866.00,0.0345
2865.00,0.0345
2864.00,0.0348
2863.00,0.0353
2862.00,0.0361
2861.00,0.0370
2860.00,0.0378
2859.00,0.0386
2858.00,0.0391
2857.00,0.0392
2856.00,0.0390
2855.00,0.0385
2854.00,0.0378
2853.00,0.0368
2852.00,0.0357
2851.00,0.0345
2850.00,0.0333
2849.00,0.0322
2848.00,0.0312
2847.00,0.0304
2846.00,0.0297
2845.00,0.0291
2844.00,0.0287
2843.00,0.0283
2842.00,0.0279
2841.00,0.0274
2840.00,0.0271
2839.00,0.0268
2838.00,0.0267
2837.00,0.0267
2836.00,0.0268
2835.00,0.0268
2834.00,0.0268
2833.00,0.0266
2832.00,0.0262
2831.00,0.0257
2830.00,0.0250
2829.00,0.0242
2828.00,0.0234
2827.00,0.0226
2826.00,0.0219
2825.00,0.0213
2824.00,0.0207
2823.00,0.0202
2822.00,0.0198
2821.00,0.0194
2820.00,0.0191
2819.00,0.0188
2818.00,0.0186
2817.00,0.0184
2816.00,0.0182
2815.00,0.0180
2814.00,0.0179
2813.00,0.0177
2812.00,0.0176
2811.00,0.0174
2810.00,0.0173
2809.00,0.0172
2808.00,0.0171
2807.00,0.0170
2806.00,0.0169
2805.00,0.0169
2804.00,0.0168
2803.00,0.0167
2802.00,0.0167
2801.00,0.0166
2800.00,0.0165
2799.00,0.0165
2798.00,0.0164
2797.00,0.0164
2796.00,0.0163
2795.00,0.0163
2794.00,0.0163
2793.00,0.0162
2792.00,0.0162
2791.00,0.0162
2790.00,0.0161
2789.00,0.0161
2788.00,0.0161
2787.00,0.0161
2786.00,0.0162
2785.00,0.0162
2784.00,0.0162
2783.00,0.0162
2782.00,0.0162
2781.00,0.0162
2780.00,0.0163
2779.00,0.0163
2778.00,0.0163
2777.00,0.0164
2776.00,0.0164
2775.00,0.0165
2774.00,0.0165
2773.00,0.0166
2772.00,0.0167
2771.00,0.0167
2770.00,0.0167
2769.00,0.0168
2768.00,0.0168
2767.00,0.0168
2766.00,0.0169
2765.00,0.0169
2764.00,0.0170
2763.00,0.0170
2762.00,0.0171
2761.00,0.0171
2760.00,0.0172
2759.00,0.0172
2758.00,0.0172
2757.00,0.0173
