Created as New Dataset,Sample 1003 By YargerLab Date Thursday, July 31 2025
cm-1,A
4000.00,0.0001
3999.00,0.0001
3998.00,0.0001
3997.00,0.0001
3996.00,0.0001
3995.00,0.0001
3994.00,0.0001
3993.00,0.0000
3992.00,0.0000
3991.00,-0.0000
3990.00,-0.0000
3989.00,-0.0000
3988.00,-0.0000
3987.00,-0.0000
3986.00,-0.0000
3985.00,-0.0000
3984.00,0.0000
3983.00,0.0000
3982.00,0.0000
3981.00,0.0000
3980.00,-0.0000
3979.00,-0.0000
3978.00,-0.0001
3977.00,-0.0001
3976.00,-0.0001
3975.00,-0.0000
3974.00,-0.0000
3973.00,-0.0000
3972.00,0.0000
3971.00,0.0000
3970.00,0.0000
3969.00,-0.0000
3968.00,-0.0000
3967.00,-0.0000
3966.00,-0.0000
3965.00,-0.0000
3964.00,-0.0000
3963.00,-0.0000
3962.00,-0.0000
3961.00,-0.0000
3960.00,-0.0000
3959.00,-0.0000
3958.00,-0.0000
3957.00,-0.0000
3956.00,-0.0000
3955.00,-0.0000
3954.00,-0.0000
3953.00,0.0000
3952.00,0.0000
3951.00,0.0000
3950.00,0.0000
3949.00,0.0000
3948.00,0.0000
3947.00,0.0000
3946.00,-0.0000
3945.00,-0.0000
3944.00,-0.0000
3943.00,0.0000
3942.00,0.0000
3941.00,0.0000
3940.00,0.0000
3939.00,0.0000
3938.00,-0.0000
3937.00,-0.0000
3936.00,-0.0001
3935.00,-0.0001
3934.00,-0.0001
3933.00,-0.0001
3932.00,-0.0001
3931.00,-0.0001
3930.00,-0.0001
3929.00,-0.0000
3928.00,-0.0000
3927.00,-0.0000
3926.00,-0.0000
3925.00,-0.0000
3924.00,-0.0000
3923.00,-0.0000
3922.00,-0.0001
3921.00,-0.0001
3920.00,-0.0001
3919.00,-0.0001
3918.00,-0.0000
3917.00,-0.0000
3916.00,-0.0000
3915.00,0.0000
3914.00,0.0000
3913.00,0.0000
3912.00,0.0000
3911.00,0.0000
3910.00,0.0000
3909.00,0.0000
3908.00,-0.0000
3907.00,-0.0000
3906.00,-0.0001
3905.00,-0.0001
3904.00,-0.0001
3903.00,-0.0001
3902.00,-0.0002
3901.00,-0.0002
3900.00,-0.0002
3899.00,-0.0002
3898.00,-0.0001
3897.00,-0.0001
3896.00,-0.0001
3895.00,-0.0001
3894.00,-0.0001
3893.00,-0.0001
3892.00,-0.0001
3891.00,-0.0001
3890.00,-0.0000
3889.00,-0.0001
3888.00,-0.0001
3887.00,-0.0001
3886.00,-0.0000
3885.00,-0.0000
3884.00,-0.0001
3883.00,-0.0002
3882.00,-0.0002
3881.00,-0.0002
3880.00,-0.0002
3879.00,-0.0001
3878.00,-0.0001
3877.00,-0.0001
3876.00,-0.0001
3875.00,-0.0001
3874.00,-0.0000
3873.00,-0.0000
3872.00,-0.0001
3871.00,-0.0001
3870.00,-0.0001
3869.00,-0.0001
3868.00,-0.0001
3867.00,-0.0002
3866.00,-0.0002
3865.00,-0.0002
3864.00,-0.0001
3863.00,-0.0001
3862.00,-0.0001
3861.00,-0.0001
3860.00,-0.0001
3859.00,-0.0000
3858.00,-0.0001
3857.00,-0.0001
3856.00,-0.0002
3855.00,-0.0002
3854.00,-0.0002
3853.00,-0.0002
3852.00,-0.0002
3851.00,-0.0002
3850.00,-0.0002
3849.00,-0.0001
3848.00,-0.0001
3847.00,-0.0000
3846.00,-0.0000
3845.00,-0.0000
3844.00,-0.0000
3843.00,-0.0000
3842.00,-0.0001
3841.00,-0.0001
3840.00,-0.0001
3839.00,-0.0001
3838.00,-0.0001
3837.00,-0.0001
3836.00,-0.0001
3835.00,-0.0001
3834.00,-0.0001
3833.00,-0.0001
3832.00,-0.0001
3831.00,-0.0001
3830.00,-0.0001
3829.00,-0.0001
3828.00,-0.0001
3827.00,-0.0000
3826.00,-0.0000
3825.00,-0.0000
3824.00,-0.0000
3823.00,-0.0001
3822.00,-0.0001
3821.00,-0.0000
3820.00,-0.0000
3819.00,-0.0001
3818.00,-0.0001
3817.00,-0.0001
3816.00,-0.0001
3815.00,-0.0001
3814.00,-0.0001
3813.00,-0.0001
3812.00,-0.0000
3811.00,-0.0000
3810.00,-0.0000
3809.00,0.0000
3808.00,0.0000
3807.00,0.0001
3806.00,0.0001
3805.00,0.0001
3804.00,0.0001
3803.00,0.0000
3802.00,0.0000
3801.00,0.0001
3800.00,0.0000
3799.00,-0.0000
3798.00,-0.0001
3797.00,-0.0000
3796.00,0.0000
3795.00,0.0000
3794.00,0.0001
3793.00,0.0001
3792.00,0.0001
3791.00,0.0001
3790.00,0.0001
3789.00,0.0001
3788.00,0.0001
3787.00,0.0000
3786.00,0.0000
3785.00,0.0001
3784.00,0.0001
3783.00,0.0001
3782.00,0.0000
3781.00,0.0000
3780.00,0.0000
3779.00,0.0000
3778.00,0.0000
3777.00,0.0000
3776.00,0.0000
3775.00,0.0000
3774.00,0.0001
3773.00,0.0001
3772.00,0.0001
3771.00,0.0001
3770.00,0.0001
3769.00,0.0000
3768.00,-0.0000
3767.00,-0.0000
3766.00,0.0000
3765.00,0.0001
3764.00,0.0001
3763.00,0.0001
3762.00,0.0001
3761.00,0.0001
3760.00,0.0000
3759.00,0.0000
3758.00,0.0000
3757.00,-0.0000
3756.00,-0.0000
3755.00,-0.0000
3754.00,-0.0000
3753.00,-0.0000
3752.00,-0.0001
3751.00,-0.0001
3750.00,-0.0002
3749.00,-0.0002
3748.00,-0.0002
3747.00,-0.0002
3746.00,-0.0003
3745.00,-0.0002
3744.00,-0.0002
3743.00,-0.0002
3742.00,-0.0002
3741.00,-0.0002
3740.00,-0.0002
3739.00,-0.0002
3738.00,-0.0002
3737.00,-0.0002
3736.00,-0.0002
3735.00,-0.0002
3734.00,-0.0002
3733.00,-0.0002
3732.00,-0.0001
3731.00,-0.0001
3730.00,-0.0001
3729.00,-0.0001
3728.00,-0.0001
3727.00,-0.0001
3726.00,-0.0001
3725.00,-0.0001
3724.00,-0.0001
3723.00,-0.0001
3722.00,-0.0001
3721.00,-0.0001
3720.00,-0.0001
3719.00,-0.0000
3718.00,-0.0000
3717.00,-0.0000
3716.00,-0.0000
3715.00,-0.0001
3714.00,-0.0001
3713.00,-0.0001
3712.00,-0.0001
3711.00,-0.0001
3710.00,-0.0002
3709.00,-0.0002
3708.00,-0.0001
3707.00,-0.0001
3706.00,-0.0001
3705.00,-0.0001
3704.00,-0.0000
3703.00,-0.0000
3702.00,-0.0000
3701.00,-0.0000
3700.00,-0.0000
3699.00,-0.0000
3698.00,-0.0000
3697.00,-0.0000
3696.00,-0.0000
3695.00,-0.0001
3694.00,-0.0001
3693.00,-0.0001
3692.00,-0.0001
3691.00,-0.0001
3690.00,-0.0001
3689.00,-0.0001
3688.00,-0.0001
3687.00,-0.0002
3686.00,-0.0002
3685.00,-0.0001
3684.00,-0.0001
3683.00,-0.0001
3682.00,-0.0001
3681.00,-0.0001
3680.00,-0.0001
3679.00,-0.0001
3678.00,-0.0002
3677.00,-0.0002
3676.00,-0.0002
3675.00,-0.0001
3674.00,-0.0002
3673.00,-0.0002
3672.00,-0.0003
3671.00,-0.0003
3670.00,-0.0003
3669.00,-0.0003
3668.00,-0.0002
3667.00,-0.0002
3666.00,-0.0002
3665.00,-0.0001
3664.00,-0.0001
3663.00,-0.0001
3662.00,-0.0001
3661.00,-0.0001
3660.00,-0.0001
3659.00,-0.0001
3658.00,-0.0001
3657.00,-0.0002
3656.00,-0.0002
3655.00,-0.0002
3654.00,-0.0002
3653.00,-0.0002
3652.00,-0.0002
3651.00,-0.0002
3650.00,-0.0002
3649.00,-0.0002
3648.00,-0.0002
3647.00,-0.0003
3646.00,-0.0002
3645.00,-0.0002
3644.00,-0.0002
3643.00,-0.0001
3642.00,-0.0001
3641.00,-0.0000
3640.00,-0.0000
3639.00,-0.0000
3638.00,-0.0001
3637.00,-0.0001
3636.00,-0.0001
3635.00,-0.0001
3634.00,-0.0001
3633.00,-0.0001
3632.00,-0.0002
3631.00,-0.0003
3630.00,-0.0003
3629.00,-0.0004
3628.00,-0.0003
3627.00,-0.0003
3626.00,-0.0003
3625.00,-0.0002
3624.00,-0.0002
3623.00,-0.0001
3622.00,-0.0001
3621.00,-0.0001
3620.00,-0.0001
3619.00,-0.0001
3618.00,-0.0001
3617.00,-0.0001
3616.00,-0.0001
3615.00,-0.0001
3614.00,-0.0001
3613.00,-0.0001
3612.00,-0.0001
3611.00,-0.0002
3610.00,-0.0002
3609.00,-0.0002
3608.00,-0.0002
3607.00,-0.0002
3606.00,-0.0002
3605.00,-0.0002
3604.00,-0.0001
3603.00,-0.0001
3602.00,-0.0001
3601.00,-0.0001
3600.00,-0.0001
3599.00,-0.0001
3598.00,-0.0001
3597.00,-0.0001
3596.00,-0.0001
3595.00,-0.0001
3594.00,-0.0001
3593.00,-0.0001
3592.00,-0.0001
3591.00,-0.0001
3590.00,-0.0001
3589.00,-0.0002
3588.00,-0.0002
3587.00,-0.0002
3586.00,-0.0002
3585.00,-0.0002
3584.00,-0.0001
3583.00,-0.0001
3582.00,-0.0001
3581.00,-0.0001
3580.00,-0.0001
3579.00,-0.0000
3578.00,0.0000
3577.00,0.0000
3576.00,0.0000
3575.00,-0.0000
3574.00,-0.0000
3573.00,-0.0000
3572.00,-0.0000
3571.00,-0.0001
3570.00,-0.0001
3569.00,-0.0001
3568.00,-0.0002
3567.00,-0.0002
3566.00,-0.0002
3565.00,-0.0002
3564.00,-0.0002
3563.00,-0.0001
3562.00,-0.0001
3561.00,-0.0000
3560.00,0.0000
3559.00,0.0001
3558.00,0.0001
3557.00,0.0000
3556.00,0.0000
3555.00,0.0000
3554.00,-0.0000
3553.00,0.0000
3552.00,0.0000
3551.00,0.0001
3550.00,0.0001
3549.00,0.0000
3548.00,-0.0000
3547.00,-0.0000
3546.00,-0.0000
3545.00,-0.0000
3544.00,-0.0000
3543.00,-0.0000
3542.00,0.0000
3541.00,0.0001
3540.00,0.0001
3539.00,0.0001
3538.00,0.0001
3537.00,0.0001
3536.00,0.0001
3535.00,0.0001
3534.00,0.0001
3533.00,0.0001
3532.00,0.0001
3531.00,0.0001
3530.00,0.0001
3529.00,0.0001
3528.00,0.0001
3527.00,0.0001
3526.00,0.0001
3525.00,0.0001
3524.00,0.0001
3523.00,0.0001
3522.00,0.0001
3521.00,0.0001
3520.00,0.0001
3519.00,0.0001
3518.00,0.0002
3517.00,0.0002
3516.00,0.0002
3515.00,0.0002
3514.00,0.0002
3513.00,0.0002
3512.00,0.0002
3511.00,0.0002
3510.00,0.0001
3509.00,0.0001
3508.00,0.0001
3507.00,0.0001
3506.00,0.0001
3505.00,0.0002
3504.00,0.0002
3503.00,0.0002
3502.00,0.0002
3501.00,0.0002
3500.00,0.0002
3499.00,0.0002
3498.00,0.0003
3497.00,0.0003
3496.00,0.0003
3495.00,0.0003
3494.00,0.0002
3493.00,0.0002
3492.00,0.0002
3491.00,0.0002
3490.00,0.0002
3489.00,0.0002
3488.00,0.0002
3487.00,0.0002
3486.00,0.0002
3485.00,0.0001
3484.00,0.0002
3483.00,0.0002
3482.00,0.0002
3481.00,0.0002
3480.00,0.0002
3479.00,0.0002
3478.00,0.0002
3477.00,0.0003
3476.00,0.0003
3475.00,0.0002
3474.00,0.0002
3473.00,0.0002
3472.00,0.0002
3471.00,0.0002
3470.00,0.0003
3469.00,0.0003
3468.00,0.0003
3467.00,0.0003
3466.00,0.0003
3465.00,0.0003
3464.00,0.0003
3463.00,0.0003
3462.00,0.0003
3461.00,0.0003
3460.00,0.0003
3459.00,0.0003
3458.00,0.0003
3457.00,0.0003
3456.00,0.0002
3455.00,0.0002
3454.00,0.0002
3453.00,0.0002
3452.00,0.0002
3451.00,0.0002
3450.00,0.0002
3449.00,0.0002
3448.00,0.0002
3447.00,0.0002
3446.00,0.0002
3445.00,0.0002
3444.00,0.0002
3443.00,0.0002
3442.00,0.0003
3441.00,0.0003
3440.00,0.0003
3439.00,0.0002
3438.00,0.0002
3437.00,0.0002
3436.00,0.0002
3435.00,0.0002
3434.00,0.0003
3433.00,0.0003
3432.00,0.0003
3431.00,0.0002
3430.00,0.0002
3429.00,0.0002
3428.00,0.0002
3427.00,0.0002
3426.00,0.0002
3425.00,0.0002
3424.00,0.0002
3423.00,0.0002
3422.00,0.0002
3421.00,0.0002
3420.00,0.0002
3419.00,0.0002
3418.00,0.0002
3417.00,0.0002
3416.00,0.0002
3415.00,0.0002
3414.00,0.0002
3413.00,0.0002
3412.00,0.0002
3411.00,0.0002
3410.00,0.0002
3409.00,0.0002
3408.00,0.0002
3407.00,0.0002
3406.00,0.0002
3405.00,0.0002
3404.00,0.0002
3403.00,0.0002
3402.00,0.0002
3401.00,0.0002
3400.00,0.0002
3399.00,0.0002
3398.00,0.0002
3397.00,0.0002
3396.00,0.0002
3395.00,0.0002
3394.00,0.0002
3393.00,0.0002
3392.00,0.0002
3391.00,0.0002
3390.00,0.0002
3389.00,0.0002
3388.00,0.0002
3387.00,0.0002
3386.00,0.0002
3385.00,0.0002
3384.00,0.0002
3383.00,0.0002
3382.00,0.0002
3381.00,0.0002
3380.00,0.0002
3379.00,0.0002
3378.00,0.0002
3377.00,0.0002
3376.00,0.0002
3375.00,0.0002
3374.00,0.0002
3373.00,0.0002
3372.00,0.0002
3371.00,0.0002
3370.00,0.0003
3369.00,0.0003
3368.00,0.0002
3367.00,0.0002
3366.00,0.0002
3365.00,0.0002
3364.00,0.0002
3363.00,0.0002
3362.00,0.0002
3361.00,0.0002
3360.00,0.0002
3359.00,0.0002
3358.00,0.0002
3357.00,0.0002
3356.00,0.0002
3355.00,0.0002
3354.00,0.0002
3353.00,0.0001
3352.00,0.0001
3351.00,0.0001
3350.00,0.0001
3349.00,0.0002
3348.00,0.0002
3347.00,0.0002
3346.00,0.0002
3345.00,0.0002
3344.00,0.0002
3343.00,0.0002
3342.00,0.0001
3341.00,0.0001
3340.00,0.0001
3339.00,0.0001
3338.00,0.0001
3337.00,0.0001
3336.00,0.0001
3335.00,0.0001
3334.00,0.0001
3333.00,0.0001
3332.00,0.0002
3331.00,0.0002
3330.00,0.0002
3329.00,0.0002
3328.00,0.0002
3327.00,0.0001
3326.00,0.0001
3325.00,0.0001
3324.00,0.0001
3323.00,0.0001
3322.00,0.0001
3321.00,0.0002
3320.00,0.0002
3319.00,0.0002
3318.00,0.0002
3317.00,0.0002
3316.00,0.0002
3315.00,0.0002
3314.00,0.0002
3313.00,0.0002
3312.00,0.0002
3311.00,0.0002
3310.00,0.0002
3309.00,0.0002
3308.00,0.0002
3307.00,0.0002
3306.00,0.0002
3305.00,0.0002
3304.00,0.0002
3303.00,0.0002
3302.00,0.0002
3301.00,0.0002
3300.00,0.0002
3299.00,0.0002
3298.00,0.0002
3297.00,0.0002
3296.00,0.0002
3295.00,0.0002
3294.00,0.0002
3293.00,0.0002
3292.00,0.0002
3291.00,0.0002
3290.00,0.0002
3289.00,0.0002
3288.00,0.0001
3287.00,0.0002
3286.00,0.0002
3285.00,0.0002
3284.00,0.0001
3283.00,0.0001
3282.00,0.0001
3281.00,0.0001
3280.00,0.0001
3279.00,0.0001
3278.00,0.0001
3277.00,0.0001
3276.00,0.0001
3275.00,0.0001
3274.00,0.0002
3273.00,0.0002
3272.00,0.0002
3271.00,0.0002
3270.00,0.0002
3269.00,0.0002
3268.00,0.0001
3267.00,0.0001
3266.00,0.0001
3265.00,0.0001
3264.00,0.0001
3263.00,0.0001
3262.00,0.0001
3261.00,0.0002
3260.00,0.0002
3259.00,0.0001
3258.00,0.0001
3257.00,0.0001
3256.00,0.0001
3255.00,0.0001
3254.00,0.0001
3253.00,0.0001
3252.00,0.0001
3251.00,0.0001
3250.00,0.0001
3249.00,0.0001
3248.00,0.0001
3247.00,0.0000
3246.00,0.0000
3245.00,0.0000
3244.00,0.0001
3243.00,0.0001
3242.00,0.0001
3241.00,0.0001
3240.00,0.0001
3239.00,0.0002
3238.00,0.0001
3237.00,0.0001
3236.00,0.0001
3235.00,0.0001
3234.00,0.0001
3233.00,0.0001
3232.00,0.0001
3231.00,0.0001
3230.00,0.0001
3229.00,0.0001
3228.00,0.0001
3227.00,0.0001
3226.00,0.0001
3225.00,0.0001
3224.00,0.0001
3223.00,0.0001
3222.00,0.0001
3221.00,0.0001
3220.00,0.0001
3219.00,0.0001
3218.00,0.0000
3217.00,0.0000
3216.00,0.0000
3215.00,-0.0000
3214.00,-0.0000
3213.00,0.0000
3212.00,0.0000
3211.00,0.0001
3210.00,0.0001
3209.00,0.0001
3208.00,0.0001
3207.00,0.0001
3206.00,0.0001
3205.00,0.0002
3204.00,0.0002
3203.00,0.0002
3202.00,0.0001
3201.00,0.0001
3200.00,0.0001
3199.00,0.0001
3198.00,0.0001
3197.00,0.0001
3196.00,0.0001
3195.00,0.0001
3194.00,0.0001
3193.00,0.0001
3192.00,0.0001
3191.00,0.0001
3190.00,0.0001
3189.00,0.0001
3188.00,0.0001
3187.00,0.0001
3186.00,0.0001
3185.00,0.0001
3184.00,0.0001
3183.00,0.0001
3182.00,0.0000
3181.00,0.0000
3180.00,0.0000
3179.00,0.0001
3178.00,0.0001
3177.00,0.0001
3176.00,0.0001
3175.00,0.0001
3174.00,0.0001
3173.00,0.0001
3172.00,0.0001
3171.00,0.0001
3170.00,0.0001
3169.00,0.0001
3168.00,0.0001
3167.00,0.0001
3166.00,0.0001
3165.00,0.0001
3164.00,0.0001
3163.00,0.0001
3162.00,0.0001
3161.00,0.0001
3160.00,0.0001
3159.00,0.0002
3158.00,0.0002
3157.00,0.0002
3156.00,0.0001
3155.00,0.0001
3154.00,0.0001
3153.00,0.0001
3152.00,0.0001
3151.00,0.0001
3150.00,0.0001
3149.00,0.0001
3148.00,0.0001
3147.00,0.0001
3146.00,0.0001
3145.00,0.0001
3144.00,0.0001
3143.00,0.0001
3142.00,0.0001
3141.00,0.0001
3140.00,0.0001
3139.00,0.0001
3138.00,0.0001
3137.00,0.0001
3136.00,0.0001
3135.00,0.0001
3134.00,0.0001
3133.00,0.0001
3132.00,0.0001
3131.00,0.0001
3130.00,0.0001
3129.00,0.0001
3128.00,0.0001
3127.00,0.0001
3126.00,0.0001
3125.00,0.0001
3124.00,0.0002
3123.00,0.0002
3122.00,0.0002
3121.00,0.0002
3120.00,0.0002
3119.00,0.0002
3118.00,0.0002
3117.00,0.0002
3116.00,0.0003
3115.00,0.0003
3114.00,0.0003
3113.00,0.0004
3112.00,0.0005
3111.00,0.0005
3110.00,0.0006
3109.00,0.0007
3108.00,0.0008
3107.00,0.0009
3106.00,0.0010
3105.00,0.0010
3104.00,0.0011
3103.00,0.0011
3102.00,0.0011
3101.00,0.0011
3100.00,0.0011
3099.00,0.0011
3098.00,0.0011
3097.00,0.0011
3096.00,0.0011
3095.00,0.0011
3094.00,0.0011
3093.00,0.0012
3092.00,0.0013
3091.00,0.0014
3090.00,0.0016
3089.00,0.0018
3088.00,0.0020
3087.00,0.0023
3086.00,0.0026
3085.00,0.0028
3084.00,0.0031
3083.00,0.0032
3082.00,0.0033
3081.00,0.0033
3080.00,0.0032
3079.00,0.0031
3078.00,0.0029
3077.00,0.0028
3076.00,0.0026
3075.00,0.0025
3074.00,0.0024
3073.00,0.0024
3072.00,0.0024
3071.00,0.0024
3070.00,0.0025
3069.00,0.0027
3068.00,0.0029
3067.00,0.0031
3066.00,0.0033
3065.00,0.0036
3064.00,0.0039
3063.00,0.0042
3062.00,0.0044
3061.00,0.0046
3060.00,0.0048
3059.00,0.0048
3058.00,0.0047
3057.00,0.0046
3056.00,0.0043
3055.00,0.0040
3054.00,0.0037
3053.00,0.0034
3052.00,0.0032
3051.00,0.0029
3050.00,0.0027
3049.00,0.0026
3048.00,0.0025
3047.00,0.0024
3046.00,0.0023
3045.00,0.0022
3044.00,0.0022
3043.00,0.0023
3042.00,0.0023
3041.00,0.0025
3040.00,0.0026
3039.00,0.0028
3038.00,0.0030
3037.00,0.0033
3036.00,0.0036
3035.00,0.0040
3034.00,0.0045
3033.00,0.0050
3032.00,0.0057
3031.00,0.0063
3030.00,0.0071
3029.00,0.0078
3028.00,0.0085
3027.00,0.0090
3026.00,0.0094
3025.00,0.0096
3024.00,0.0096
3023.00,0.0092
3022.00,0.0086
3021.00,0.0078
3020.00,0.0070
3019.00,0.0061
3018.00,0.0053
3017.00,0.0045
3016.00,0.0039
3015.00,0.0033
3014.00,0.0029
3013.00,0.0025
3012.00,0.0023
3011.00,0.0020
3010.00,0.0019
3009.00,0.0018
3008.00,0.0018
3007.00,0.0018
3006.00,0.0018
3005.00,0.0019
3004.00,0.0019
3003.00,0.0020
3002.00,0.0020
3001.00,0.0020
3000.00,0.0020
2999.00,0.0019
2998.00,0.0017
2997.00,0.0016
2996.00,0.0014
2995.00,0.0012
2994.00,0.0010
2993.00,0.0009
2992.00,0.0008
2991.00,0.0007
2990.00,0.0006
2989.00,0.0005
2988.00,0.0004
2987.00,0.0004
2986.00,0.0003
2985.00,0.0002
2984.00,0.0002
2983.00,0.0001
2982.00,0.0000
2981.00,0.0000
2980.00,0.0000
2979.00,0.0001
2978.00,0.0001
2977.00,0.0002
2976.00,0.0002
2975.00,0.0003
2974.00,0.0003
2973.00,0.0003
2972.00,0.0003
2971.00,0.0003
2970.00,0.0004
2969.00,0.0004
2968.00,0.0004
2967.00,0.0005
2966.00,0.0006
2965.00,0.0007
2964.00,0.0008
2963.00,0.0008
2962.00,0.0009
2961.00,0.0009
2960.00,0.0010
2959.00,0.0011
2958.00,0.0012
2957.00,0.0013
2956.00,0.0014
2955.00,0.0016
2954.00,0.0017
2953.00,0.0018
2952.00,0.0020
2951.00,0.0022
2950.00,0.0024
2949.00,0.0026
2948.00,0.0028
2947.00,0.0031
2946.00,0.0033
2945.00,0.0036
2944.00,0.0038
2943.00,0.0041
2942.00,0.0044
2941.00,0.0047
2940.00,0.0050
2939.00,0.0053
2938.00,0.0057
2937.00,0.0060
2936.00,0.0063
2935.00,0.0067
2934.00,0.0071
2933.00,0.0074
2932.00,0.0078
2931.00,0.0082
2930.00,0.0085
2929.00,0.0089
2928.00,0.0092
2927.00,0.0095
2926.00,0.0098
2925.00,0.0100
2924.00,0.0102
2923.00,0.0103
2922.00,0.0104
2921.00,0.0104
2920.00,0.0104
2919.00,0.0103
2918.00,0.0102
2917.00,0.0101
2916.00,0.0100
2915.00,0.0098
2914.00,0.0096
2913.00,0.0094
2912.00,0.0091
2911.00,0.0088
2910.00,0.0086
2909.00,0.0083
2908.00,0.0081
2907.00,0.0078
2906.00,0.0075
2905.00,0.0072
2904.00,0.0069
2903.00,0.0066
2902.00,0.0063
2901.00,0.0060
2900.00,0.0057
2899.00,0.0054
2898.00,0.0051
2897.00,0.0048
2896.00,0.0046
2895.00,0.0044
2894.00,0.0042
2893.00,0.0040
2892.00,0.0038
2891.00,0.0037
2890.00,0.0035
2889.00,0.0034
2888.00,0.0033
2887.00,0.0032
2886.00,0.0031
2885.00,0.0030
2884.00,0.0029
2883.00,0.0028
2882.00,0.0028
2881.00,0.0027
2880.00,0.0026
2879.00,0.0026
2878.00,0.0025
2877.00,0.0024
2876.00,0.0023
2875.00,0.0023
2874.00,0.0022
2873.00,0.0022
2872.00,0.0021
2871.00,0.0021
2870.00,0.0021
2869.00,0.0021
2868.00,0.0021
2867.00,0.0021
2866.00,0.0021
2865.00,0.0021
2864.00,0.0022
2863.00,0.0023
2862.00,0.0024
2861.00,0.0026
2860.00,0.0027
2859.00,0.0029
2858.00,0.0030
2857.00,0.0032
2856.00,0.0034
2855.00,0.0035
2854.00,0.0037
2853.00,0.0039
2852.00,0.0040
2851.00,0.0041
2850.00,0.0042
2849.00,0.0042
2848.00,0.0042
2847.00,0.0042
2846.00,0.0041
2845.00,0.0040
2844.00,0.0039
2843.00,0.0037
2842.00,0.0034
2841.00,0.0031
2840.00,0.0028
2839.00,0.0025
2838.00,0.0022
2837.00,0.0019
2836.00,0.0017
2835.00,0.0015
2834.00,0.0013
2833.00,0.0012
2832.00,0.0011
2831.00,0.0010
2830.00,0.0009
2829.00,0.0008
2828.00,0.0007
2827.00,0.0007
2826.00,0.0007
2825.00,0.0007
2824.00,0.0007
2823.00,0.0006
2822.00,0.0006
2821.00,0.0006
2820.00,0.0006
2819.00,0.0006
2818.00,0.0006
2817.00,0.0006
2816.00,0.0006
2815.00,0.0006
2814.00,0.0006
2813.00,0.0005
2812.00,0.0005
2811.00,0.0005
2810.00,0.0005
2809.00,0.0005
2808.00,0.0005
2807.00,0.0005
2806.00,0.0005
2805.00,0.0005
2804.00,0.0004
2803.00,0.0004
2802.00,0.0004
2801.00,0.0004
2800.00,0.0004
2799.00,0.0004
2798.00,0.0004
2797.00,0.0004
2796.00,0.0004
2795.00,0.0004
2794.00,0.0004
2793.00,0.0004
2792.00,0.0004
2791.00,0.0004
2790.00,0.0004
2789.00,0.0004
2788.00,0.0004
2787.00,0.0004
2786.00,0.0004
2785.00,0.0004
2784.00,0.0004
2783.00,0.0004
2782.00,0.0003
2781.00,0.0003
2780.00,0.0003
