Created as New Dataset,Sample 573 By YargerLab Date Thursday, June 05 2025
cm-1,A
4000.00,0.0007
3999.00,0.0007
3998.00,0.0007
3997.00,0.0007
3996.00,0.0006
3995.00,0.0006
3994.00,0.0006
3993.00,0.0006
3992.00,0.0006
3991.00,0.0007
3990.00,0.0007
3989.00,0.0007
3988.00,0.0007
3987.00,0.0007
3986.00,0.0007
3985.00,0.0007
3984.00,0.0007
3983.00,0.0007
3982.00,0.0007
3981.00,0.0007
3980.00,0.0007
3979.00,0.0007
3978.00,0.0007
3977.00,0.0007
3976.00,0.0007
3975.00,0.0007
3974.00,0.0007
3973.00,0.0007
3972.00,0.0007
3971.00,0.0007
3970.00,0.0006
3969.00,0.0006
3968.00,0.0006
3967.00,0.0007
3966.00,0.0007
3965.00,0.0007
3964.00,0.0007
3963.00,0.0007
3962.00,0.0007
3961.00,0.0007
3960.00,0.0007
3959.00,0.0007
3958.00,0.0007
3957.00,0.0007
3956.00,0.0006
3955.00,0.0006
3954.00,0.0006
3953.00,0.0006
3952.00,0.0007
3951.00,0.0007
3950.00,0.0007
3949.00,0.0006
3948.00,0.0006
3947.00,0.0006
3946.00,0.0006
3945.00,0.0006
3944.00,0.0006
3943.00,0.0006
3942.00,0.0006
3941.00,0.0006
3940.00,0.0006
3939.00,0.0006
3938.00,0.0006
3937.00,0.0006
3936.00,0.0006
3935.00,0.0006
3934.00,0.0006
3933.00,0.0006
3932.00,0.0006
3931.00,0.0006
3930.00,0.0006
3929.00,0.0006
3928.00,0.0006
3927.00,0.0006
3926.00,0.0006
3925.00,0.0006
3924.00,0.0006
3923.00,0.0006
3922.00,0.0006
3921.00,0.0006
3920.00,0.0006
3919.00,0.0006
3918.00,0.0006
3917.00,0.0006
3916.00,0.0006
3915.00,0.0006
3914.00,0.0006
3913.00,0.0006
3912.00,0.0006
3911.00,0.0006
3910.00,0.0006
3909.00,0.0006
3908.00,0.0006
3907.00,0.0006
3906.00,0.0006
3905.00,0.0007
3904.00,0.0007
3903.00,0.0007
3902.00,0.0006
3901.00,0.0006
3900.00,0.0006
3899.00,0.0006
3898.00,0.0006
3897.00,0.0006
3896.00,0.0006
3895.00,0.0006
3894.00,0.0005
3893.00,0.0005
3892.00,0.0005
3891.00,0.0005
3890.00,0.0005
3889.00,0.0005
3888.00,0.0005
3887.00,0.0005
3886.00,0.0005
3885.00,0.0005
3884.00,0.0005
3883.00,0.0005
3882.00,0.0005
3881.00,0.0005
3880.00,0.0005
3879.00,0.0005
3878.00,0.0005
3877.00,0.0005
3876.00,0.0005
3875.00,0.0005
3874.00,0.0005
3873.00,0.0005
3872.00,0.0005
3871.00,0.0005
3870.00,0.0005
3869.00,0.0006
3868.00,0.0006
3867.00,0.0006
3866.00,0.0006
3865.00,0.0005
3864.00,0.0005
3863.00,0.0005
3862.00,0.0005
3861.00,0.0005
3860.00,0.0005
3859.00,0.0005
3858.00,0.0005
3857.00,0.0005
3856.00,0.0006
3855.00,0.0007
3854.00,0.0006
3853.00,0.0006
3852.00,0.0006
3851.00,0.0006
3850.00,0.0006
3849.00,0.0005
3848.00,0.0005
3847.00,0.0005
3846.00,0.0005
3845.00,0.0005
3844.00,0.0005
3843.00,0.0005
3842.00,0.0005
3841.00,0.0005
3840.00,0.0005
3839.00,0.0005
3838.00,0.0005
3837.00,0.0005
3836.00,0.0005
3835.00,0.0005
3834.00,0.0005
3833.00,0.0005
3832.00,0.0005
3831.00,0.0005
3830.00,0.0005
3829.00,0.0005
3828.00,0.0004
3827.00,0.0004
3826.00,0.0004
3825.00,0.0004
3824.00,0.0004
3823.00,0.0005
3822.00,0.0005
3821.00,0.0004
3820.00,0.0004
3819.00,0.0004
3818.00,0.0005
3817.00,0.0005
3816.00,0.0005
3815.00,0.0005
3814.00,0.0005
3813.00,0.0005
3812.00,0.0005
3811.00,0.0005
3810.00,0.0005
3809.00,0.0005
3808.00,0.0005
3807.00,0.0005
3806.00,0.0005
3805.00,0.0005
3804.00,0.0005
3803.00,0.0004
3802.00,0.0004
3801.00,0.0004
3800.00,0.0004
3799.00,0.0004
3798.00,0.0004
3797.00,0.0004
3796.00,0.0005
3795.00,0.0005
3794.00,0.0005
3793.00,0.0006
3792.00,0.0006
3791.00,0.0006
3790.00,0.0005
3789.00,0.0005
3788.00,0.0005
3787.00,0.0005
3786.00,0.0005
3785.00,0.0005
3784.00,0.0005
3783.00,0.0005
3782.00,0.0005
3781.00,0.0006
3780.00,0.0006
3779.00,0.0006
3778.00,0.0006
3777.00,0.0006
3776.00,0.0006
3775.00,0.0006
3774.00,0.0006
3773.00,0.0006
3772.00,0.0006
3771.00,0.0006
3770.00,0.0005
3769.00,0.0005
3768.00,0.0005
3767.00,0.0006
3766.00,0.0005
3765.00,0.0005
3764.00,0.0005
3763.00,0.0005
3762.00,0.0005
3761.00,0.0005
3760.00,0.0006
3759.00,0.0006
3758.00,0.0006
3757.00,0.0006
3756.00,0.0006
3755.00,0.0006
3754.00,0.0006
3753.00,0.0006
3752.00,0.0006
3751.00,0.0006
3750.00,0.0006
3749.00,0.0006
3748.00,0.0006
3747.00,0.0007
3746.00,0.0007
3745.00,0.0007
3744.00,0.0006
3743.00,0.0006
3742.00,0.0006
3741.00,0.0005
3740.00,0.0005
3739.00,0.0005
3738.00,0.0005
3737.00,0.0005
3736.00,0.0005
3735.00,0.0005
3734.00,0.0005
3733.00,0.0005
3732.00,0.0005
3731.00,0.0005
3730.00,0.0006
3729.00,0.0006
3728.00,0.0006
3727.00,0.0006
3726.00,0.0006
3725.00,0.0006
3724.00,0.0006
3723.00,0.0006
3722.00,0.0006
3721.00,0.0006
3720.00,0.0006
3719.00,0.0006
3718.00,0.0006
3717.00,0.0006
3716.00,0.0007
3715.00,0.0007
3714.00,0.0007
3713.00,0.0007
3712.00,0.0007
3711.00,0.0007
3710.00,0.0007
3709.00,0.0007
3708.00,0.0007
3707.00,0.0007
3706.00,0.0007
3705.00,0.0007
3704.00,0.0007
3703.00,0.0007
3702.00,0.0007
3701.00,0.0007
3700.00,0.0007
3699.00,0.0008
3698.00,0.0008
3697.00,0.0008
3696.00,0.0008
3695.00,0.0008
3694.00,0.0008
3693.00,0.0008
3692.00,0.0008
3691.00,0.0008
3690.00,0.0008
3689.00,0.0008
3688.00,0.0009
3687.00,0.0010
3686.00,0.0011
3685.00,0.0011
3684.00,0.0011
3683.00,0.0011
3682.00,0.0011
3681.00,0.0011
3680.00,0.0012
3679.00,0.0012
3678.00,0.0012
3677.00,0.0013
3676.00,0.0013
3675.00,0.0013
3674.00,0.0013
3673.00,0.0013
3672.00,0.0014
3671.00,0.0015
3670.00,0.0016
3669.00,0.0017
3668.00,0.0018
3667.00,0.0018
3666.00,0.0018
3665.00,0.0018
3664.00,0.0019
3663.00,0.0019
3662.00,0.0020
3661.00,0.0021
3660.00,0.0022
3659.00,0.0022
3658.00,0.0022
3657.00,0.0023
3656.00,0.0023
3655.00,0.0024
3654.00,0.0024
3653.00,0.0024
3652.00,0.0025
3651.00,0.0026
3650.00,0.0027
3649.00,0.0028
3648.00,0.0030
3647.00,0.0032
3646.00,0.0033
3645.00,0.0033
3644.00,0.0034
3643.00,0.0034
3642.00,0.0034
3641.00,0.0035
3640.00,0.0036
3639.00,0.0037
3638.00,0.0038
3637.00,0.0038
3636.00,0.0039
3635.00,0.0040
3634.00,0.0041
3633.00,0.0042
3632.00,0.0042
3631.00,0.0043
3630.00,0.0044
3629.00,0.0046
3628.00,0.0048
3627.00,0.0049
3626.00,0.0050
3625.00,0.0050
3624.00,0.0050
3623.00,0.0050
3622.00,0.0050
3621.00,0.0051
3620.00,0.0052
3619.00,0.0054
3618.00,0.0056
3617.00,0.0057
3616.00,0.0058
3615.00,0.0059
3614.00,0.0060
3613.00,0.0062
3612.00,0.0063
3611.00,0.0064
3610.00,0.0065
3609.00,0.0067
3608.00,0.0068
3607.00,0.0069
3606.00,0.0070
3605.00,0.0071
3604.00,0.0071
3603.00,0.0072
3602.00,0.0073
3601.00,0.0074
3600.00,0.0075
3599.00,0.0076
3598.00,0.0077
3597.00,0.0078
3596.00,0.0079
3595.00,0.0081
3594.00,0.0082
3593.00,0.0083
3592.00,0.0083
3591.00,0.0084
3590.00,0.0085
3589.00,0.0086
3588.00,0.0088
3587.00,0.0090
3586.00,0.0092
3585.00,0.0094
3584.00,0.0095
3583.00,0.0096
3582.00,0.0096
3581.00,0.0097
3580.00,0.0098
3579.00,0.0100
3578.00,0.0101
3577.00,0.0102
3576.00,0.0103
3575.00,0.0104
3574.00,0.0105
3573.00,0.0106
3572.00,0.0106
3571.00,0.0107
3570.00,0.0108
3569.00,0.0109
3568.00,0.0111
3567.00,0.0113
3566.00,0.0115
3565.00,0.0117
3564.00,0.0118
3563.00,0.0119
3562.00,0.0120
3561.00,0.0121
3560.00,0.0122
3559.00,0.0124
3558.00,0.0125
3557.00,0.0126
3556.00,0.0127
3555.00,0.0128
3554.00,0.0129
3553.00,0.0131
3552.00,0.0132
3551.00,0.0134
3550.00,0.0135
3549.00,0.0136
3548.00,0.0137
3547.00,0.0138
3546.00,0.0140
3545.00,0.0141
3544.00,0.0143
3543.00,0.0144
3542.00,0.0144
3541.00,0.0145
3540.00,0.0146
3539.00,0.0147
3538.00,0.0149
3537.00,0.0150
3536.00,0.0152
3535.00,0.0153
3534.00,0.0154
3533.00,0.0155
3532.00,0.0156
3531.00,0.0156
3530.00,0.0158
3529.00,0.0159
3528.00,0.0160
3527.00,0.0162
3526.00,0.0163
3525.00,0.0164
3524.00,0.0166
3523.00,0.0167
3522.00,0.0168
3521.00,0.0169
3520.00,0.0170
3519.00,0.0171
3518.00,0.0172
3517.00,0.0173
3516.00,0.0174
3515.00,0.0175
3514.00,0.0176
3513.00,0.0178
3512.00,0.0179
3511.00,0.0180
3510.00,0.0182
3509.00,0.0183
3508.00,0.0184
3507.00,0.0185
3506.00,0.0186
3505.00,0.0187
3504.00,0.0189
3503.00,0.0190
3502.00,0.0192
3501.00,0.0193
3500.00,0.0194
3499.00,0.0195
3498.00,0.0196
3497.00,0.0197
3496.00,0.0198
3495.00,0.0200
3494.00,0.0201
3493.00,0.0202
3492.00,0.0203
3491.00,0.0204
3490.00,0.0205
3489.00,0.0207
3488.00,0.0208
3487.00,0.0209
3486.00,0.0210
3485.00,0.0211
3484.00,0.0212
3483.00,0.0213
3482.00,0.0215
3481.00,0.0217
3480.00,0.0218
3479.00,0.0219
3478.00,0.0220
3477.00,0.0221
3476.00,0.0222
3475.00,0.0224
3474.00,0.0225
3473.00,0.0226
3472.00,0.0228
3471.00,0.0229
3470.00,0.0230
3469.00,0.0232
3468.00,0.0233
3467.00,0.0234
3466.00,0.0235
3465.00,0.0236
3464.00,0.0237
3463.00,0.0239
3462.00,0.0240
3461.00,0.0242
3460.00,0.0243
3459.00,0.0244
3458.00,0.0245
3457.00,0.0246
3456.00,0.0247
3455.00,0.0248
3454.00,0.0249
3453.00,0.0250
3452.00,0.0252
3451.00,0.0253
3450.00,0.0254
3449.00,0.0255
3448.00,0.0257
3447.00,0.0258
3446.00,0.0260
3445.00,0.0261
3444.00,0.0262
3443.00,0.0263
3442.00,0.0264
3441.00,0.0265
3440.00,0.0267
3439.00,0.0268
3438.00,0.0270
3437.00,0.0271
3436.00,0.0272
3435.00,0.0273
3434.00,0.0274
3433.00,0.0275
3432.00,0.0276
3431.00,0.0277
3430.00,0.0279
3429.00,0.0280
3428.00,0.0282
3427.00,0.0283
3426.00,0.0284
3425.00,0.0285
3424.00,0.0286
3423.00,0.0287
3422.00,0.0289
3421.00,0.0290
3420.00,0.0292
3419.00,0.0293
3418.00,0.0294
3417.00,0.0296
3416.00,0.0297
3415.00,0.0298
3414.00,0.0299
3413.00,0.0301
3412.00,0.0302
3411.00,0.0303
3410.00,0.0304
3409.00,0.0306
3408.00,0.0307
3407.00,0.0308
3406.00,0.0309
3405.00,0.0310
3404.00,0.0312
3403.00,0.0313
3402.00,0.0314
3401.00,0.0316
3400.00,0.0317
3399.00,0.0318
3398.00,0.0320
3397.00,0.0321
3396.00,0.0322
3395.00,0.0324
3394.00,0.0325
3393.00,0.0326
3392.00,0.0327
3391.00,0.0329
3390.00,0.0330
3389.00,0.0332
3388.00,0.0333
3387.00,0.0335
3386.00,0.0336
3385.00,0.0338
3384.00,0.0339
3383.00,0.0341
3382.00,0.0342
3381.00,0.0344
3380.00,0.0345
3379.00,0.0346
3378.00,0.0348
3377.00,0.0349
3376.00,0.0351
3375.00,0.0352
3374.00,0.0354
3373.00,0.0355
3372.00,0.0357
3371.00,0.0358
3370.00,0.0359
3369.00,0.0361
3368.00,0.0363
3367.00,0.0365
3366.00,0.0367
3365.00,0.0369
3364.00,0.0372
3363.00,0.0374
3362.00,0.0375
3361.00,0.0377
3360.00,0.0379
3359.00,0.0381
3358.00,0.0383
3357.00,0.0385
3356.00,0.0387
3355.00,0.0389
3354.00,0.0390
3353.00,0.0392
3352.00,0.0394
3351.00,0.0396
3350.00,0.0398
3349.00,0.0401
3348.00,0.0403
3347.00,0.0405
3346.00,0.0407
3345.00,0.0409
3344.00,0.0411
3343.00,0.0413
3342.00,0.0415
3341.00,0.0417
3340.00,0.0420
3339.00,0.0422
3338.00,0.0425
3337.00,0.0428
3336.00,0.0431
3335.00,0.0433
3334.00,0.0436
3333.00,0.0439
3332.00,0.0442
3331.00,0.0445
3330.00,0.0447
3329.00,0.0450
3328.00,0.0452
3327.00,0.0455
3326.00,0.0458
3325.00,0.0461
3324.00,0.0465
3323.00,0.0469
3322.00,0.0472
3321.00,0.0476
3320.00,0.0479
3319.00,0.0482
3318.00,0.0485
3317.00,0.0489
3316.00,0.0492
3315.00,0.0496
3314.00,0.0499
3313.00,0.0502
3312.00,0.0505
3311.00,0.0508
3310.00,0.0512
3309.00,0.0515
3308.00,0.0519
3307.00,0.0523
3306.00,0.0527
3305.00,0.0532
3304.00,0.0536
3303.00,0.0541
3302.00,0.0546
3301.00,0.0551
3300.00,0.0555
3299.00,0.0558
3298.00,0.0562
3297.00,0.0565
3296.00,0.0569
3295.00,0.0573
3294.00,0.0577
3293.00,0.0581
3292.00,0.0586
3291.00,0.0590
3290.00,0.0595
3289.00,0.0599
3288.00,0.0603
3287.00,0.0606
3286.00,0.0609
3285.00,0.0612
3284.00,0.0615
3283.00,0.0618
3282.00,0.0621
3281.00,0.0624
3280.00,0.0626
3279.00,0.0628
3278.00,0.0629
3277.00,0.0630
3276.00,0.0631
3275.00,0.0631
3274.00,0.0632
3273.00,0.0631
3272.00,0.0631
3271.00,0.0631
3270.00,0.0631
3269.00,0.0631
3268.00,0.0630
3267.00,0.0629
3266.00,0.0627
3265.00,0.0625
3264.00,0.0622
3263.00,0.0619
3262.00,0.0616
3261.00,0.0613
3260.00,0.0610
3259.00,0.0606
3258.00,0.0602
3257.00,0.0598
3256.00,0.0594
3255.00,0.0591
3254.00,0.0587
3253.00,0.0584
3252.00,0.0580
3251.00,0.0576
3250.00,0.0572
3249.00,0.0567
3248.00,0.0563
3247.00,0.0559
3246.00,0.0556
3245.00,0.0553
3244.00,0.0550
3243.00,0.0547
3242.00,0.0544
3241.00,0.0541
3240.00,0.0538
3239.00,0.0534
3238.00,0.0530
3237.00,0.0526
3236.00,0.0522
3235.00,0.0518
3234.00,0.0515
3233.00,0.0512
3232.00,0.0511
3231.00,0.0509
3230.00,0.0508
3229.00,0.0506
3228.00,0.0504
3227.00,0.0501
3226.00,0.0499
3225.00,0.0496
3224.00,0.0494
3223.00,0.0491
3222.00,0.0489
3221.00,0.0487
3220.00,0.0485
3219.00,0.0483
3218.00,0.0481
3217.00,0.0478
3216.00,0.0476
3215.00,0.0474
3214.00,0.0473
3213.00,0.0471
3212.00,0.0470
3211.00,0.0468
3210.00,0.0466
3209.00,0.0464
3208.00,0.0462
3207.00,0.0461
3206.00,0.0459
3205.00,0.0457
3204.00,0.0455
3203.00,0.0454
3202.00,0.0452
3201.00,0.0450
3200.00,0.0448
3199.00,0.0447
3198.00,0.0445
3197.00,0.0444
3196.00,0.0442
3195.00,0.0440
3194.00,0.0438
3193.00,0.0436
3192.00,0.0435
3191.00,0.0433
3190.00,0.0432
3189.00,0.0430
3188.00,0.0428
3187.00,0.0427
3186.00,0.0425
3185.00,0.0424
3184.00,0.0422
3183.00,0.0420
3182.00,0.0418
3181.00,0.0417
3180.00,0.0415
3179.00,0.0414
3178.00,0.0412
3177.00,0.0411
3176.00,0.0410
3175.00,0.0408
3174.00,0.0406
3173.00,0.0404
3172.00,0.0403
3171.00,0.0401
3170.00,0.0399
3169.00,0.0398
3168.00,0.0396
3167.00,0.0395
3166.00,0.0393
3165.00,0.0392
3164.00,0.0390
3163.00,0.0389
3162.00,0.0387
3161.00,0.0386
3160.00,0.0384
3159.00,0.0383
3158.00,0.0381
3157.00,0.0380
3156.00,0.0378
3155.00,0.0375
3154.00,0.0373
3153.00,0.0372
3152.00,0.0371
3151.00,0.0370
3150.00,0.0370
3149.00,0.0369
3148.00,0.0368
3147.00,0.0367
3146.00,0.0366
3145.00,0.0365
3144.00,0.0363
3143.00,0.0362
3142.00,0.0360
3141.00,0.0359
3140.00,0.0357
3139.00,0.0356
3138.00,0.0356
3137.00,0.0356
3136.00,0.0355
3135.00,0.0355
3134.00,0.0354
3133.00,0.0353
3132.00,0.0352
3131.00,0.0351
3130.00,0.0350
3129.00,0.0350
3128.00,0.0349
3127.00,0.0349
3126.00,0.0349
3125.00,0.0348
3124.00,0.0347
3123.00,0.0345
3122.00,0.0344
3121.00,0.0343
3120.00,0.0342
3119.00,0.0342
3118.00,0.0341
3117.00,0.0342
3116.00,0.0342
3115.00,0.0343
3114.00,0.0344
3113.00,0.0344
3112.00,0.0344
3111.00,0.0344
3110.00,0.0344
3109.00,0.0344
3108.00,0.0345
3107.00,0.0345
3106.00,0.0346
3105.00,0.0347
3104.00,0.0347
3103.00,0.0347
3102.00,0.0347
3101.00,0.0347
3100.00,0.0347
3099.00,0.0348
3098.00,0.0349
3097.00,0.0349
3096.00,0.0350
3095.00,0.0350
3094.00,0.0351
3093.00,0.0350
3092.00,0.0350
3091.00,0.0350
3090.00,0.0350
3089.00,0.0350
3088.00,0.0351
3087.00,0.0351
3086.00,0.0350
3085.00,0.0350
3084.00,0.0350
3083.00,0.0350
3082.00,0.0350
3081.00,0.0349
3080.00,0.0349
3079.00,0.0349
3078.00,0.0350
3077.00,0.0350
3076.00,0.0351
3075.00,0.0352
3074.00,0.0352
3073.00,0.0351
3072.00,0.0351
3071.00,0.0350
3070.00,0.0348
3069.00,0.0346
3068.00,0.0345
3067.00,0.0344
3066.00,0.0344
3065.00,0.0344
3064.00,0.0344
3063.00,0.0343
3062.00,0.0342
3061.00,0.0341
3060.00,0.0340
3059.00,0.0338
3058.00,0.0336
3057.00,0.0334
3056.00,0.0332
3055.00,0.0331
3054.00,0.0329
3053.00,0.0327
3052.00,0.0325
3051.00,0.0323
3050.00,0.0322
3049.00,0.0321
3048.00,0.0320
3047.00,0.0317
3046.00,0.0315
3045.00,0.0313
3044.00,0.0311
3043.00,0.0309
3042.00,0.0308
3041.00,0.0308
3040.00,0.0307
3039.00,0.0306
3038.00,0.0305
3037.00,0.0303
3036.00,0.0301
3035.00,0.0299
3034.00,0.0298
3033.00,0.0297
3032.00,0.0296
3031.00,0.0295
3030.00,0.0295
3029.00,0.0294
3028.00,0.0292
3027.00,0.0291
3026.00,0.0289
3025.00,0.0287
3024.00,0.0285
3023.00,0.0284
3022.00,0.0282
3021.00,0.0280
3020.00,0.0278
3019.00,0.0276
3018.00,0.0275
3017.00,0.0273
3016.00,0.0271
3015.00,0.0269
3014.00,0.0268
3013.00,0.0267
3012.00,0.0267
3011.00,0.0266
3010.00,0.0266
3009.00,0.0266
3008.00,0.0265
3007.00,0.0264
3006.00,0.0264
3005.00,0.0263
3004.00,0.0262
3003.00,0.0261
3002.00,0.0260
3001.00,0.0259
3000.00,0.0259
2999.00,0.0258
2998.00,0.0258
2997.00,0.0259
2996.00,0.0259
2995.00,0.0260
2994.00,0.0261
2993.00,0.0262
2992.00,0.0263
2991.00,0.0265
2990.00,0.0267
2989.00,0.0269
2988.00,0.0271
2987.00,0.0274
2986.00,0.0276
2985.00,0.0277
2984.00,0.0279
2983.00,0.0280
2982.00,0.0282
2981.00,0.0284
2980.00,0.0288
2979.00,0.0292
2978.00,0.0297
2977.00,0.0302
2976.00,0.0307
2975.00,0.0311
2974.00,0.0315
2973.00,0.0319
2972.00,0.0323
2971.00,0.0327
2970.00,0.0331
2969.00,0.0335
2968.00,0.0339
2967.00,0.0343
2966.00,0.0347
2965.00,0.0350
2964.00,0.0352
2963.00,0.0355
2962.00,0.0356
2961.00,0.0357
2960.00,0.0357
2959.00,0.0357
2958.00,0.0356
2957.00,0.0354
2956.00,0.0352
2955.00,0.0350
2954.00,0.0347
2953.00,0.0344
2952.00,0.0342
2951.00,0.0340
2950.00,0.0339
2949.00,0.0337
2948.00,0.0337
2947.00,0.0336
2946.00,0.0337
2945.00,0.0338
2944.00,0.0340
2943.00,0.0342
2942.00,0.0345
2941.00,0.0348
2940.00,0.0351
2939.00,0.0354
2938.00,0.0357
2937.00,0.0360
2936.00,0.0363
2935.00,0.0365
2934.00,0.0367
2933.00,0.0369
2932.00,0.0370
2931.00,0.0371
2930.00,0.0372
2929.00,0.0373
2928.00,0.0373
2927.00,0.0374
2926.00,0.0374
2925.00,0.0373
2924.00,0.0373
2923.00,0.0372
2922.00,0.0370
2921.00,0.0368
2920.00,0.0365
2919.00,0.0362
2918.00,0.0358
2917.00,0.0354
2916.00,0.0349
2915.00,0.0344
2914.00,0.0339
2913.00,0.0334
2912.00,0.0329
2911.00,0.0325
2910.00,0.0320
2909.00,0.0316
2908.00,0.0313
2907.00,0.0309
2906.00,0.0306
2905.00,0.0303
2904.00,0.0300
2903.00,0.0298
2902.00,0.0295
2901.00,0.0293
2900.00,0.0291
2899.00,0.0289
2898.00,0.0287
2897.00,0.0285
2896.00,0.0284
2895.00,0.0282
2894.00,0.0281
2893.00,0.0279
2892.00,0.0278
2891.00,0.0277
2890.00,0.0276
2889.00,0.0276
2888.00,0.0276
2887.00,0.0276
2886.00,0.0276
2885.00,0.0276
2884.00,0.0277
2883.00,0.0278
2882.00,0.0280
2881.00,0.0281
2880.00,0.0283
2879.00,0.0285
2878.00,0.0286
2877.00,0.0287
2876.00,0.0288
2875.00,0.0288
2874.00,0.0288
2873.00,0.0287
2872.00,0.0286
2871.00,0.0284
2870.00,0.0282
2869.00,0.0280
2868.00,0.0277
2867.00,0.0275
2866.00,0.0272
2865.00,0.0270
2864.00,0.0268
2863.00,0.0267
2862.00,0.0266
2861.00,0.0264
2860.00,0.0264
2859.00,0.0264
2858.00,0.0264
2857.00,0.0264
2856.00,0.0264
2855.00,0.0264
2854.00,0.0264
2853.00,0.0263
2852.00,0.0262
2851.00,0.0260
2850.00,0.0257
2849.00,0.0253
2848.00,0.0249
2847.00,0.0244
2846.00,0.0239
2845.00,0.0235
2844.00,0.0231
2843.00,0.0228
2842.00,0.0225
2841.00,0.0222
2840.00,0.0219
2839.00,0.0217
2838.00,0.0215
2837.00,0.0214
2836.00,0.0213
2835.00,0.0212
2834.00,0.0211
2833.00,0.0210
2832.00,0.0209
2831.00,0.0208
2830.00,0.0207
2829.00,0.0207
2828.00,0.0206
2827.00,0.0205
2826.00,0.0205
2825.00,0.0204
2824.00,0.0204
2823.00,0.0203
2822.00,0.0203
2821.00,0.0202
2820.00,0.0201
2819.00,0.0201
2818.00,0.0200
2817.00,0.0200
2816.00,0.0200
2815.00,0.0199
2814.00,0.0199
2813.00,0.0199
2812.00,0.0198
2811.00,0.0197
2810.00,0.0197
2809.00,0.0196
2808.00,0.0196
2807.00,0.0195
2806.00,0.0195
2805.00,0.0194
2804.00,0.0194
2803.00,0.0194
2802.00,0.0193
2801.00,0.0193
2800.00,0.0192
2799.00,0.0191
2798.00,0.0191
2797.00,0.0190
2796.00,0.0190
2795.00,0.0189
2794.00,0.0189
2793.00,0.0188
2792.00,0.0187
2791.00,0.0187
2790.00,0.0186
2789.00,0.0185
2788.00,0.0185
2787.00,0.0184
2786.00,0.0184
2785.00,0.0183
2784.00,0.0183
2783.00,0.0182
2782.00,0.0181
2781.00,0.0180
2780.00,0.0179
2779.00,0.0178
2778.00,0.0177
2777.00,0.0176
2776.00,0.0175
2775.00,0.0174
2774.00,0.0173
2773.00,0.0173
2772.00,0.0172
2771.00,0.0171
2770.00,0.0170
2769.00,0.0170
2768.00,0.0169
2767.00,0.0167
2766.00,0.0166
2765.00,0.0165
2764.00,0.0165
2763.00,0.0164
2762.00,0.0163
2761.00,0.0162
2760.00,0.0161
2759.00,0.0160
2758.00,0.0160
2757.00,0.0159
