Created as New Dataset,Sample 822 By YargerLab Date Tuesday, July 15 2025
cm-1,A
4000.00,0.0041
3999.00,0.0041
3998.00,0.0041
3997.00,0.0040
3996.00,0.0040
3995.00,0.0040
3994.00,0.0040
3993.00,0.0040
3992.00,0.0040
3991.00,0.0040
3990.00,0.0040
3989.00,0.0040
3988.00,0.0040
3987.00,0.0040
3986.00,0.0040
3985.00,0.0040
3984.00,0.0041
3983.00,0.0041
3982.00,0.0041
3981.00,0.0041
3980.00,0.0041
3979.00,0.0041
3978.00,0.0041
3977.00,0.0040
3976.00,0.0040
3975.00,0.0040
3974.00,0.0040
3973.00,0.0040
3972.00,0.0040
3971.00,0.0040
3970.00,0.0040
3969.00,0.0040
3968.00,0.0040
3967.00,0.0040
3966.00,0.0040
3965.00,0.0040
3964.00,0.0040
3963.00,0.0040
3962.00,0.0040
3961.00,0.0040
3960.00,0.0040
3959.00,0.0040
3958.00,0.0040
3957.00,0.0040
3956.00,0.0040
3955.00,0.0040
3954.00,0.0040
3953.00,0.0040
3952.00,0.0040
3951.00,0.0040
3950.00,0.0040
3949.00,0.0040
3948.00,0.0040
3947.00,0.0040
3946.00,0.0040
3945.00,0.0040
3944.00,0.0040
3943.00,0.0040
3942.00,0.0040
3941.00,0.0040
3940.00,0.0040
3939.00,0.0040
3938.00,0.0040
3937.00,0.0040
3936.00,0.0040
3935.00,0.0040
3934.00,0.0040
3933.00,0.0040
3932.00,0.0040
3931.00,0.0040
3930.00,0.0040
3929.00,0.0040
3928.00,0.0040
3927.00,0.0040
3926.00,0.0040
3925.00,0.0040
3924.00,0.0039
3923.00,0.0039
3922.00,0.0039
3921.00,0.0039
3920.00,0.0039
3919.00,0.0039
3918.00,0.0039
3917.00,0.0039
3916.00,0.0040
3915.00,0.0040
3914.00,0.0040
3913.00,0.0040
3912.00,0.0040
3911.00,0.0040
3910.00,0.0040
3909.00,0.0040
3908.00,0.0039
3907.00,0.0039
3906.00,0.0039
3905.00,0.0038
3904.00,0.0038
3903.00,0.0038
3902.00,0.0038
3901.00,0.0038
3900.00,0.0038
3899.00,0.0039
3898.00,0.0039
3897.00,0.0039
3896.00,0.0039
3895.00,0.0039
3894.00,0.0039
3893.00,0.0039
3892.00,0.0039
3891.00,0.0039
3890.00,0.0039
3889.00,0.0039
3888.00,0.0039
3887.00,0.0039
3886.00,0.0039
3885.00,0.0039
3884.00,0.0038
3883.00,0.0038
3882.00,0.0039
3881.00,0.0039
3880.00,0.0039
3879.00,0.0039
3878.00,0.0039
3877.00,0.0039
3876.00,0.0039
3875.00,0.0039
3874.00,0.0039
3873.00,0.0039
3872.00,0.0039
3871.00,0.0039
3870.00,0.0039
3869.00,0.0039
3868.00,0.0038
3867.00,0.0038
3866.00,0.0038
3865.00,0.0038
3864.00,0.0038
3863.00,0.0038
3862.00,0.0039
3861.00,0.0039
3860.00,0.0039
3859.00,0.0039
3858.00,0.0039
3857.00,0.0039
3856.00,0.0039
3855.00,0.0039
3854.00,0.0039
3853.00,0.0039
3852.00,0.0038
3851.00,0.0038
3850.00,0.0039
3849.00,0.0039
3848.00,0.0039
3847.00,0.0040
3846.00,0.0040
3845.00,0.0039
3844.00,0.0039
3843.00,0.0039
3842.00,0.0039
3841.00,0.0039
3840.00,0.0039
3839.00,0.0038
3838.00,0.0038
3837.00,0.0038
3836.00,0.0038
3835.00,0.0038
3834.00,0.0038
3833.00,0.0038
3832.00,0.0039
3831.00,0.0039
3830.00,0.0039
3829.00,0.0039
3828.00,0.0039
3827.00,0.0039
3826.00,0.0039
3825.00,0.0039
3824.00,0.0039
3823.00,0.0039
3822.00,0.0039
3821.00,0.0038
3820.00,0.0038
3819.00,0.0038
3818.00,0.0038
3817.00,0.0038
3816.00,0.0038
3815.00,0.0039
3814.00,0.0039
3813.00,0.0039
3812.00,0.0039
3811.00,0.0040
3810.00,0.0040
3809.00,0.0040
3808.00,0.0039
3807.00,0.0039
3806.00,0.0039
3805.00,0.0039
3804.00,0.0039
3803.00,0.0038
3802.00,0.0038
3801.00,0.0038
3800.00,0.0038
3799.00,0.0038
3798.00,0.0038
3797.00,0.0039
3796.00,0.0039
3795.00,0.0039
3794.00,0.0039
3793.00,0.0039
3792.00,0.0039
3791.00,0.0039
3790.00,0.0040
3789.00,0.0040
3788.00,0.0040
3787.00,0.0040
3786.00,0.0040
3785.00,0.0040
3784.00,0.0040
3783.00,0.0039
3782.00,0.0039
3781.00,0.0039
3780.00,0.0040
3779.00,0.0040
3778.00,0.0040
3777.00,0.0040
3776.00,0.0040
3775.00,0.0040
3774.00,0.0040
3773.00,0.0040
3772.00,0.0039
3771.00,0.0039
3770.00,0.0039
3769.00,0.0039
3768.00,0.0039
3767.00,0.0039
3766.00,0.0039
3765.00,0.0039
3764.00,0.0039
3763.00,0.0039
3762.00,0.0039
3761.00,0.0039
3760.00,0.0039
3759.00,0.0039
3758.00,0.0039
3757.00,0.0039
3756.00,0.0039
3755.00,0.0039
3754.00,0.0039
3753.00,0.0039
3752.00,0.0039
3751.00,0.0038
3750.00,0.0038
3749.00,0.0038
3748.00,0.0038
3747.00,0.0038
3746.00,0.0038
3745.00,0.0038
3744.00,0.0038
3743.00,0.0038
3742.00,0.0037
3741.00,0.0037
3740.00,0.0037
3739.00,0.0037
3738.00,0.0037
3737.00,0.0037
3736.00,0.0037
3735.00,0.0037
3734.00,0.0037
3733.00,0.0037
3732.00,0.0037
3731.00,0.0037
3730.00,0.0037
3729.00,0.0037
3728.00,0.0037
3727.00,0.0038
3726.00,0.0038
3725.00,0.0038
3724.00,0.0038
3723.00,0.0038
3722.00,0.0038
3721.00,0.0038
3720.00,0.0038
3719.00,0.0038
3718.00,0.0038
3717.00,0.0038
3716.00,0.0038
3715.00,0.0038
3714.00,0.0038
3713.00,0.0038
3712.00,0.0037
3711.00,0.0037
3710.00,0.0037
3709.00,0.0037
3708.00,0.0037
3707.00,0.0038
3706.00,0.0038
3705.00,0.0038
3704.00,0.0038
3703.00,0.0039
3702.00,0.0039
3701.00,0.0039
3700.00,0.0039
3699.00,0.0039
3698.00,0.0039
3697.00,0.0039
3696.00,0.0039
3695.00,0.0039
3694.00,0.0039
3693.00,0.0039
3692.00,0.0039
3691.00,0.0039
3690.00,0.0039
3689.00,0.0039
3688.00,0.0039
3687.00,0.0040
3686.00,0.0040
3685.00,0.0040
3684.00,0.0041
3683.00,0.0042
3682.00,0.0042
3681.00,0.0042
3680.00,0.0042
3679.00,0.0042
3678.00,0.0042
3677.00,0.0042
3676.00,0.0042
3675.00,0.0041
3674.00,0.0041
3673.00,0.0041
3672.00,0.0041
3671.00,0.0041
3670.00,0.0041
3669.00,0.0042
3668.00,0.0042
3667.00,0.0043
3666.00,0.0044
3665.00,0.0044
3664.00,0.0044
3663.00,0.0045
3662.00,0.0045
3661.00,0.0045
3660.00,0.0045
3659.00,0.0045
3658.00,0.0045
3657.00,0.0045
3656.00,0.0045
3655.00,0.0045
3654.00,0.0044
3653.00,0.0044
3652.00,0.0044
3651.00,0.0044
3650.00,0.0044
3649.00,0.0044
3648.00,0.0044
3647.00,0.0045
3646.00,0.0045
3645.00,0.0046
3644.00,0.0047
3643.00,0.0048
3642.00,0.0048
3641.00,0.0049
3640.00,0.0049
3639.00,0.0049
3638.00,0.0050
3637.00,0.0050
3636.00,0.0050
3635.00,0.0050
3634.00,0.0050
3633.00,0.0050
3632.00,0.0050
3631.00,0.0050
3630.00,0.0050
3629.00,0.0050
3628.00,0.0051
3627.00,0.0051
3626.00,0.0052
3625.00,0.0053
3624.00,0.0054
3623.00,0.0054
3622.00,0.0054
3621.00,0.0054
3620.00,0.0054
3619.00,0.0055
3618.00,0.0055
3617.00,0.0056
3616.00,0.0057
3615.00,0.0057
3614.00,0.0057
3613.00,0.0058
3612.00,0.0058
3611.00,0.0058
3610.00,0.0059
3609.00,0.0060
3608.00,0.0061
3607.00,0.0061
3606.00,0.0062
3605.00,0.0062
3604.00,0.0063
3603.00,0.0063
3602.00,0.0064
3601.00,0.0064
3600.00,0.0064
3599.00,0.0065
3598.00,0.0065
3597.00,0.0065
3596.00,0.0065
3595.00,0.0066
3594.00,0.0066
3593.00,0.0067
3592.00,0.0068
3591.00,0.0068
3590.00,0.0068
3589.00,0.0068
3588.00,0.0068
3587.00,0.0069
3586.00,0.0070
3585.00,0.0071
3584.00,0.0071
3583.00,0.0072
3582.00,0.0073
3581.00,0.0074
3580.00,0.0075
3579.00,0.0075
3578.00,0.0076
3577.00,0.0077
3576.00,0.0077
3575.00,0.0078
3574.00,0.0078
3573.00,0.0079
3572.00,0.0079
3571.00,0.0079
3570.00,0.0079
3569.00,0.0079
3568.00,0.0079
3567.00,0.0080
3566.00,0.0080
3565.00,0.0081
3564.00,0.0082
3563.00,0.0083
3562.00,0.0084
3561.00,0.0085
3560.00,0.0086
3559.00,0.0087
3558.00,0.0087
3557.00,0.0088
3556.00,0.0088
3555.00,0.0089
3554.00,0.0089
3553.00,0.0090
3552.00,0.0090
3551.00,0.0091
3550.00,0.0091
3549.00,0.0092
3548.00,0.0093
3547.00,0.0093
3546.00,0.0094
3545.00,0.0094
3544.00,0.0094
3543.00,0.0095
3542.00,0.0096
3541.00,0.0097
3540.00,0.0097
3539.00,0.0098
3538.00,0.0099
3537.00,0.0099
3536.00,0.0099
3535.00,0.0100
3534.00,0.0100
3533.00,0.0101
3532.00,0.0101
3531.00,0.0101
3530.00,0.0102
3529.00,0.0102
3528.00,0.0102
3527.00,0.0103
3526.00,0.0103
3525.00,0.0103
3524.00,0.0104
3523.00,0.0104
3522.00,0.0105
3521.00,0.0106
3520.00,0.0106
3519.00,0.0107
3518.00,0.0108
3517.00,0.0108
3516.00,0.0109
3515.00,0.0110
3514.00,0.0110
3513.00,0.0111
3512.00,0.0111
3511.00,0.0111
3510.00,0.0112
3509.00,0.0112
3508.00,0.0113
3507.00,0.0113
3506.00,0.0114
3505.00,0.0114
3504.00,0.0115
3503.00,0.0115
3502.00,0.0115
3501.00,0.0116
3500.00,0.0117
3499.00,0.0117
3498.00,0.0118
3497.00,0.0119
3496.00,0.0119
3495.00,0.0120
3494.00,0.0120
3493.00,0.0121
3492.00,0.0121
3491.00,0.0121
3490.00,0.0122
3489.00,0.0122
3488.00,0.0123
3487.00,0.0123
3486.00,0.0124
3485.00,0.0124
3484.00,0.0125
3483.00,0.0125
3482.00,0.0126
3481.00,0.0126
3480.00,0.0127
3479.00,0.0127
3478.00,0.0128
3477.00,0.0128
3476.00,0.0129
3475.00,0.0129
3474.00,0.0130
3473.00,0.0130
3472.00,0.0131
3471.00,0.0132
3470.00,0.0132
3469.00,0.0133
3468.00,0.0133
3467.00,0.0133
3466.00,0.0134
3465.00,0.0134
3464.00,0.0135
3463.00,0.0135
3462.00,0.0136
3461.00,0.0136
3460.00,0.0137
3459.00,0.0137
3458.00,0.0137
3457.00,0.0138
3456.00,0.0138
3455.00,0.0139
3454.00,0.0139
3453.00,0.0139
3452.00,0.0140
3451.00,0.0140
3450.00,0.0141
3449.00,0.0141
3448.00,0.0141
3447.00,0.0141
3446.00,0.0142
3445.00,0.0142
3444.00,0.0142
3443.00,0.0142
3442.00,0.0142
3441.00,0.0143
3440.00,0.0143
3439.00,0.0144
3438.00,0.0144
3437.00,0.0144
3436.00,0.0145
3435.00,0.0145
3434.00,0.0145
3433.00,0.0145
3432.00,0.0145
3431.00,0.0146
3430.00,0.0146
3429.00,0.0146
3428.00,0.0146
3427.00,0.0146
3426.00,0.0147
3425.00,0.0147
3424.00,0.0147
3423.00,0.0147
3422.00,0.0147
3421.00,0.0147
3420.00,0.0147
3419.00,0.0147
3418.00,0.0147
3417.00,0.0148
3416.00,0.0148
3415.00,0.0148
3414.00,0.0148
3413.00,0.0148
3412.00,0.0149
3411.00,0.0149
3410.00,0.0149
3409.00,0.0149
3408.00,0.0149
3407.00,0.0149
3406.00,0.0149
3405.00,0.0150
3404.00,0.0150
3403.00,0.0150
3402.00,0.0150
3401.00,0.0150
3400.00,0.0151
3399.00,0.0151
3398.00,0.0151
3397.00,0.0151
3396.00,0.0151
3395.00,0.0151
3394.00,0.0151
3393.00,0.0151
3392.00,0.0151
3391.00,0.0151
3390.00,0.0152
3389.00,0.0152
3388.00,0.0153
3387.00,0.0153
3386.00,0.0153
3385.00,0.0154
3384.00,0.0154
3383.00,0.0154
3382.00,0.0154
3381.00,0.0154
3380.00,0.0154
3379.00,0.0154
3378.00,0.0154
3377.00,0.0155
3376.00,0.0155
3375.00,0.0155
3374.00,0.0155
3373.00,0.0155
3372.00,0.0155
3371.00,0.0155
3370.00,0.0154
3369.00,0.0154
3368.00,0.0155
3367.00,0.0155
3366.00,0.0156
3365.00,0.0156
3364.00,0.0157
3363.00,0.0157
3362.00,0.0157
3361.00,0.0158
3360.00,0.0158
3359.00,0.0158
3358.00,0.0159
3357.00,0.0159
3356.00,0.0159
3355.00,0.0158
3354.00,0.0158
3353.00,0.0157
3352.00,0.0157
3351.00,0.0157
3350.00,0.0158
3349.00,0.0158
3348.00,0.0159
3347.00,0.0159
3346.00,0.0159
3345.00,0.0159
3344.00,0.0159
3343.00,0.0159
3342.00,0.0159
3341.00,0.0159
3340.00,0.0158
3339.00,0.0158
3338.00,0.0159
3337.00,0.0159
3336.00,0.0160
3335.00,0.0161
3334.00,0.0162
3333.00,0.0162
3332.00,0.0163
3331.00,0.0163
3330.00,0.0162
3329.00,0.0162
3328.00,0.0162
3327.00,0.0161
3326.00,0.0161
3325.00,0.0161
3324.00,0.0162
3323.00,0.0162
3322.00,0.0163
3321.00,0.0164
3320.00,0.0164
3319.00,0.0164
3318.00,0.0165
3317.00,0.0165
3316.00,0.0165
3315.00,0.0165
3314.00,0.0164
3313.00,0.0164
3312.00,0.0164
3311.00,0.0163
3310.00,0.0162
3309.00,0.0162
3308.00,0.0161
3307.00,0.0160
3306.00,0.0160
3305.00,0.0161
3304.00,0.0162
3303.00,0.0163
3302.00,0.0164
3301.00,0.0165
3300.00,0.0166
3299.00,0.0165
3298.00,0.0165
3297.00,0.0164
3296.00,0.0163
3295.00,0.0163
3294.00,0.0163
3293.00,0.0163
3292.00,0.0163
3291.00,0.0164
3290.00,0.0165
3289.00,0.0165
3288.00,0.0166
3287.00,0.0166
3286.00,0.0166
3285.00,0.0166
3284.00,0.0166
3283.00,0.0166
3282.00,0.0167
3281.00,0.0166
3280.00,0.0166
3279.00,0.0166
3278.00,0.0165
3277.00,0.0165
3276.00,0.0164
3275.00,0.0164
3274.00,0.0163
3273.00,0.0163
3272.00,0.0162
3271.00,0.0162
3270.00,0.0163
3269.00,0.0164
3268.00,0.0164
3267.00,0.0165
3266.00,0.0165
3265.00,0.0165
3264.00,0.0165
3263.00,0.0165
3262.00,0.0165
3261.00,0.0164
3260.00,0.0164
3259.00,0.0164
3258.00,0.0164
3257.00,0.0163
3256.00,0.0163
3255.00,0.0163
3254.00,0.0163
3253.00,0.0163
3252.00,0.0163
3251.00,0.0163
3250.00,0.0162
3249.00,0.0162
3248.00,0.0162
3247.00,0.0161
3246.00,0.0161
3245.00,0.0161
3244.00,0.0161
3243.00,0.0162
3242.00,0.0162
3241.00,0.0162
3240.00,0.0162
3239.00,0.0162
3238.00,0.0161
3237.00,0.0161
3236.00,0.0161
3235.00,0.0160
3234.00,0.0160
3233.00,0.0160
3232.00,0.0159
3231.00,0.0159
3230.00,0.0159
3229.00,0.0159
3228.00,0.0159
3227.00,0.0159
3226.00,0.0159
3225.00,0.0159
3224.00,0.0159
3223.00,0.0159
3222.00,0.0158
3221.00,0.0158
3220.00,0.0157
3219.00,0.0157
3218.00,0.0157
3217.00,0.0157
3216.00,0.0157
3215.00,0.0156
3214.00,0.0156
3213.00,0.0156
3212.00,0.0155
3211.00,0.0155
3210.00,0.0155
3209.00,0.0155
3208.00,0.0155
3207.00,0.0155
3206.00,0.0155
3205.00,0.0155
3204.00,0.0154
3203.00,0.0154
3202.00,0.0154
3201.00,0.0154
3200.00,0.0154
3199.00,0.0154
3198.00,0.0154
3197.00,0.0153
3196.00,0.0153
3195.00,0.0153
3194.00,0.0153
3193.00,0.0153
3192.00,0.0152
3191.00,0.0152
3190.00,0.0152
3189.00,0.0151
3188.00,0.0151
3187.00,0.0151
3186.00,0.0150
3185.00,0.0150
3184.00,0.0149
3183.00,0.0149
3182.00,0.0149
3181.00,0.0149
3180.00,0.0148
3179.00,0.0148
3178.00,0.0148
3177.00,0.0148
3176.00,0.0147
3175.00,0.0147
3174.00,0.0147
3173.00,0.0146
3172.00,0.0146
3171.00,0.0145
3170.00,0.0145
3169.00,0.0144
3168.00,0.0144
3167.00,0.0144
3166.00,0.0143
3165.00,0.0143
3164.00,0.0142
3163.00,0.0142
3162.00,0.0141
3161.00,0.0141
3160.00,0.0140
3159.00,0.0140
3158.00,0.0139
3157.00,0.0139
3156.00,0.0139
3155.00,0.0138
3154.00,0.0137
3153.00,0.0137
3152.00,0.0136
3151.00,0.0136
3150.00,0.0135
3149.00,0.0135
3148.00,0.0134
3147.00,0.0134
3146.00,0.0134
3145.00,0.0133
3144.00,0.0133
3143.00,0.0132
3142.00,0.0132
3141.00,0.0132
3140.00,0.0131
3139.00,0.0131
3138.00,0.0130
3137.00,0.0130
3136.00,0.0130
3135.00,0.0130
3134.00,0.0129
3133.00,0.0129
3132.00,0.0129
3131.00,0.0128
3130.00,0.0128
3129.00,0.0128
3128.00,0.0127
3127.00,0.0127
3126.00,0.0126
3125.00,0.0126
3124.00,0.0126
3123.00,0.0125
3122.00,0.0125
3121.00,0.0125
3120.00,0.0124
3119.00,0.0124
3118.00,0.0124
3117.00,0.0123
3116.00,0.0123
3115.00,0.0122
3114.00,0.0122
3113.00,0.0122
3112.00,0.0121
3111.00,0.0121
3110.00,0.0121
3109.00,0.0120
3108.00,0.0120
3107.00,0.0119
3106.00,0.0119
3105.00,0.0118
3104.00,0.0118
3103.00,0.0118
3102.00,0.0117
3101.00,0.0117
3100.00,0.0117
3099.00,0.0117
3098.00,0.0116
3097.00,0.0116
3096.00,0.0115
3095.00,0.0115
3094.00,0.0114
3093.00,0.0114
3092.00,0.0113
3091.00,0.0113
3090.00,0.0113
3089.00,0.0113
3088.00,0.0113
3087.00,0.0112
3086.00,0.0112
3085.00,0.0112
3084.00,0.0112
3083.00,0.0112
3082.00,0.0112
3081.00,0.0112
3080.00,0.0112
3079.00,0.0112
3078.00,0.0112
3077.00,0.0111
3076.00,0.0111
3075.00,0.0111
3074.00,0.0111
3073.00,0.0111
3072.00,0.0111
3071.00,0.0110
3070.00,0.0110
3069.00,0.0109
3068.00,0.0109
3067.00,0.0108
3066.00,0.0107
3065.00,0.0106
3064.00,0.0106
3063.00,0.0105
3062.00,0.0104
3061.00,0.0104
3060.00,0.0103
3059.00,0.0102
3058.00,0.0102
3057.00,0.0101
3056.00,0.0100
3055.00,0.0100
3054.00,0.0099
3053.00,0.0099
3052.00,0.0099
3051.00,0.0099
3050.00,0.0099
3049.00,0.0098
3048.00,0.0098
3047.00,0.0098
3046.00,0.0097
3045.00,0.0097
3044.00,0.0096
3043.00,0.0096
3042.00,0.0096
3041.00,0.0095
3040.00,0.0095
3039.00,0.0095
3038.00,0.0095
3037.00,0.0095
3036.00,0.0094
3035.00,0.0094
3034.00,0.0094
3033.00,0.0094
3032.00,0.0094
3031.00,0.0094
3030.00,0.0093
3029.00,0.0093
3028.00,0.0093
3027.00,0.0093
3026.00,0.0093
3025.00,0.0093
3024.00,0.0093
3023.00,0.0093
3022.00,0.0093
3021.00,0.0094
3020.00,0.0094
3019.00,0.0094
3018.00,0.0095
3017.00,0.0095
3016.00,0.0095
3015.00,0.0096
3014.00,0.0096
3013.00,0.0097
3012.00,0.0097
3011.00,0.0098
3010.00,0.0100
3009.00,0.0101
3008.00,0.0102
3007.00,0.0103
3006.00,0.0104
3005.00,0.0105
3004.00,0.0107
3003.00,0.0109
3002.00,0.0110
3001.00,0.0112
3000.00,0.0114
2999.00,0.0116
2998.00,0.0118
2997.00,0.0120
2996.00,0.0122
2995.00,0.0125
2994.00,0.0127
2993.00,0.0130
2992.00,0.0133
2991.00,0.0136
2990.00,0.0139
2989.00,0.0142
2988.00,0.0145
2987.00,0.0148
2986.00,0.0150
2985.00,0.0153
2984.00,0.0155
2983.00,0.0158
2982.00,0.0160
2981.00,0.0163
2980.00,0.0166
2979.00,0.0168
2978.00,0.0171
2977.00,0.0174
2976.00,0.0177
2975.00,0.0180
2974.00,0.0183
2973.00,0.0186
2972.00,0.0190
2971.00,0.0193
2970.00,0.0197
2969.00,0.0200
2968.00,0.0204
2967.00,0.0208
2966.00,0.0212
2965.00,0.0216
2964.00,0.0220
2963.00,0.0224
2962.00,0.0227
2961.00,0.0230
2960.00,0.0233
2959.00,0.0236
2958.00,0.0238
2957.00,0.0240
2956.00,0.0241
2955.00,0.0242
2954.00,0.0243
2953.00,0.0243
2952.00,0.0243
2951.00,0.0243
2950.00,0.0242
2949.00,0.0241
2948.00,0.0240
2947.00,0.0240
2946.00,0.0239
2945.00,0.0239
2944.00,0.0239
2943.00,0.0239
2942.00,0.0240
2941.00,0.0242
2940.00,0.0244
2939.00,0.0246
2938.00,0.0248
2937.00,0.0251
2936.00,0.0254
2935.00,0.0257
2934.00,0.0261
2933.00,0.0264
2932.00,0.0268
2931.00,0.0271
2930.00,0.0274
2929.00,0.0277
2928.00,0.0280
2927.00,0.0282
2926.00,0.0284
2925.00,0.0285
2924.00,0.0286
2923.00,0.0287
2922.00,0.0287
2921.00,0.0287
2920.00,0.0286
2919.00,0.0284
2918.00,0.0282
2917.00,0.0279
2916.00,0.0276
2915.00,0.0273
2914.00,0.0269
2913.00,0.0266
2912.00,0.0262
2911.00,0.0258
2910.00,0.0254
2909.00,0.0250
2908.00,0.0247
2907.00,0.0243
2906.00,0.0240
2905.00,0.0237
2904.00,0.0235
2903.00,0.0232
2902.00,0.0230
2901.00,0.0228
2900.00,0.0226
2899.00,0.0225
2898.00,0.0223
2897.00,0.0222
2896.00,0.0221
2895.00,0.0220
2894.00,0.0220
2893.00,0.0219
2892.00,0.0218
2891.00,0.0217
2890.00,0.0216
2889.00,0.0215
2888.00,0.0214
2887.00,0.0214
2886.00,0.0213
2885.00,0.0212
2884.00,0.0212
2883.00,0.0212
2882.00,0.0211
2881.00,0.0211
2880.00,0.0211
2879.00,0.0211
2878.00,0.0211
2877.00,0.0211
2876.00,0.0211
2875.00,0.0211
2874.00,0.0211
2873.00,0.0211
2872.00,0.0211
2871.00,0.0211
2870.00,0.0211
2869.00,0.0211
2868.00,0.0210
2867.00,0.0210
2866.00,0.0209
2865.00,0.0209
2864.00,0.0209
2863.00,0.0209
2862.00,0.0209
2861.00,0.0210
2860.00,0.0211
2859.00,0.0212
2858.00,0.0212
2857.00,0.0212
2856.00,0.0211
2855.00,0.0210
2854.00,0.0208
2853.00,0.0205
2852.00,0.0201
2851.00,0.0196
2850.00,0.0191
2849.00,0.0186
2848.00,0.0181
2847.00,0.0175
2846.00,0.0170
2845.00,0.0165
2844.00,0.0160
2843.00,0.0155
2842.00,0.0151
2841.00,0.0147
2840.00,0.0144
2839.00,0.0141
2838.00,0.0139
2837.00,0.0137
2836.00,0.0136
2835.00,0.0135
2834.00,0.0134
2833.00,0.0133
2832.00,0.0131
2831.00,0.0130
2830.00,0.0129
2829.00,0.0127
2828.00,0.0125
2827.00,0.0123
2826.00,0.0120
2825.00,0.0117
2824.00,0.0114
2823.00,0.0112
2822.00,0.0109
2821.00,0.0106
2820.00,0.0104
2819.00,0.0102
2818.00,0.0100
2817.00,0.0098
2816.00,0.0096
2815.00,0.0095
2814.00,0.0093
2813.00,0.0092
2812.00,0.0091
2811.00,0.0090
2810.00,0.0089
2809.00,0.0088
2808.00,0.0087
2807.00,0.0087
2806.00,0.0086
2805.00,0.0085
2804.00,0.0085
2803.00,0.0084
2802.00,0.0084
2801.00,0.0083
2800.00,0.0083
2799.00,0.0082
2798.00,0.0082
2797.00,0.0082
2796.00,0.0081
2795.00,0.0081
2794.00,0.0080
2793.00,0.0080
2792.00,0.0080
2791.00,0.0079
2790.00,0.0079
2789.00,0.0079
2788.00,0.0079
2787.00,0.0079
2786.00,0.0079
2785.00,0.0078
2784.00,0.0078
2783.00,0.0077
2782.00,0.0077
2781.00,0.0077
2780.00,0.0077
2779.00,0.0076
2778.00,0.0076
2777.00,0.0076
2776.00,0.0076
2775.00,0.0075
2774.00,0.0075
2773.00,0.0075
2772.00,0.0075
2771.00,0.0075
2770.00,0.0074
2769.00,0.0074
2768.00,0.0074
2767.00,0.0074
2766.00,0.0074
2765.00,0.0074
2764.00,0.0074
2763.00,0.0074
2762.00,0.0074
2761.00,0.0074
2760.00,0.0074
2759.00,0.0074
2758.00,0.0073
2757.00,0.0073
