Created as New Dataset,Sample 003 By YargerLab Date Wednesday, August 06 2025
cm-1,A
4000.00,0.0025
3999.00,0.0025
3998.00,0.0024
3997.00,0.0024
3996.00,0.0024
3995.00,0.0024
3994.00,0.0024
3993.00,0.0025
3992.00,0.0025
3991.00,0.0025
3990.00,0.0025
3989.00,0.0025
3988.00,0.0025
3987.00,0.0025
3986.00,0.0025
3985.00,0.0025
3984.00,0.0025
3983.00,0.0025
3982.00,0.0025
3981.00,0.0025
3980.00,0.0025
3979.00,0.0024
3978.00,0.0024
3977.00,0.0024
3976.00,0.0024
3975.00,0.0024
3974.00,0.0025
3973.00,0.0025
3972.00,0.0025
3971.00,0.0025
3970.00,0.0025
3969.00,0.0025
3968.00,0.0025
3967.00,0.0025
3966.00,0.0025
3965.00,0.0025
3964.00,0.0025
3963.00,0.0025
3962.00,0.0025
3961.00,0.0025
3960.00,0.0025
3959.00,0.0025
3958.00,0.0025
3957.00,0.0025
3956.00,0.0025
3955.00,0.0024
3954.00,0.0024
3953.00,0.0024
3952.00,0.0024
3951.00,0.0024
3950.00,0.0024
3949.00,0.0024
3948.00,0.0025
3947.00,0.0025
3946.00,0.0025
3945.00,0.0025
3944.00,0.0025
3943.00,0.0025
3942.00,0.0025
3941.00,0.0025
3940.00,0.0025
3939.00,0.0025
3938.00,0.0025
3937.00,0.0025
3936.00,0.0025
3935.00,0.0025
3934.00,0.0025
3933.00,0.0025
3932.00,0.0025
3931.00,0.0025
3930.00,0.0025
3929.00,0.0025
3928.00,0.0025
3927.00,0.0025
3926.00,0.0025
3925.00,0.0025
3924.00,0.0025
3923.00,0.0025
3922.00,0.0025
3921.00,0.0025
3920.00,0.0025
3919.00,0.0025
3918.00,0.0025
3917.00,0.0025
3916.00,0.0025
3915.00,0.0025
3914.00,0.0025
3913.00,0.0025
3912.00,0.0025
3911.00,0.0025
3910.00,0.0025
3909.00,0.0025
3908.00,0.0025
3907.00,0.0025
3906.00,0.0025
3905.00,0.0025
3904.00,0.0025
3903.00,0.0025
3902.00,0.0025
3901.00,0.0025
3900.00,0.0025
3899.00,0.0024
3898.00,0.0024
3897.00,0.0024
3896.00,0.0024
3895.00,0.0024
3894.00,0.0025
3893.00,0.0025
3892.00,0.0025
3891.00,0.0025
3890.00,0.0025
3889.00,0.0025
3888.00,0.0025
3887.00,0.0024
3886.00,0.0024
3885.00,0.0024
3884.00,0.0024
3883.00,0.0024
3882.00,0.0024
3881.00,0.0024
3880.00,0.0024
3879.00,0.0025
3878.00,0.0025
3877.00,0.0025
3876.00,0.0025
3875.00,0.0025
3874.00,0.0025
3873.00,0.0025
3872.00,0.0025
3871.00,0.0025
3870.00,0.0025
3869.00,0.0024
3868.00,0.0024
3867.00,0.0024
3866.00,0.0024
3865.00,0.0024
3864.00,0.0023
3863.00,0.0024
3862.00,0.0024
3861.00,0.0024
3860.00,0.0024
3859.00,0.0024
3858.00,0.0024
3857.00,0.0025
3856.00,0.0025
3855.00,0.0025
3854.00,0.0025
3853.00,0.0025
3852.00,0.0025
3851.00,0.0025
3850.00,0.0025
3849.00,0.0025
3848.00,0.0024
3847.00,0.0024
3846.00,0.0024
3845.00,0.0025
3844.00,0.0025
3843.00,0.0025
3842.00,0.0025
3841.00,0.0025
3840.00,0.0025
3839.00,0.0025
3838.00,0.0024
3837.00,0.0024
3836.00,0.0024
3835.00,0.0024
3834.00,0.0024
3833.00,0.0024
3832.00,0.0024
3831.00,0.0024
3830.00,0.0025
3829.00,0.0025
3828.00,0.0025
3827.00,0.0025
3826.00,0.0024
3825.00,0.0024
3824.00,0.0024
3823.00,0.0024
3822.00,0.0024
3821.00,0.0024
3820.00,0.0024
3819.00,0.0024
3818.00,0.0025
3817.00,0.0025
3816.00,0.0024
3815.00,0.0024
3814.00,0.0024
3813.00,0.0025
3812.00,0.0024
3811.00,0.0024
3810.00,0.0024
3809.00,0.0024
3808.00,0.0024
3807.00,0.0024
3806.00,0.0024
3805.00,0.0024
3804.00,0.0025
3803.00,0.0025
3802.00,0.0025
3801.00,0.0025
3800.00,0.0025
3799.00,0.0025
3798.00,0.0025
3797.00,0.0024
3796.00,0.0024
3795.00,0.0024
3794.00,0.0024
3793.00,0.0024
3792.00,0.0024
3791.00,0.0024
3790.00,0.0024
3789.00,0.0024
3788.00,0.0024
3787.00,0.0024
3786.00,0.0024
3785.00,0.0024
3784.00,0.0024
3783.00,0.0024
3782.00,0.0025
3781.00,0.0025
3780.00,0.0024
3779.00,0.0024
3778.00,0.0024
3777.00,0.0024
3776.00,0.0024
3775.00,0.0024
3774.00,0.0024
3773.00,0.0024
3772.00,0.0024
3771.00,0.0024
3770.00,0.0025
3769.00,0.0025
3768.00,0.0025
3767.00,0.0025
3766.00,0.0025
3765.00,0.0024
3764.00,0.0024
3763.00,0.0025
3762.00,0.0025
3761.00,0.0025
3760.00,0.0024
3759.00,0.0024
3758.00,0.0024
3757.00,0.0024
3756.00,0.0024
3755.00,0.0025
3754.00,0.0025
3753.00,0.0025
3752.00,0.0025
3751.00,0.0024
3750.00,0.0024
3749.00,0.0024
3748.00,0.0024
3747.00,0.0024
3746.00,0.0024
3745.00,0.0024
3744.00,0.0024
3743.00,0.0024
3742.00,0.0024
3741.00,0.0024
3740.00,0.0024
3739.00,0.0023
3738.00,0.0023
3737.00,0.0023
3736.00,0.0023
3735.00,0.0023
3734.00,0.0023
3733.00,0.0023
3732.00,0.0023
3731.00,0.0022
3730.00,0.0022
3729.00,0.0022
3728.00,0.0022
3727.00,0.0022
3726.00,0.0022
3725.00,0.0022
3724.00,0.0022
3723.00,0.0022
3722.00,0.0022
3721.00,0.0023
3720.00,0.0023
3719.00,0.0023
3718.00,0.0022
3717.00,0.0022
3716.00,0.0022
3715.00,0.0022
3714.00,0.0022
3713.00,0.0022
3712.00,0.0022
3711.00,0.0022
3710.00,0.0022
3709.00,0.0022
3708.00,0.0022
3707.00,0.0022
3706.00,0.0022
3705.00,0.0022
3704.00,0.0022
3703.00,0.0022
3702.00,0.0022
3701.00,0.0022
3700.00,0.0022
3699.00,0.0022
3698.00,0.0022
3697.00,0.0022
3696.00,0.0022
3695.00,0.0022
3694.00,0.0022
3693.00,0.0022
3692.00,0.0022
3691.00,0.0022
3690.00,0.0022
3689.00,0.0022
3688.00,0.0022
3687.00,0.0022
3686.00,0.0023
3685.00,0.0023
3684.00,0.0022
3683.00,0.0022
3682.00,0.0022
3681.00,0.0022
3680.00,0.0022
3679.00,0.0022
3678.00,0.0023
3677.00,0.0023
3676.00,0.0022
3675.00,0.0021
3674.00,0.0022
3673.00,0.0022
3672.00,0.0022
3671.00,0.0022
3670.00,0.0022
3669.00,0.0022
3668.00,0.0022
3667.00,0.0022
3666.00,0.0021
3665.00,0.0021
3664.00,0.0021
3663.00,0.0021
3662.00,0.0021
3661.00,0.0022
3660.00,0.0022
3659.00,0.0022
3658.00,0.0022
3657.00,0.0021
3656.00,0.0021
3655.00,0.0021
3654.00,0.0021
3653.00,0.0022
3652.00,0.0022
3651.00,0.0022
3650.00,0.0021
3649.00,0.0021
3648.00,0.0021
3647.00,0.0021
3646.00,0.0021
3645.00,0.0021
3644.00,0.0021
3643.00,0.0021
3642.00,0.0021
3641.00,0.0021
3640.00,0.0020
3639.00,0.0020
3638.00,0.0020
3637.00,0.0020
3636.00,0.0020
3635.00,0.0020
3634.00,0.0020
3633.00,0.0020
3632.00,0.0021
3631.00,0.0020
3630.00,0.0020
3629.00,0.0019
3628.00,0.0019
3627.00,0.0020
3626.00,0.0020
3625.00,0.0021
3624.00,0.0021
3623.00,0.0021
3622.00,0.0021
3621.00,0.0021
3620.00,0.0021
3619.00,0.0021
3618.00,0.0021
3617.00,0.0021
3616.00,0.0021
3615.00,0.0020
3614.00,0.0020
3613.00,0.0020
3612.00,0.0021
3611.00,0.0021
3610.00,0.0021
3609.00,0.0021
3608.00,0.0021
3607.00,0.0020
3606.00,0.0020
3605.00,0.0020
3604.00,0.0020
3603.00,0.0019
3602.00,0.0019
3601.00,0.0019
3600.00,0.0019
3599.00,0.0020
3598.00,0.0020
3597.00,0.0020
3596.00,0.0020
3595.00,0.0020
3594.00,0.0020
3593.00,0.0020
3592.00,0.0020
3591.00,0.0020
3590.00,0.0020
3589.00,0.0020
3588.00,0.0020
3587.00,0.0019
3586.00,0.0019
3585.00,0.0019
3584.00,0.0019
3583.00,0.0019
3582.00,0.0019
3581.00,0.0019
3580.00,0.0019
3579.00,0.0019
3578.00,0.0019
3577.00,0.0019
3576.00,0.0019
3575.00,0.0019
3574.00,0.0019
3573.00,0.0019
3572.00,0.0019
3571.00,0.0019
3570.00,0.0019
3569.00,0.0020
3568.00,0.0020
3567.00,0.0020
3566.00,0.0020
3565.00,0.0020
3564.00,0.0020
3563.00,0.0020
3562.00,0.0020
3561.00,0.0020
3560.00,0.0021
3559.00,0.0021
3558.00,0.0021
3557.00,0.0021
3556.00,0.0021
3555.00,0.0021
3554.00,0.0021
3553.00,0.0021
3552.00,0.0021
3551.00,0.0021
3550.00,0.0021
3549.00,0.0021
3548.00,0.0021
3547.00,0.0021
3546.00,0.0021
3545.00,0.0021
3544.00,0.0021
3543.00,0.0021
3542.00,0.0022
3541.00,0.0022
3540.00,0.0022
3539.00,0.0023
3538.00,0.0023
3537.00,0.0023
3536.00,0.0023
3535.00,0.0023
3534.00,0.0023
3533.00,0.0023
3532.00,0.0024
3531.00,0.0024
3530.00,0.0024
3529.00,0.0024
3528.00,0.0024
3527.00,0.0025
3526.00,0.0025
3525.00,0.0025
3524.00,0.0025
3523.00,0.0025
3522.00,0.0025
3521.00,0.0025
3520.00,0.0026
3519.00,0.0026
3518.00,0.0026
3517.00,0.0026
3516.00,0.0026
3515.00,0.0026
3514.00,0.0026
3513.00,0.0027
3512.00,0.0027
3511.00,0.0027
3510.00,0.0027
3509.00,0.0028
3508.00,0.0028
3507.00,0.0028
3506.00,0.0029
3505.00,0.0029
3504.00,0.0029
3503.00,0.0029
3502.00,0.0029
3501.00,0.0029
3500.00,0.0029
3499.00,0.0030
3498.00,0.0030
3497.00,0.0031
3496.00,0.0031
3495.00,0.0031
3494.00,0.0031
3493.00,0.0031
3492.00,0.0032
3491.00,0.0032
3490.00,0.0032
3489.00,0.0033
3488.00,0.0033
3487.00,0.0034
3486.00,0.0034
3485.00,0.0034
3484.00,0.0035
3483.00,0.0035
3482.00,0.0036
3481.00,0.0036
3480.00,0.0036
3479.00,0.0037
3478.00,0.0037
3477.00,0.0038
3476.00,0.0038
3475.00,0.0038
3474.00,0.0038
3473.00,0.0039
3472.00,0.0039
3471.00,0.0040
3470.00,0.0041
3469.00,0.0041
3468.00,0.0042
3467.00,0.0043
3466.00,0.0043
3465.00,0.0044
3464.00,0.0045
3463.00,0.0045
3462.00,0.0045
3461.00,0.0046
3460.00,0.0046
3459.00,0.0047
3458.00,0.0047
3457.00,0.0048
3456.00,0.0049
3455.00,0.0050
3454.00,0.0051
3453.00,0.0051
3452.00,0.0052
3451.00,0.0053
3450.00,0.0054
3449.00,0.0054
3448.00,0.0055
3447.00,0.0056
3446.00,0.0057
3445.00,0.0057
3444.00,0.0058
3443.00,0.0059
3442.00,0.0060
3441.00,0.0061
3440.00,0.0062
3439.00,0.0063
3438.00,0.0064
3437.00,0.0064
3436.00,0.0065
3435.00,0.0066
3434.00,0.0067
3433.00,0.0068
3432.00,0.0069
3431.00,0.0070
3430.00,0.0072
3429.00,0.0073
3428.00,0.0074
3427.00,0.0075
3426.00,0.0076
3425.00,0.0078
3424.00,0.0079
3423.00,0.0080
3422.00,0.0081
3421.00,0.0083
3420.00,0.0084
3419.00,0.0085
3418.00,0.0087
3417.00,0.0088
3416.00,0.0089
3415.00,0.0089
3414.00,0.0090
3413.00,0.0091
3412.00,0.0093
3411.00,0.0094
3410.00,0.0095
3409.00,0.0096
3408.00,0.0097
3407.00,0.0098
3406.00,0.0098
3405.00,0.0099
3404.00,0.0100
3403.00,0.0100
3402.00,0.0101
3401.00,0.0101
3400.00,0.0101
3399.00,0.0101
3398.00,0.0101
3397.00,0.0101
3396.00,0.0101
3395.00,0.0101
3394.00,0.0101
3393.00,0.0101
3392.00,0.0101
3391.00,0.0100
3390.00,0.0100
3389.00,0.0100
3388.00,0.0099
3387.00,0.0098
3386.00,0.0097
3385.00,0.0097
3384.00,0.0096
3383.00,0.0096
3382.00,0.0095
3381.00,0.0094
3380.00,0.0093
3379.00,0.0092
3378.00,0.0091
3377.00,0.0091
3376.00,0.0090
3375.00,0.0089
3374.00,0.0089
3373.00,0.0088
3372.00,0.0088
3371.00,0.0087
3370.00,0.0087
3369.00,0.0086
3368.00,0.0086
3367.00,0.0085
3366.00,0.0084
3365.00,0.0084
3364.00,0.0083
3363.00,0.0082
3362.00,0.0082
3361.00,0.0081
3360.00,0.0081
3359.00,0.0081
3358.00,0.0080
3357.00,0.0080
3356.00,0.0079
3355.00,0.0079
3354.00,0.0078
3353.00,0.0078
3352.00,0.0078
3351.00,0.0077
3350.00,0.0077
3349.00,0.0077
3348.00,0.0076
3347.00,0.0076
3346.00,0.0076
3345.00,0.0075
3344.00,0.0075
3343.00,0.0075
3342.00,0.0075
3341.00,0.0075
3340.00,0.0075
3339.00,0.0074
3338.00,0.0074
3337.00,0.0074
3336.00,0.0074
3335.00,0.0074
3334.00,0.0074
3333.00,0.0074
3332.00,0.0074
3331.00,0.0075
3330.00,0.0074
3329.00,0.0074
3328.00,0.0074
3327.00,0.0074
3326.00,0.0074
3325.00,0.0074
3324.00,0.0074
3323.00,0.0074
3322.00,0.0075
3321.00,0.0075
3320.00,0.0075
3319.00,0.0075
3318.00,0.0075
3317.00,0.0075
3316.00,0.0075
3315.00,0.0076
3314.00,0.0076
3313.00,0.0076
3312.00,0.0077
3311.00,0.0077
3310.00,0.0077
3309.00,0.0078
3308.00,0.0078
3307.00,0.0079
3306.00,0.0079
3305.00,0.0080
3304.00,0.0080
3303.00,0.0080
3302.00,0.0080
3301.00,0.0080
3300.00,0.0081
3299.00,0.0081
3298.00,0.0082
3297.00,0.0082
3296.00,0.0082
3295.00,0.0083
3294.00,0.0083
3293.00,0.0084
3292.00,0.0084
3291.00,0.0084
3290.00,0.0085
3289.00,0.0085
3288.00,0.0086
3287.00,0.0086
3286.00,0.0087
3285.00,0.0087
3284.00,0.0088
3283.00,0.0089
3282.00,0.0089
3281.00,0.0090
3280.00,0.0090
3279.00,0.0091
3278.00,0.0091
3277.00,0.0091
3276.00,0.0092
3275.00,0.0093
3274.00,0.0093
3273.00,0.0094
3272.00,0.0094
3271.00,0.0095
3270.00,0.0096
3269.00,0.0096
3268.00,0.0096
3267.00,0.0097
3266.00,0.0097
3265.00,0.0098
3264.00,0.0098
3263.00,0.0099
3262.00,0.0100
3261.00,0.0100
3260.00,0.0101
3259.00,0.0101
3258.00,0.0102
3257.00,0.0103
3256.00,0.0103
3255.00,0.0104
3254.00,0.0105
3253.00,0.0105
3252.00,0.0106
3251.00,0.0106
3250.00,0.0106
3249.00,0.0107
3248.00,0.0107
3247.00,0.0107
3246.00,0.0108
3245.00,0.0108
3244.00,0.0109
3243.00,0.0110
3242.00,0.0110
3241.00,0.0111
3240.00,0.0111
3239.00,0.0111
3238.00,0.0111
3237.00,0.0111
3236.00,0.0111
3235.00,0.0111
3234.00,0.0111
3233.00,0.0111
3232.00,0.0112
3231.00,0.0112
3230.00,0.0112
3229.00,0.0112
3228.00,0.0112
3227.00,0.0113
3226.00,0.0113
3225.00,0.0113
3224.00,0.0113
3223.00,0.0113
3222.00,0.0113
3221.00,0.0113
3220.00,0.0112
3219.00,0.0112
3218.00,0.0112
3217.00,0.0111
3216.00,0.0111
3215.00,0.0111
3214.00,0.0110
3213.00,0.0110
3212.00,0.0110
3211.00,0.0109
3210.00,0.0109
3209.00,0.0108
3208.00,0.0108
3207.00,0.0107
3206.00,0.0107
3205.00,0.0106
3204.00,0.0106
3203.00,0.0106
3202.00,0.0105
3201.00,0.0105
3200.00,0.0105
3199.00,0.0104
3198.00,0.0103
3197.00,0.0103
3196.00,0.0102
3195.00,0.0101
3194.00,0.0100
3193.00,0.0099
3192.00,0.0098
3191.00,0.0098
3190.00,0.0097
3189.00,0.0096
3188.00,0.0096
3187.00,0.0096
3186.00,0.0095
3185.00,0.0095
3184.00,0.0094
3183.00,0.0093
3182.00,0.0093
3181.00,0.0092
3180.00,0.0092
3179.00,0.0091
3178.00,0.0091
3177.00,0.0090
3176.00,0.0089
3175.00,0.0088
3174.00,0.0088
3173.00,0.0087
3172.00,0.0086
3171.00,0.0086
3170.00,0.0085
3169.00,0.0084
3168.00,0.0083
3167.00,0.0083
3166.00,0.0082
3165.00,0.0081
3164.00,0.0081
3163.00,0.0080
3162.00,0.0079
3161.00,0.0078
3160.00,0.0077
3159.00,0.0077
3158.00,0.0076
3157.00,0.0075
3156.00,0.0074
3155.00,0.0073
3154.00,0.0072
3153.00,0.0071
3152.00,0.0071
3151.00,0.0070
3150.00,0.0070
3149.00,0.0070
3148.00,0.0069
3147.00,0.0069
3146.00,0.0068
3145.00,0.0067
3144.00,0.0066
3143.00,0.0066
3142.00,0.0065
3141.00,0.0065
3140.00,0.0064
3139.00,0.0064
3138.00,0.0064
3137.00,0.0063
3136.00,0.0063
3135.00,0.0062
3134.00,0.0062
3133.00,0.0061
3132.00,0.0061
3131.00,0.0060
3130.00,0.0060
3129.00,0.0059
3128.00,0.0059
3127.00,0.0059
3126.00,0.0059
3125.00,0.0058
3124.00,0.0057
3123.00,0.0057
3122.00,0.0057
3121.00,0.0056
3120.00,0.0056
3119.00,0.0056
3118.00,0.0055
3117.00,0.0055
3116.00,0.0055
3115.00,0.0054
3114.00,0.0054
3113.00,0.0053
3112.00,0.0052
3111.00,0.0052
3110.00,0.0052
3109.00,0.0051
3108.00,0.0051
3107.00,0.0050
3106.00,0.0050
3105.00,0.0050
3104.00,0.0050
3103.00,0.0049
3102.00,0.0049
3101.00,0.0049
3100.00,0.0048
3099.00,0.0048
3098.00,0.0048
3097.00,0.0048
3096.00,0.0048
3095.00,0.0048
3094.00,0.0048
3093.00,0.0048
3092.00,0.0048
3091.00,0.0048
3090.00,0.0048
3089.00,0.0048
3088.00,0.0049
3087.00,0.0049
3086.00,0.0049
3085.00,0.0049
3084.00,0.0049
3083.00,0.0049
3082.00,0.0049
3081.00,0.0049
3080.00,0.0049
3079.00,0.0049
3078.00,0.0048
3077.00,0.0048
3076.00,0.0048
3075.00,0.0047
3074.00,0.0047
3073.00,0.0047
3072.00,0.0047
3071.00,0.0047
3070.00,0.0047
3069.00,0.0047
3068.00,0.0047
3067.00,0.0047
3066.00,0.0047
3065.00,0.0047
3064.00,0.0047
3063.00,0.0047
3062.00,0.0047
3061.00,0.0047
3060.00,0.0047
3059.00,0.0047
3058.00,0.0047
3057.00,0.0047
3056.00,0.0047
3055.00,0.0047
3054.00,0.0047
3053.00,0.0047
3052.00,0.0047
3051.00,0.0047
3050.00,0.0047
3049.00,0.0047
3048.00,0.0047
3047.00,0.0047
3046.00,0.0047
3045.00,0.0047
3044.00,0.0046
3043.00,0.0046
3042.00,0.0046
3041.00,0.0047
3040.00,0.0047
3039.00,0.0047
3038.00,0.0048
3037.00,0.0049
3036.00,0.0049
3035.00,0.0050
3034.00,0.0050
3033.00,0.0050
3032.00,0.0050
3031.00,0.0050
3030.00,0.0050
3029.00,0.0049
3028.00,0.0049
3027.00,0.0048
3026.00,0.0047
3025.00,0.0047
3024.00,0.0046
3023.00,0.0046
3022.00,0.0045
3021.00,0.0045
3020.00,0.0044
3019.00,0.0044
3018.00,0.0044
3017.00,0.0043
3016.00,0.0043
3015.00,0.0043
3014.00,0.0043
3013.00,0.0043
3012.00,0.0043
3011.00,0.0044
3010.00,0.0044
3009.00,0.0044
3008.00,0.0045
3007.00,0.0045
3006.00,0.0046
3005.00,0.0047
3004.00,0.0048
3003.00,0.0049
3002.00,0.0050
3001.00,0.0051
3000.00,0.0053
2999.00,0.0055
2998.00,0.0057
2997.00,0.0059
2996.00,0.0061
2995.00,0.0063
2994.00,0.0065
2993.00,0.0066
2992.00,0.0067
2991.00,0.0068
2990.00,0.0070
2989.00,0.0071
2988.00,0.0072
2987.00,0.0073
2986.00,0.0075
2985.00,0.0078
2984.00,0.0081
2983.00,0.0085
2982.00,0.0089
2981.00,0.0093
2980.00,0.0097
2979.00,0.0099
2978.00,0.0101
2977.00,0.0103
2976.00,0.0105
2975.00,0.0107
2974.00,0.0111
2973.00,0.0116
2972.00,0.0121
2971.00,0.0126
2970.00,0.0130
2969.00,0.0134
2968.00,0.0136
2967.00,0.0138
2966.00,0.0140
2965.00,0.0143
2964.00,0.0146
2963.00,0.0149
2962.00,0.0151
2961.00,0.0153
2960.00,0.0153
2959.00,0.0152
2958.00,0.0149
2957.00,0.0146
2956.00,0.0142
2955.00,0.0137
2954.00,0.0132
2953.00,0.0128
2952.00,0.0124
2951.00,0.0121
2950.00,0.0119
2949.00,0.0117
2948.00,0.0117
2947.00,0.0118
2946.00,0.0120
2945.00,0.0122
2944.00,0.0126
2943.00,0.0129
2942.00,0.0134
2941.00,0.0139
2940.00,0.0145
2939.00,0.0151
2938.00,0.0159
2937.00,0.0167
2936.00,0.0177
2935.00,0.0187
2934.00,0.0198
2933.00,0.0209
2932.00,0.0220
2931.00,0.0230
2930.00,0.0240
2929.00,0.0248
2928.00,0.0254
2927.00,0.0258
2926.00,0.0258
2925.00,0.0257
2924.00,0.0253
2923.00,0.0248
2922.00,0.0241
2921.00,0.0234
2920.00,0.0227
2919.00,0.0219
2918.00,0.0211
2917.00,0.0204
2916.00,0.0196
2915.00,0.0189
2914.00,0.0182
2913.00,0.0175
2912.00,0.0170
2911.00,0.0164
2910.00,0.0159
2909.00,0.0154
2908.00,0.0150
2907.00,0.0145
2906.00,0.0142
2905.00,0.0138
2904.00,0.0135
2903.00,0.0131
2902.00,0.0128
2901.00,0.0125
2900.00,0.0122
2899.00,0.0120
2898.00,0.0117
2897.00,0.0114
2896.00,0.0112
2895.00,0.0109
2894.00,0.0107
2893.00,0.0105
2892.00,0.0103
2891.00,0.0102
2890.00,0.0100
2889.00,0.0099
2888.00,0.0097
2887.00,0.0096
2886.00,0.0095
2885.00,0.0095
2884.00,0.0094
2883.00,0.0094
2882.00,0.0095
2881.00,0.0096
2880.00,0.0097
2879.00,0.0100
2878.00,0.0103
2877.00,0.0106
2876.00,0.0110
2875.00,0.0114
2874.00,0.0117
2873.00,0.0119
2872.00,0.0120
2871.00,0.0121
2870.00,0.0120
2869.00,0.0120
2868.00,0.0120
2867.00,0.0120
2866.00,0.0122
2865.00,0.0125
2864.00,0.0130
2863.00,0.0136
2862.00,0.0143
2861.00,0.0152
2860.00,0.0161
2859.00,0.0169
2858.00,0.0176
2857.00,0.0181
2856.00,0.0184
2855.00,0.0186
2854.00,0.0186
2853.00,0.0185
2852.00,0.0182
2851.00,0.0177
2850.00,0.0170
2849.00,0.0161
2848.00,0.0151
2847.00,0.0142
2846.00,0.0133
2845.00,0.0124
2844.00,0.0116
2843.00,0.0109
2842.00,0.0102
2841.00,0.0097
2840.00,0.0092
2839.00,0.0087
2838.00,0.0084
2837.00,0.0081
2836.00,0.0078
2835.00,0.0076
2834.00,0.0074
2833.00,0.0072
2832.00,0.0070
2831.00,0.0068
2830.00,0.0067
2829.00,0.0065
2828.00,0.0064
2827.00,0.0063
2826.00,0.0062
2825.00,0.0061
2824.00,0.0060
2823.00,0.0059
2822.00,0.0058
2821.00,0.0057
2820.00,0.0056
2819.00,0.0056
2818.00,0.0055
2817.00,0.0054
2816.00,0.0054
2815.00,0.0053
2814.00,0.0053
2813.00,0.0052
2812.00,0.0052
2811.00,0.0051
2810.00,0.0051
2809.00,0.0051
2808.00,0.0050
2807.00,0.0050
2806.00,0.0050
2805.00,0.0049
2804.00,0.0049
2803.00,0.0049
2802.00,0.0049
2801.00,0.0049
2800.00,0.0048
2799.00,0.0048
2798.00,0.0047
2797.00,0.0047
2796.00,0.0047
2795.00,0.0047
2794.00,0.0047
2793.00,0.0047
2792.00,0.0046
2791.00,0.0046
2790.00,0.0045
2789.00,0.0045
2788.00,0.0044
2787.00,0.0044
2786.00,0.0044
2785.00,0.0044
2784.00,0.0043
2783.00,0.0043
2782.00,0.0043
2781.00,0.0042
2780.00,0.0042
2779.00,0.0042
2778.00,0.0042
2777.00,0.0042
2776.00,0.0042
2775.00,0.0042
2774.00,0.0042
2773.00,0.0042
2772.00,0.0041
2771.00,0.0041
2770.00,0.0041
2769.00,0.0041
2768.00,0.0041
2767.00,0.0041
2766.00,0.0041
2765.00,0.0041
2764.00,0.0041
2763.00,0.0041
2762.00,0.0041
2761.00,0.0041
2760.00,0.0041
2759.00,0.0041
2758.00,0.0041
2757.00,0.0041
