Created as New Dataset,Sample 633 By YargerLab Date Friday, June 06 2025
cm-1,A
4000.00,0.0041
3999.00,0.0041
3998.00,0.0041
3997.00,0.0040
3996.00,0.0040
3995.00,0.0040
3994.00,0.0040
3993.00,0.0040
3992.00,0.0040
3991.00,0.0040
3990.00,0.0040
3989.00,0.0041
3988.00,0.0041
3987.00,0.0041
3986.00,0.0041
3985.00,0.0041
3984.00,0.0040
3983.00,0.0040
3982.00,0.0040
3981.00,0.0040
3980.00,0.0040
3979.00,0.0040
3978.00,0.0040
3977.00,0.0040
3976.00,0.0040
3975.00,0.0040
3974.00,0.0040
3973.00,0.0040
3972.00,0.0040
3971.00,0.0040
3970.00,0.0040
3969.00,0.0040
3968.00,0.0040
3967.00,0.0040
3966.00,0.0040
3965.00,0.0040
3964.00,0.0040
3963.00,0.0040
3962.00,0.0040
3961.00,0.0040
3960.00,0.0040
3959.00,0.0040
3958.00,0.0040
3957.00,0.0040
3956.00,0.0041
3955.00,0.0040
3954.00,0.0040
3953.00,0.0040
3952.00,0.0040
3951.00,0.0040
3950.00,0.0040
3949.00,0.0040
3948.00,0.0040
3947.00,0.0040
3946.00,0.0040
3945.00,0.0040
3944.00,0.0040
3943.00,0.0040
3942.00,0.0040
3941.00,0.0040
3940.00,0.0040
3939.00,0.0040
3938.00,0.0040
3937.00,0.0041
3936.00,0.0041
3935.00,0.0040
3934.00,0.0040
3933.00,0.0040
3932.00,0.0040
3931.00,0.0040
3930.00,0.0040
3929.00,0.0040
3928.00,0.0040
3927.00,0.0040
3926.00,0.0040
3925.00,0.0041
3924.00,0.0041
3923.00,0.0040
3922.00,0.0040
3921.00,0.0040
3920.00,0.0040
3919.00,0.0040
3918.00,0.0040
3917.00,0.0040
3916.00,0.0040
3915.00,0.0040
3914.00,0.0040
3913.00,0.0040
3912.00,0.0041
3911.00,0.0041
3910.00,0.0041
3909.00,0.0040
3908.00,0.0040
3907.00,0.0040
3906.00,0.0040
3905.00,0.0040
3904.00,0.0040
3903.00,0.0040
3902.00,0.0040
3901.00,0.0039
3900.00,0.0039
3899.00,0.0039
3898.00,0.0039
3897.00,0.0040
3896.00,0.0040
3895.00,0.0040
3894.00,0.0040
3893.00,0.0040
3892.00,0.0040
3891.00,0.0041
3890.00,0.0041
3889.00,0.0041
3888.00,0.0041
3887.00,0.0040
3886.00,0.0040
3885.00,0.0040
3884.00,0.0040
3883.00,0.0040
3882.00,0.0039
3881.00,0.0039
3880.00,0.0039
3879.00,0.0040
3878.00,0.0040
3877.00,0.0040
3876.00,0.0040
3875.00,0.0040
3874.00,0.0041
3873.00,0.0041
3872.00,0.0041
3871.00,0.0040
3870.00,0.0040
3869.00,0.0040
3868.00,0.0040
3867.00,0.0039
3866.00,0.0039
3865.00,0.0039
3864.00,0.0039
3863.00,0.0039
3862.00,0.0040
3861.00,0.0040
3860.00,0.0040
3859.00,0.0040
3858.00,0.0041
3857.00,0.0041
3856.00,0.0040
3855.00,0.0040
3854.00,0.0040
3853.00,0.0040
3852.00,0.0040
3851.00,0.0039
3850.00,0.0039
3849.00,0.0040
3848.00,0.0040
3847.00,0.0040
3846.00,0.0041
3845.00,0.0040
3844.00,0.0040
3843.00,0.0040
3842.00,0.0040
3841.00,0.0040
3840.00,0.0040
3839.00,0.0041
3838.00,0.0041
3837.00,0.0041
3836.00,0.0041
3835.00,0.0041
3834.00,0.0040
3833.00,0.0040
3832.00,0.0040
3831.00,0.0041
3830.00,0.0041
3829.00,0.0040
3828.00,0.0040
3827.00,0.0040
3826.00,0.0041
3825.00,0.0041
3824.00,0.0041
3823.00,0.0040
3822.00,0.0040
3821.00,0.0041
3820.00,0.0041
3819.00,0.0041
3818.00,0.0040
3817.00,0.0040
3816.00,0.0040
3815.00,0.0041
3814.00,0.0040
3813.00,0.0040
3812.00,0.0040
3811.00,0.0040
3810.00,0.0040
3809.00,0.0041
3808.00,0.0041
3807.00,0.0041
3806.00,0.0041
3805.00,0.0041
3804.00,0.0041
3803.00,0.0041
3802.00,0.0041
3801.00,0.0041
3800.00,0.0041
3799.00,0.0041
3798.00,0.0040
3797.00,0.0040
3796.00,0.0041
3795.00,0.0041
3794.00,0.0041
3793.00,0.0040
3792.00,0.0041
3791.00,0.0041
3790.00,0.0041
3789.00,0.0041
3788.00,0.0041
3787.00,0.0041
3786.00,0.0040
3785.00,0.0040
3784.00,0.0040
3783.00,0.0040
3782.00,0.0040
3781.00,0.0040
3780.00,0.0041
3779.00,0.0041
3778.00,0.0041
3777.00,0.0040
3776.00,0.0040
3775.00,0.0041
3774.00,0.0041
3773.00,0.0041
3772.00,0.0040
3771.00,0.0039
3770.00,0.0039
3769.00,0.0040
3768.00,0.0040
3767.00,0.0040
3766.00,0.0040
3765.00,0.0040
3764.00,0.0041
3763.00,0.0041
3762.00,0.0041
3761.00,0.0041
3760.00,0.0041
3759.00,0.0041
3758.00,0.0041
3757.00,0.0041
3756.00,0.0041
3755.00,0.0041
3754.00,0.0041
3753.00,0.0041
3752.00,0.0041
3751.00,0.0041
3750.00,0.0041
3749.00,0.0041
3748.00,0.0041
3747.00,0.0040
3746.00,0.0040
3745.00,0.0040
3744.00,0.0040
3743.00,0.0040
3742.00,0.0039
3741.00,0.0039
3740.00,0.0039
3739.00,0.0039
3738.00,0.0039
3737.00,0.0039
3736.00,0.0039
3735.00,0.0039
3734.00,0.0039
3733.00,0.0039
3732.00,0.0039
3731.00,0.0040
3730.00,0.0040
3729.00,0.0040
3728.00,0.0040
3727.00,0.0040
3726.00,0.0040
3725.00,0.0040
3724.00,0.0040
3723.00,0.0040
3722.00,0.0040
3721.00,0.0040
3720.00,0.0040
3719.00,0.0040
3718.00,0.0040
3717.00,0.0040
3716.00,0.0041
3715.00,0.0041
3714.00,0.0041
3713.00,0.0040
3712.00,0.0040
3711.00,0.0040
3710.00,0.0040
3709.00,0.0039
3708.00,0.0039
3707.00,0.0039
3706.00,0.0039
3705.00,0.0039
3704.00,0.0039
3703.00,0.0039
3702.00,0.0039
3701.00,0.0038
3700.00,0.0038
3699.00,0.0038
3698.00,0.0038
3697.00,0.0038
3696.00,0.0038
3695.00,0.0038
3694.00,0.0038
3693.00,0.0038
3692.00,0.0038
3691.00,0.0038
3690.00,0.0038
3689.00,0.0039
3688.00,0.0039
3687.00,0.0039
3686.00,0.0039
3685.00,0.0038
3684.00,0.0038
3683.00,0.0039
3682.00,0.0039
3681.00,0.0039
3680.00,0.0039
3679.00,0.0039
3678.00,0.0039
3677.00,0.0039
3676.00,0.0039
3675.00,0.0039
3674.00,0.0039
3673.00,0.0039
3672.00,0.0038
3671.00,0.0037
3670.00,0.0037
3669.00,0.0037
3668.00,0.0037
3667.00,0.0037
3666.00,0.0037
3665.00,0.0037
3664.00,0.0037
3663.00,0.0038
3662.00,0.0038
3661.00,0.0038
3660.00,0.0039
3659.00,0.0039
3658.00,0.0038
3657.00,0.0038
3656.00,0.0038
3655.00,0.0039
3654.00,0.0039
3653.00,0.0038
3652.00,0.0038
3651.00,0.0039
3650.00,0.0039
3649.00,0.0039
3648.00,0.0038
3647.00,0.0038
3646.00,0.0038
3645.00,0.0038
3644.00,0.0038
3643.00,0.0038
3642.00,0.0038
3641.00,0.0038
3640.00,0.0038
3639.00,0.0038
3638.00,0.0038
3637.00,0.0038
3636.00,0.0038
3635.00,0.0039
3634.00,0.0039
3633.00,0.0039
3632.00,0.0039
3631.00,0.0038
3630.00,0.0038
3629.00,0.0039
3628.00,0.0039
3627.00,0.0039
3626.00,0.0039
3625.00,0.0039
3624.00,0.0040
3623.00,0.0040
3622.00,0.0040
3621.00,0.0039
3620.00,0.0038
3619.00,0.0038
3618.00,0.0037
3617.00,0.0037
3616.00,0.0037
3615.00,0.0038
3614.00,0.0038
3613.00,0.0038
3612.00,0.0038
3611.00,0.0038
3610.00,0.0038
3609.00,0.0038
3608.00,0.0038
3607.00,0.0038
3606.00,0.0038
3605.00,0.0038
3604.00,0.0039
3603.00,0.0039
3602.00,0.0039
3601.00,0.0040
3600.00,0.0040
3599.00,0.0039
3598.00,0.0039
3597.00,0.0039
3596.00,0.0039
3595.00,0.0039
3594.00,0.0039
3593.00,0.0039
3592.00,0.0039
3591.00,0.0040
3590.00,0.0040
3589.00,0.0039
3588.00,0.0039
3587.00,0.0039
3586.00,0.0039
3585.00,0.0039
3584.00,0.0039
3583.00,0.0039
3582.00,0.0040
3581.00,0.0040
3580.00,0.0040
3579.00,0.0040
3578.00,0.0040
3577.00,0.0040
3576.00,0.0040
3575.00,0.0040
3574.00,0.0041
3573.00,0.0041
3572.00,0.0041
3571.00,0.0041
3570.00,0.0041
3569.00,0.0040
3568.00,0.0040
3567.00,0.0040
3566.00,0.0040
3565.00,0.0040
3564.00,0.0040
3563.00,0.0040
3562.00,0.0040
3561.00,0.0040
3560.00,0.0041
3559.00,0.0041
3558.00,0.0041
3557.00,0.0042
3556.00,0.0042
3555.00,0.0042
3554.00,0.0042
3553.00,0.0042
3552.00,0.0042
3551.00,0.0042
3550.00,0.0042
3549.00,0.0042
3548.00,0.0042
3547.00,0.0041
3546.00,0.0041
3545.00,0.0041
3544.00,0.0042
3543.00,0.0042
3542.00,0.0042
3541.00,0.0042
3540.00,0.0043
3539.00,0.0043
3538.00,0.0043
3537.00,0.0042
3536.00,0.0042
3535.00,0.0042
3534.00,0.0042
3533.00,0.0042
3532.00,0.0042
3531.00,0.0042
3530.00,0.0042
3529.00,0.0042
3528.00,0.0042
3527.00,0.0042
3526.00,0.0042
3525.00,0.0042
3524.00,0.0042
3523.00,0.0042
3522.00,0.0042
3521.00,0.0042
3520.00,0.0042
3519.00,0.0042
3518.00,0.0042
3517.00,0.0042
3516.00,0.0042
3515.00,0.0042
3514.00,0.0042
3513.00,0.0042
3512.00,0.0042
3511.00,0.0042
3510.00,0.0042
3509.00,0.0042
3508.00,0.0042
3507.00,0.0042
3506.00,0.0042
3505.00,0.0042
3504.00,0.0042
3503.00,0.0041
3502.00,0.0041
3501.00,0.0041
3500.00,0.0041
3499.00,0.0041
3498.00,0.0042
3497.00,0.0042
3496.00,0.0042
3495.00,0.0042
3494.00,0.0042
3493.00,0.0042
3492.00,0.0042
3491.00,0.0042
3490.00,0.0042
3489.00,0.0042
3488.00,0.0042
3487.00,0.0042
3486.00,0.0042
3485.00,0.0042
3484.00,0.0042
3483.00,0.0042
3482.00,0.0042
3481.00,0.0042
3480.00,0.0042
3479.00,0.0042
3478.00,0.0041
3477.00,0.0041
3476.00,0.0041
3475.00,0.0041
3474.00,0.0041
3473.00,0.0041
3472.00,0.0041
3471.00,0.0041
3470.00,0.0041
3469.00,0.0041
3468.00,0.0041
3467.00,0.0041
3466.00,0.0041
3465.00,0.0041
3464.00,0.0041
3463.00,0.0041
3462.00,0.0041
3461.00,0.0041
3460.00,0.0041
3459.00,0.0041
3458.00,0.0041
3457.00,0.0041
3456.00,0.0041
3455.00,0.0041
3454.00,0.0041
3453.00,0.0042
3452.00,0.0042
3451.00,0.0042
3450.00,0.0042
3449.00,0.0042
3448.00,0.0042
3447.00,0.0042
3446.00,0.0043
3445.00,0.0043
3444.00,0.0043
3443.00,0.0043
3442.00,0.0043
3441.00,0.0043
3440.00,0.0043
3439.00,0.0043
3438.00,0.0044
3437.00,0.0044
3436.00,0.0044
3435.00,0.0044
3434.00,0.0044
3433.00,0.0045
3432.00,0.0045
3431.00,0.0046
3430.00,0.0047
3429.00,0.0047
3428.00,0.0047
3427.00,0.0047
3426.00,0.0048
3425.00,0.0048
3424.00,0.0048
3423.00,0.0048
3422.00,0.0049
3421.00,0.0049
3420.00,0.0049
3419.00,0.0050
3418.00,0.0050
3417.00,0.0050
3416.00,0.0050
3415.00,0.0050
3414.00,0.0050
3413.00,0.0051
3412.00,0.0051
3411.00,0.0051
3410.00,0.0051
3409.00,0.0051
3408.00,0.0051
3407.00,0.0052
3406.00,0.0052
3405.00,0.0053
3404.00,0.0053
3403.00,0.0053
3402.00,0.0053
3401.00,0.0053
3400.00,0.0053
3399.00,0.0053
3398.00,0.0053
3397.00,0.0054
3396.00,0.0054
3395.00,0.0055
3394.00,0.0055
3393.00,0.0056
3392.00,0.0057
3391.00,0.0057
3390.00,0.0058
3389.00,0.0059
3388.00,0.0059
3387.00,0.0060
3386.00,0.0061
3385.00,0.0062
3384.00,0.0063
3383.00,0.0064
3382.00,0.0065
3381.00,0.0066
3380.00,0.0068
3379.00,0.0069
3378.00,0.0071
3377.00,0.0072
3376.00,0.0074
3375.00,0.0076
3374.00,0.0077
3373.00,0.0078
3372.00,0.0080
3371.00,0.0081
3370.00,0.0082
3369.00,0.0084
3368.00,0.0085
3367.00,0.0087
3366.00,0.0089
3365.00,0.0090
3364.00,0.0092
3363.00,0.0094
3362.00,0.0095
3361.00,0.0097
3360.00,0.0098
3359.00,0.0100
3358.00,0.0102
3357.00,0.0103
3356.00,0.0105
3355.00,0.0106
3354.00,0.0108
3353.00,0.0110
3352.00,0.0111
3351.00,0.0113
3350.00,0.0114
3349.00,0.0116
3348.00,0.0117
3347.00,0.0119
3346.00,0.0120
3345.00,0.0121
3344.00,0.0121
3343.00,0.0122
3342.00,0.0123
3341.00,0.0123
3340.00,0.0124
3339.00,0.0125
3338.00,0.0126
3337.00,0.0126
3336.00,0.0126
3335.00,0.0126
3334.00,0.0126
3333.00,0.0126
3332.00,0.0126
3331.00,0.0125
3330.00,0.0125
3329.00,0.0125
3328.00,0.0124
3327.00,0.0124
3326.00,0.0123
3325.00,0.0122
3324.00,0.0122
3323.00,0.0121
3322.00,0.0120
3321.00,0.0120
3320.00,0.0119
3319.00,0.0118
3318.00,0.0117
3317.00,0.0116
3316.00,0.0115
3315.00,0.0114
3314.00,0.0113
3313.00,0.0112
3312.00,0.0111
3311.00,0.0110
3310.00,0.0109
3309.00,0.0107
3308.00,0.0106
3307.00,0.0105
3306.00,0.0103
3305.00,0.0102
3304.00,0.0101
3303.00,0.0099
3302.00,0.0098
3301.00,0.0096
3300.00,0.0095
3299.00,0.0094
3298.00,0.0093
3297.00,0.0092
3296.00,0.0091
3295.00,0.0090
3294.00,0.0088
3293.00,0.0087
3292.00,0.0086
3291.00,0.0085
3290.00,0.0084
3289.00,0.0083
3288.00,0.0082
3287.00,0.0081
3286.00,0.0080
3285.00,0.0079
3284.00,0.0078
3283.00,0.0077
3282.00,0.0076
3281.00,0.0075
3280.00,0.0075
3279.00,0.0074
3278.00,0.0074
3277.00,0.0073
3276.00,0.0073
3275.00,0.0072
3274.00,0.0071
3273.00,0.0071
3272.00,0.0070
3271.00,0.0070
3270.00,0.0069
3269.00,0.0069
3268.00,0.0068
3267.00,0.0068
3266.00,0.0068
3265.00,0.0068
3264.00,0.0067
3263.00,0.0067
3262.00,0.0067
3261.00,0.0067
3260.00,0.0066
3259.00,0.0066
3258.00,0.0066
3257.00,0.0066
3256.00,0.0066
3255.00,0.0066
3254.00,0.0066
3253.00,0.0066
3252.00,0.0066
3251.00,0.0066
3250.00,0.0066
3249.00,0.0066
3248.00,0.0066
3247.00,0.0066
3246.00,0.0066
3245.00,0.0066
3244.00,0.0066
3243.00,0.0066
3242.00,0.0065
3241.00,0.0065
3240.00,0.0065
3239.00,0.0065
3238.00,0.0065
3237.00,0.0065
3236.00,0.0064
3235.00,0.0064
3234.00,0.0064
3233.00,0.0063
3232.00,0.0063
3231.00,0.0062
3230.00,0.0062
3229.00,0.0062
3228.00,0.0062
3227.00,0.0062
3226.00,0.0061
3225.00,0.0061
3224.00,0.0061
3223.00,0.0060
3222.00,0.0060
3221.00,0.0059
3220.00,0.0059
3219.00,0.0058
3218.00,0.0058
3217.00,0.0058
3216.00,0.0057
3215.00,0.0057
3214.00,0.0056
3213.00,0.0056
3212.00,0.0056
3211.00,0.0055
3210.00,0.0055
3209.00,0.0055
3208.00,0.0054
3207.00,0.0054
3206.00,0.0053
3205.00,0.0052
3204.00,0.0052
3203.00,0.0052
3202.00,0.0052
3201.00,0.0052
3200.00,0.0052
3199.00,0.0051
3198.00,0.0051
3197.00,0.0051
3196.00,0.0051
3195.00,0.0051
3194.00,0.0051
3193.00,0.0051
3192.00,0.0051
3191.00,0.0051
3190.00,0.0050
3189.00,0.0050
3188.00,0.0049
3187.00,0.0049
3186.00,0.0049
3185.00,0.0049
3184.00,0.0049
3183.00,0.0050
3182.00,0.0049
3181.00,0.0049
3180.00,0.0049
3179.00,0.0048
3178.00,0.0048
3177.00,0.0048
3176.00,0.0048
3175.00,0.0048
3174.00,0.0048
3173.00,0.0048
3172.00,0.0048
3171.00,0.0047
3170.00,0.0047
3169.00,0.0047
3168.00,0.0047
3167.00,0.0048
3166.00,0.0048
3165.00,0.0048
3164.00,0.0048
3163.00,0.0047
3162.00,0.0047
3161.00,0.0047
3160.00,0.0047
3159.00,0.0047
3158.00,0.0047
3157.00,0.0047
3156.00,0.0047
3155.00,0.0047
3154.00,0.0047
3153.00,0.0047
3152.00,0.0047
3151.00,0.0047
3150.00,0.0047
3149.00,0.0047
3148.00,0.0047
3147.00,0.0047
3146.00,0.0047
3145.00,0.0047
3144.00,0.0047
3143.00,0.0047
3142.00,0.0047
3141.00,0.0048
3140.00,0.0048
3139.00,0.0048
3138.00,0.0048
3137.00,0.0048
3136.00,0.0048
3135.00,0.0048
3134.00,0.0048
3133.00,0.0049
3132.00,0.0049
3131.00,0.0049
3130.00,0.0049
3129.00,0.0049
3128.00,0.0049
3127.00,0.0049
3126.00,0.0049
3125.00,0.0050
3124.00,0.0050
3123.00,0.0050
3122.00,0.0051
3121.00,0.0051
3120.00,0.0052
3119.00,0.0052
3118.00,0.0052
3117.00,0.0052
3116.00,0.0053
3115.00,0.0053
3114.00,0.0054
3113.00,0.0054
3112.00,0.0055
3111.00,0.0055
3110.00,0.0055
3109.00,0.0056
3108.00,0.0056
3107.00,0.0056
3106.00,0.0056
3105.00,0.0056
3104.00,0.0056
3103.00,0.0056
3102.00,0.0056
3101.00,0.0056
3100.00,0.0056
3099.00,0.0056
3098.00,0.0056
3097.00,0.0056
3096.00,0.0056
3095.00,0.0056
3094.00,0.0056
3093.00,0.0055
3092.00,0.0055
3091.00,0.0055
3090.00,0.0055
3089.00,0.0055
3088.00,0.0054
3087.00,0.0054
3086.00,0.0054
3085.00,0.0054
3084.00,0.0053
3083.00,0.0053
3082.00,0.0052
3081.00,0.0052
3080.00,0.0052
3079.00,0.0052
3078.00,0.0052
3077.00,0.0051
3076.00,0.0051
3075.00,0.0051
3074.00,0.0051
3073.00,0.0051
3072.00,0.0051
3071.00,0.0051
3070.00,0.0051
3069.00,0.0051
3068.00,0.0051
3067.00,0.0051
3066.00,0.0051
3065.00,0.0051
3064.00,0.0050
3063.00,0.0050
3062.00,0.0050
3061.00,0.0050
3060.00,0.0050
3059.00,0.0050
3058.00,0.0050
3057.00,0.0050
3056.00,0.0050
3055.00,0.0050
3054.00,0.0049
3053.00,0.0049
3052.00,0.0049
3051.00,0.0048
3050.00,0.0048
3049.00,0.0048
3048.00,0.0047
3047.00,0.0047
3046.00,0.0047
3045.00,0.0047
3044.00,0.0047
3043.00,0.0047
3042.00,0.0047
3041.00,0.0047
3040.00,0.0047
3039.00,0.0047
3038.00,0.0047
3037.00,0.0047
3036.00,0.0047
3035.00,0.0047
3034.00,0.0047
3033.00,0.0047
3032.00,0.0047
3031.00,0.0048
3030.00,0.0048
3029.00,0.0049
3028.00,0.0049
3027.00,0.0049
3026.00,0.0049
3025.00,0.0049
3024.00,0.0049
3023.00,0.0050
3022.00,0.0050
3021.00,0.0050
3020.00,0.0050
3019.00,0.0051
3018.00,0.0051
3017.00,0.0052
3016.00,0.0052
3015.00,0.0053
3014.00,0.0053
3013.00,0.0053
3012.00,0.0053
3011.00,0.0053
3010.00,0.0053
3009.00,0.0054
3008.00,0.0054
3007.00,0.0054
3006.00,0.0055
3005.00,0.0056
3004.00,0.0056
3003.00,0.0057
3002.00,0.0058
3001.00,0.0059
3000.00,0.0061
2999.00,0.0062
2998.00,0.0063
2997.00,0.0064
2996.00,0.0065
2995.00,0.0066
2994.00,0.0068
2993.00,0.0069
2992.00,0.0070
2991.00,0.0071
2990.00,0.0072
2989.00,0.0073
2988.00,0.0074
2987.00,0.0074
2986.00,0.0075
2985.00,0.0075
2984.00,0.0074
2983.00,0.0074
2982.00,0.0073
2981.00,0.0073
2980.00,0.0074
2979.00,0.0074
2978.00,0.0075
2977.00,0.0075
2976.00,0.0074
2975.00,0.0073
2974.00,0.0072
2973.00,0.0070
2972.00,0.0068
2971.00,0.0067
2970.00,0.0066
2969.00,0.0065
2968.00,0.0065
2967.00,0.0064
2966.00,0.0064
2965.00,0.0063
2964.00,0.0063
2963.00,0.0063
2962.00,0.0063
2961.00,0.0064
2960.00,0.0064
2959.00,0.0065
2958.00,0.0066
2957.00,0.0068
2956.00,0.0069
2955.00,0.0070
2954.00,0.0072
2953.00,0.0073
2952.00,0.0075
2951.00,0.0076
2950.00,0.0077
2949.00,0.0078
2948.00,0.0079
2947.00,0.0079
2946.00,0.0079
2945.00,0.0078
2944.00,0.0078
2943.00,0.0077
2942.00,0.0076
2941.00,0.0075
2940.00,0.0074
2939.00,0.0073
2938.00,0.0071
2937.00,0.0071
2936.00,0.0070
2935.00,0.0069
2934.00,0.0069
2933.00,0.0068
2932.00,0.0068
2931.00,0.0067
2930.00,0.0067
2929.00,0.0066
2928.00,0.0066
2927.00,0.0065
2926.00,0.0064
2925.00,0.0063
2924.00,0.0063
2923.00,0.0062
2922.00,0.0062
2921.00,0.0061
2920.00,0.0061
2919.00,0.0060
2918.00,0.0060
2917.00,0.0060
2916.00,0.0059
2915.00,0.0059
2914.00,0.0059
2913.00,0.0059
2912.00,0.0058
2911.00,0.0058
2910.00,0.0058
2909.00,0.0058
2908.00,0.0059
2907.00,0.0059
2906.00,0.0059
2905.00,0.0060
2904.00,0.0060
2903.00,0.0059
2902.00,0.0059
2901.00,0.0059
2900.00,0.0059
2899.00,0.0058
2898.00,0.0058
2897.00,0.0058
2896.00,0.0057
2895.00,0.0056
2894.00,0.0055
2893.00,0.0055
2892.00,0.0054
2891.00,0.0053
2890.00,0.0053
2889.00,0.0052
2888.00,0.0052
2887.00,0.0052
2886.00,0.0052
2885.00,0.0051
2884.00,0.0051
2883.00,0.0051
2882.00,0.0051
2881.00,0.0051
2880.00,0.0051
2879.00,0.0051
2878.00,0.0051
2877.00,0.0051
2876.00,0.0051
2875.00,0.0051
2874.00,0.0051
2873.00,0.0051
2872.00,0.0051
2871.00,0.0050
2870.00,0.0050
2869.00,0.0050
2868.00,0.0050
2867.00,0.0050
2866.00,0.0050
2865.00,0.0050
2864.00,0.0050
2863.00,0.0050
2862.00,0.0049
2861.00,0.0049
2860.00,0.0049
2859.00,0.0049
2858.00,0.0048
2857.00,0.0048
2856.00,0.0048
2855.00,0.0049
2854.00,0.0049
2853.00,0.0050
2852.00,0.0050
2851.00,0.0050
2850.00,0.0050
2849.00,0.0051
2848.00,0.0051
2847.00,0.0051
2846.00,0.0051
2845.00,0.0051
2844.00,0.0051
2843.00,0.0051
2842.00,0.0051
2841.00,0.0052
2840.00,0.0052
2839.00,0.0052
2838.00,0.0052
2837.00,0.0051
2836.00,0.0051
2835.00,0.0050
2834.00,0.0050
2833.00,0.0050
2832.00,0.0049
2831.00,0.0049
2830.00,0.0049
2829.00,0.0048
2828.00,0.0048
2827.00,0.0048
2826.00,0.0048
2825.00,0.0048
2824.00,0.0048
2823.00,0.0048
2822.00,0.0047
2821.00,0.0047
2820.00,0.0048
2819.00,0.0048
2818.00,0.0048
2817.00,0.0048
2816.00,0.0048
2815.00,0.0048
2814.00,0.0048
2813.00,0.0048
2812.00,0.0048
2811.00,0.0048
2810.00,0.0048
2809.00,0.0048
2808.00,0.0048
2807.00,0.0048
2806.00,0.0048
2805.00,0.0048
2804.00,0.0048
2803.00,0.0048
2802.00,0.0048
2801.00,0.0048
2800.00,0.0048
2799.00,0.0048
2798.00,0.0048
2797.00,0.0047
2796.00,0.0047
2795.00,0.0047
2794.00,0.0047
2793.00,0.0047
2792.00,0.0046
2791.00,0.0046
2790.00,0.0046
2789.00,0.0046
2788.00,0.0046
2787.00,0.0045
2786.00,0.0045
2785.00,0.0045
2784.00,0.0045
2783.00,0.0045
2782.00,0.0045
2781.00,0.0045
2780.00,0.0045
2779.00,0.0044
2778.00,0.0044
2777.00,0.0044
2776.00,0.0044
2775.00,0.0044
2774.00,0.0044
2773.00,0.0044
2772.00,0.0044
2771.00,0.0044
2770.00,0.0044
2769.00,0.0044
2768.00,0.0044
2767.00,0.0044
2766.00,0.0044
2765.00,0.0044
2764.00,0.0044
2763.00,0.0044
2762.00,0.0044
2761.00,0.0044
2760.00,0.0044
2759.00,0.0044
2758.00,0.0044
2757.00,0.0044
