Created as New Dataset,Sample 1035 By YargerLab Date Monday, August 04 2025
cm-1,A
4000.00,-0.0002
3999.00,-0.0001
3998.00,-0.0001
3997.00,-0.0001
3996.00,-0.0001
3995.00,-0.0001
3994.00,-0.0001
3993.00,-0.0002
3992.00,-0.0001
3991.00,-0.0001
3990.00,-0.0001
3989.00,-0.0001
3988.00,-0.0001
3987.00,-0.0001
3986.00,-0.0002
3985.00,-0.0002
3984.00,-0.0002
3983.00,-0.0002
3982.00,-0.0002
3981.00,-0.0002
3980.00,-0.0002
3979.00,-0.0002
3978.00,-0.0002
3977.00,-0.0002
3976.00,-0.0002
3975.00,-0.0002
3974.00,-0.0001
3973.00,-0.0001
3972.00,-0.0001
3971.00,-0.0002
3970.00,-0.0002
3969.00,-0.0002
3968.00,-0.0002
3967.00,-0.0002
3966.00,-0.0002
3965.00,-0.0002
3964.00,-0.0002
3963.00,-0.0002
3962.00,-0.0002
3961.00,-0.0002
3960.00,-0.0002
3959.00,-0.0002
3958.00,-0.0002
3957.00,-0.0002
3956.00,-0.0002
3955.00,-0.0002
3954.00,-0.0002
3953.00,-0.0002
3952.00,-0.0002
3951.00,-0.0002
3950.00,-0.0002
3949.00,-0.0002
3948.00,-0.0002
3947.00,-0.0002
3946.00,-0.0002
3945.00,-0.0002
3944.00,-0.0002
3943.00,-0.0002
3942.00,-0.0002
3941.00,-0.0002
3940.00,-0.0002
3939.00,-0.0002
3938.00,-0.0002
3937.00,-0.0001
3936.00,-0.0001
3935.00,-0.0002
3934.00,-0.0002
3933.00,-0.0002
3932.00,-0.0002
3931.00,-0.0002
3930.00,-0.0002
3929.00,-0.0002
3928.00,-0.0002
3927.00,-0.0002
3926.00,-0.0002
3925.00,-0.0002
3924.00,-0.0002
3923.00,-0.0002
3922.00,-0.0002
3921.00,-0.0002
3920.00,-0.0002
3919.00,-0.0002
3918.00,-0.0002
3917.00,-0.0002
3916.00,-0.0002
3915.00,-0.0002
3914.00,-0.0002
3913.00,-0.0002
3912.00,-0.0002
3911.00,-0.0002
3910.00,-0.0002
3909.00,-0.0002
3908.00,-0.0002
3907.00,-0.0002
3906.00,-0.0002
3905.00,-0.0003
3904.00,-0.0003
3903.00,-0.0003
3902.00,-0.0004
3901.00,-0.0004
3900.00,-0.0004
3899.00,-0.0003
3898.00,-0.0003
3897.00,-0.0003
3896.00,-0.0003
3895.00,-0.0003
3894.00,-0.0003
3893.00,-0.0003
3892.00,-0.0003
3891.00,-0.0003
3890.00,-0.0003
3889.00,-0.0003
3888.00,-0.0003
3887.00,-0.0003
3886.00,-0.0003
3885.00,-0.0003
3884.00,-0.0003
3883.00,-0.0003
3882.00,-0.0003
3881.00,-0.0003
3880.00,-0.0002
3879.00,-0.0002
3878.00,-0.0002
3877.00,-0.0002
3876.00,-0.0003
3875.00,-0.0003
3874.00,-0.0003
3873.00,-0.0003
3872.00,-0.0003
3871.00,-0.0003
3870.00,-0.0003
3869.00,-0.0003
3868.00,-0.0003
3867.00,-0.0004
3866.00,-0.0004
3865.00,-0.0003
3864.00,-0.0003
3863.00,-0.0003
3862.00,-0.0002
3861.00,-0.0002
3860.00,-0.0002
3859.00,-0.0002
3858.00,-0.0003
3857.00,-0.0003
3856.00,-0.0004
3855.00,-0.0004
3854.00,-0.0004
3853.00,-0.0004
3852.00,-0.0005
3851.00,-0.0005
3850.00,-0.0004
3849.00,-0.0003
3848.00,-0.0003
3847.00,-0.0002
3846.00,-0.0002
3845.00,-0.0002
3844.00,-0.0002
3843.00,-0.0002
3842.00,-0.0003
3841.00,-0.0003
3840.00,-0.0004
3839.00,-0.0004
3838.00,-0.0004
3837.00,-0.0003
3836.00,-0.0003
3835.00,-0.0003
3834.00,-0.0003
3833.00,-0.0002
3832.00,-0.0002
3831.00,-0.0002
3830.00,-0.0002
3829.00,-0.0002
3828.00,-0.0002
3827.00,-0.0002
3826.00,-0.0002
3825.00,-0.0002
3824.00,-0.0003
3823.00,-0.0003
3822.00,-0.0003
3821.00,-0.0003
3820.00,-0.0003
3819.00,-0.0004
3818.00,-0.0004
3817.00,-0.0004
3816.00,-0.0003
3815.00,-0.0003
3814.00,-0.0003
3813.00,-0.0002
3812.00,-0.0002
3811.00,-0.0002
3810.00,-0.0002
3809.00,-0.0002
3808.00,-0.0002
3807.00,-0.0002
3806.00,-0.0002
3805.00,-0.0003
3804.00,-0.0003
3803.00,-0.0003
3802.00,-0.0003
3801.00,-0.0002
3800.00,-0.0003
3799.00,-0.0003
3798.00,-0.0003
3797.00,-0.0003
3796.00,-0.0002
3795.00,-0.0002
3794.00,-0.0002
3793.00,-0.0001
3792.00,-0.0001
3791.00,-0.0001
3790.00,-0.0001
3789.00,-0.0001
3788.00,-0.0001
3787.00,-0.0001
3786.00,-0.0001
3785.00,-0.0001
3784.00,-0.0001
3783.00,-0.0001
3782.00,-0.0001
3781.00,-0.0000
3780.00,-0.0000
3779.00,-0.0000
3778.00,-0.0000
3777.00,-0.0000
3776.00,-0.0001
3775.00,-0.0001
3774.00,-0.0001
3773.00,-0.0001
3772.00,-0.0001
3771.00,-0.0001
3770.00,-0.0001
3769.00,-0.0001
3768.00,-0.0001
3767.00,-0.0002
3766.00,-0.0001
3765.00,-0.0001
3764.00,-0.0001
3763.00,-0.0001
3762.00,-0.0001
3761.00,-0.0001
3760.00,-0.0001
3759.00,-0.0001
3758.00,-0.0001
3757.00,-0.0001
3756.00,-0.0001
3755.00,-0.0002
3754.00,-0.0002
3753.00,-0.0002
3752.00,-0.0002
3751.00,-0.0003
3750.00,-0.0003
3749.00,-0.0003
3748.00,-0.0003
3747.00,-0.0004
3746.00,-0.0004
3745.00,-0.0003
3744.00,-0.0003
3743.00,-0.0003
3742.00,-0.0003
3741.00,-0.0003
3740.00,-0.0003
3739.00,-0.0003
3738.00,-0.0003
3737.00,-0.0003
3736.00,-0.0003
3735.00,-0.0004
3734.00,-0.0004
3733.00,-0.0004
3732.00,-0.0004
3731.00,-0.0003
3730.00,-0.0003
3729.00,-0.0002
3728.00,-0.0002
3727.00,-0.0002
3726.00,-0.0001
3725.00,-0.0001
3724.00,-0.0001
3723.00,-0.0001
3722.00,-0.0001
3721.00,-0.0002
3720.00,-0.0002
3719.00,-0.0002
3718.00,-0.0002
3717.00,-0.0001
3716.00,-0.0001
3715.00,-0.0001
3714.00,-0.0002
3713.00,-0.0002
3712.00,-0.0002
3711.00,-0.0002
3710.00,-0.0002
3709.00,-0.0002
3708.00,-0.0002
3707.00,-0.0001
3706.00,-0.0001
3705.00,-0.0001
3704.00,-0.0002
3703.00,-0.0002
3702.00,-0.0001
3701.00,-0.0001
3700.00,-0.0001
3699.00,-0.0001
3698.00,-0.0001
3697.00,-0.0001
3696.00,-0.0001
3695.00,-0.0001
3694.00,-0.0001
3693.00,-0.0001
3692.00,-0.0001
3691.00,-0.0001
3690.00,-0.0000
3689.00,-0.0000
3688.00,-0.0000
3687.00,-0.0000
3686.00,0.0000
3685.00,0.0000
3684.00,0.0001
3683.00,0.0001
3682.00,0.0002
3681.00,0.0002
3680.00,0.0003
3679.00,0.0003
3678.00,0.0002
3677.00,0.0002
3676.00,0.0002
3675.00,0.0001
3674.00,0.0001
3673.00,0.0001
3672.00,0.0001
3671.00,0.0001
3670.00,0.0002
3669.00,0.0002
3668.00,0.0003
3667.00,0.0004
3666.00,0.0004
3665.00,0.0005
3664.00,0.0005
3663.00,0.0006
3662.00,0.0006
3661.00,0.0007
3660.00,0.0007
3659.00,0.0007
3658.00,0.0007
3657.00,0.0007
3656.00,0.0007
3655.00,0.0007
3654.00,0.0007
3653.00,0.0006
3652.00,0.0007
3651.00,0.0007
3650.00,0.0007
3649.00,0.0007
3648.00,0.0007
3647.00,0.0007
3646.00,0.0008
3645.00,0.0008
3644.00,0.0009
3643.00,0.0010
3642.00,0.0010
3641.00,0.0011
3640.00,0.0011
3639.00,0.0012
3638.00,0.0012
3637.00,0.0012
3636.00,0.0013
3635.00,0.0013
3634.00,0.0013
3633.00,0.0013
3632.00,0.0013
3631.00,0.0013
3630.00,0.0014
3629.00,0.0014
3628.00,0.0014
3627.00,0.0014
3626.00,0.0015
3625.00,0.0016
3624.00,0.0016
3623.00,0.0017
3622.00,0.0017
3621.00,0.0018
3620.00,0.0018
3619.00,0.0018
3618.00,0.0019
3617.00,0.0019
3616.00,0.0019
3615.00,0.0020
3614.00,0.0020
3613.00,0.0021
3612.00,0.0021
3611.00,0.0022
3610.00,0.0022
3609.00,0.0023
3608.00,0.0024
3607.00,0.0025
3606.00,0.0025
3605.00,0.0026
3604.00,0.0026
3603.00,0.0027
3602.00,0.0028
3601.00,0.0028
3600.00,0.0029
3599.00,0.0030
3598.00,0.0030
3597.00,0.0031
3596.00,0.0032
3595.00,0.0032
3594.00,0.0033
3593.00,0.0033
3592.00,0.0034
3591.00,0.0034
3590.00,0.0034
3589.00,0.0035
3588.00,0.0035
3587.00,0.0036
3586.00,0.0036
3585.00,0.0037
3584.00,0.0038
3583.00,0.0039
3582.00,0.0041
3581.00,0.0042
3580.00,0.0042
3579.00,0.0043
3578.00,0.0043
3577.00,0.0044
3576.00,0.0045
3575.00,0.0045
3574.00,0.0046
3573.00,0.0047
3572.00,0.0048
3571.00,0.0048
3570.00,0.0049
3569.00,0.0049
3568.00,0.0049
3567.00,0.0050
3566.00,0.0050
3565.00,0.0051
3564.00,0.0052
3563.00,0.0053
3562.00,0.0054
3561.00,0.0055
3560.00,0.0056
3559.00,0.0057
3558.00,0.0058
3557.00,0.0059
3556.00,0.0059
3555.00,0.0060
3554.00,0.0060
3553.00,0.0061
3552.00,0.0061
3551.00,0.0062
3550.00,0.0062
3549.00,0.0063
3548.00,0.0063
3547.00,0.0064
3546.00,0.0065
3545.00,0.0065
3544.00,0.0066
3543.00,0.0067
3542.00,0.0068
3541.00,0.0068
3540.00,0.0069
3539.00,0.0069
3538.00,0.0070
3537.00,0.0070
3536.00,0.0071
3535.00,0.0071
3534.00,0.0072
3533.00,0.0072
3532.00,0.0073
3531.00,0.0073
3530.00,0.0074
3529.00,0.0074
3528.00,0.0074
3527.00,0.0075
3526.00,0.0075
3525.00,0.0076
3524.00,0.0076
3523.00,0.0077
3522.00,0.0077
3521.00,0.0078
3520.00,0.0078
3519.00,0.0078
3518.00,0.0079
3517.00,0.0079
3516.00,0.0080
3515.00,0.0080
3514.00,0.0080
3513.00,0.0081
3512.00,0.0081
3511.00,0.0081
3510.00,0.0082
3509.00,0.0082
3508.00,0.0082
3507.00,0.0083
3506.00,0.0083
3505.00,0.0083
3504.00,0.0084
3503.00,0.0084
3502.00,0.0084
3501.00,0.0084
3500.00,0.0085
3499.00,0.0085
3498.00,0.0085
3497.00,0.0086
3496.00,0.0086
3495.00,0.0087
3494.00,0.0087
3493.00,0.0088
3492.00,0.0088
3491.00,0.0088
3490.00,0.0088
3489.00,0.0088
3488.00,0.0088
3487.00,0.0089
3486.00,0.0089
3485.00,0.0089
3484.00,0.0089
3483.00,0.0090
3482.00,0.0090
3481.00,0.0090
3480.00,0.0091
3479.00,0.0091
3478.00,0.0091
3477.00,0.0092
3476.00,0.0092
3475.00,0.0092
3474.00,0.0092
3473.00,0.0092
3472.00,0.0093
3471.00,0.0093
3470.00,0.0093
3469.00,0.0093
3468.00,0.0094
3467.00,0.0094
3466.00,0.0094
3465.00,0.0094
3464.00,0.0094
3463.00,0.0094
3462.00,0.0094
3461.00,0.0094
3460.00,0.0095
3459.00,0.0095
3458.00,0.0096
3457.00,0.0096
3456.00,0.0096
3455.00,0.0096
3454.00,0.0096
3453.00,0.0096
3452.00,0.0096
3451.00,0.0096
3450.00,0.0096
3449.00,0.0096
3448.00,0.0096
3447.00,0.0096
3446.00,0.0096
3445.00,0.0096
3444.00,0.0096
3443.00,0.0096
3442.00,0.0096
3441.00,0.0096
3440.00,0.0097
3439.00,0.0097
3438.00,0.0097
3437.00,0.0097
3436.00,0.0097
3435.00,0.0097
3434.00,0.0097
3433.00,0.0097
3432.00,0.0097
3431.00,0.0097
3430.00,0.0097
3429.00,0.0097
3428.00,0.0097
3427.00,0.0097
3426.00,0.0097
3425.00,0.0097
3424.00,0.0097
3423.00,0.0097
3422.00,0.0097
3421.00,0.0097
3420.00,0.0098
3419.00,0.0098
3418.00,0.0098
3417.00,0.0097
3416.00,0.0097
3415.00,0.0097
3414.00,0.0097
3413.00,0.0097
3412.00,0.0097
3411.00,0.0097
3410.00,0.0097
3409.00,0.0097
3408.00,0.0097
3407.00,0.0097
3406.00,0.0097
3405.00,0.0097
3404.00,0.0097
3403.00,0.0096
3402.00,0.0096
3401.00,0.0096
3400.00,0.0096
3399.00,0.0096
3398.00,0.0096
3397.00,0.0095
3396.00,0.0095
3395.00,0.0095
3394.00,0.0094
3393.00,0.0094
3392.00,0.0094
3391.00,0.0094
3390.00,0.0094
3389.00,0.0094
3388.00,0.0093
3387.00,0.0093
3386.00,0.0093
3385.00,0.0093
3384.00,0.0093
3383.00,0.0092
3382.00,0.0092
3381.00,0.0092
3380.00,0.0091
3379.00,0.0091
3378.00,0.0091
3377.00,0.0091
3376.00,0.0091
3375.00,0.0091
3374.00,0.0090
3373.00,0.0090
3372.00,0.0089
3371.00,0.0089
3370.00,0.0088
3369.00,0.0088
3368.00,0.0088
3367.00,0.0088
3366.00,0.0088
3365.00,0.0088
3364.00,0.0087
3363.00,0.0087
3362.00,0.0087
3361.00,0.0086
3360.00,0.0086
3359.00,0.0086
3358.00,0.0086
3357.00,0.0086
3356.00,0.0086
3355.00,0.0085
3354.00,0.0085
3353.00,0.0084
3352.00,0.0083
3351.00,0.0083
3350.00,0.0083
3349.00,0.0083
3348.00,0.0083
3347.00,0.0083
3346.00,0.0083
3345.00,0.0082
3344.00,0.0082
3343.00,0.0082
3342.00,0.0082
3341.00,0.0081
3340.00,0.0081
3339.00,0.0081
3338.00,0.0080
3337.00,0.0080
3336.00,0.0080
3335.00,0.0080
3334.00,0.0080
3333.00,0.0080
3332.00,0.0080
3331.00,0.0080
3330.00,0.0080
3329.00,0.0079
3328.00,0.0079
3327.00,0.0078
3326.00,0.0078
3325.00,0.0078
3324.00,0.0078
3323.00,0.0078
3322.00,0.0078
3321.00,0.0078
3320.00,0.0078
3319.00,0.0078
3318.00,0.0078
3317.00,0.0078
3316.00,0.0078
3315.00,0.0078
3314.00,0.0078
3313.00,0.0077
3312.00,0.0077
3311.00,0.0076
3310.00,0.0075
3309.00,0.0074
3308.00,0.0074
3307.00,0.0073
3306.00,0.0073
3305.00,0.0073
3304.00,0.0074
3303.00,0.0075
3302.00,0.0075
3301.00,0.0076
3300.00,0.0076
3299.00,0.0076
3298.00,0.0075
3297.00,0.0075
3296.00,0.0074
3295.00,0.0074
3294.00,0.0074
3293.00,0.0073
3292.00,0.0073
3291.00,0.0073
3290.00,0.0074
3289.00,0.0074
3288.00,0.0075
3287.00,0.0075
3286.00,0.0075
3285.00,0.0074
3284.00,0.0074
3283.00,0.0074
3282.00,0.0074
3281.00,0.0073
3280.00,0.0073
3279.00,0.0073
3278.00,0.0073
3277.00,0.0072
3276.00,0.0072
3275.00,0.0071
3274.00,0.0070
3273.00,0.0069
3272.00,0.0069
3271.00,0.0069
3270.00,0.0069
3269.00,0.0069
3268.00,0.0069
3267.00,0.0069
3266.00,0.0069
3265.00,0.0069
3264.00,0.0069
3263.00,0.0069
3262.00,0.0069
3261.00,0.0069
3260.00,0.0068
3259.00,0.0068
3258.00,0.0067
3257.00,0.0067
3256.00,0.0067
3255.00,0.0067
3254.00,0.0066
3253.00,0.0066
3252.00,0.0066
3251.00,0.0066
3250.00,0.0065
3249.00,0.0065
3248.00,0.0065
3247.00,0.0064
3246.00,0.0064
3245.00,0.0064
3244.00,0.0064
3243.00,0.0064
3242.00,0.0064
3241.00,0.0064
3240.00,0.0064
3239.00,0.0063
3238.00,0.0063
3237.00,0.0062
3236.00,0.0061
3235.00,0.0061
3234.00,0.0060
3233.00,0.0060
3232.00,0.0060
3231.00,0.0060
3230.00,0.0060
3229.00,0.0060
3228.00,0.0060
3227.00,0.0060
3226.00,0.0059
3225.00,0.0059
3224.00,0.0059
3223.00,0.0059
3222.00,0.0058
3221.00,0.0058
3220.00,0.0058
3219.00,0.0057
3218.00,0.0057
3217.00,0.0057
3216.00,0.0057
3215.00,0.0056
3214.00,0.0056
3213.00,0.0055
3212.00,0.0054
3211.00,0.0054
3210.00,0.0053
3209.00,0.0053
3208.00,0.0053
3207.00,0.0053
3206.00,0.0053
3205.00,0.0053
3204.00,0.0052
3203.00,0.0052
3202.00,0.0052
3201.00,0.0052
3200.00,0.0052
3199.00,0.0051
3198.00,0.0051
3197.00,0.0051
3196.00,0.0050
3195.00,0.0050
3194.00,0.0049
3193.00,0.0049
3192.00,0.0049
3191.00,0.0048
3190.00,0.0048
3189.00,0.0048
3188.00,0.0048
3187.00,0.0048
3186.00,0.0047
3185.00,0.0047
3184.00,0.0047
3183.00,0.0046
3182.00,0.0046
3181.00,0.0046
3180.00,0.0046
3179.00,0.0046
3178.00,0.0046
3177.00,0.0046
3176.00,0.0045
3175.00,0.0045
3174.00,0.0045
3173.00,0.0044
3172.00,0.0044
3171.00,0.0044
3170.00,0.0044
3169.00,0.0044
3168.00,0.0044
3167.00,0.0044
3166.00,0.0043
3165.00,0.0043
3164.00,0.0043
3163.00,0.0043
3162.00,0.0043
3161.00,0.0042
3160.00,0.0042
3159.00,0.0042
3158.00,0.0041
3157.00,0.0041
3156.00,0.0041
3155.00,0.0041
3154.00,0.0040
3153.00,0.0040
3152.00,0.0040
3151.00,0.0040
3150.00,0.0040
3149.00,0.0040
3148.00,0.0040
3147.00,0.0039
3146.00,0.0039
3145.00,0.0039
3144.00,0.0039
3143.00,0.0038
3142.00,0.0038
3141.00,0.0038
3140.00,0.0037
3139.00,0.0037
3138.00,0.0037
3137.00,0.0037
3136.00,0.0037
3135.00,0.0037
3134.00,0.0037
3133.00,0.0037
3132.00,0.0036
3131.00,0.0036
3130.00,0.0036
3129.00,0.0036
3128.00,0.0036
3127.00,0.0036
3126.00,0.0035
3125.00,0.0035
3124.00,0.0035
3123.00,0.0035
3122.00,0.0034
3121.00,0.0034
3120.00,0.0034
3119.00,0.0034
3118.00,0.0034
3117.00,0.0034
3116.00,0.0034
3115.00,0.0034
3114.00,0.0034
3113.00,0.0034
3112.00,0.0034
3111.00,0.0033
3110.00,0.0033
3109.00,0.0033
3108.00,0.0033
3107.00,0.0033
3106.00,0.0032
3105.00,0.0032
3104.00,0.0032
3103.00,0.0032
3102.00,0.0032
3101.00,0.0032
3100.00,0.0032
3099.00,0.0032
3098.00,0.0032
3097.00,0.0031
3096.00,0.0031
3095.00,0.0031
3094.00,0.0031
3093.00,0.0031
3092.00,0.0031
3091.00,0.0031
3090.00,0.0031
3089.00,0.0031
3088.00,0.0031
3087.00,0.0031
3086.00,0.0031
3085.00,0.0031
3084.00,0.0031
3083.00,0.0031
3082.00,0.0031
3081.00,0.0031
3080.00,0.0031
3079.00,0.0031
3078.00,0.0031
3077.00,0.0030
3076.00,0.0030
3075.00,0.0030
3074.00,0.0030
3073.00,0.0030
3072.00,0.0030
3071.00,0.0030
3070.00,0.0030
3069.00,0.0029
3068.00,0.0029
3067.00,0.0029
3066.00,0.0029
3065.00,0.0029
3064.00,0.0029
3063.00,0.0029
3062.00,0.0029
3061.00,0.0028
3060.00,0.0028
3059.00,0.0028
3058.00,0.0028
3057.00,0.0028
3056.00,0.0028
3055.00,0.0028
3054.00,0.0027
3053.00,0.0027
3052.00,0.0027
3051.00,0.0027
3050.00,0.0027
3049.00,0.0027
3048.00,0.0027
3047.00,0.0027
3046.00,0.0027
3045.00,0.0027
3044.00,0.0027
3043.00,0.0027
3042.00,0.0027
3041.00,0.0027
3040.00,0.0027
3039.00,0.0026
3038.00,0.0026
3037.00,0.0026
3036.00,0.0026
3035.00,0.0026
3034.00,0.0026
3033.00,0.0026
3032.00,0.0026
3031.00,0.0027
3030.00,0.0027
3029.00,0.0027
3028.00,0.0027
3027.00,0.0027
3026.00,0.0027
3025.00,0.0027
3024.00,0.0027
3023.00,0.0027
3022.00,0.0027
3021.00,0.0027
3020.00,0.0027
3019.00,0.0027
3018.00,0.0028
3017.00,0.0028
3016.00,0.0028
3015.00,0.0029
3014.00,0.0029
3013.00,0.0029
3012.00,0.0029
3011.00,0.0030
3010.00,0.0031
3009.00,0.0032
3008.00,0.0033
3007.00,0.0034
3006.00,0.0035
3005.00,0.0036
3004.00,0.0038
3003.00,0.0039
3002.00,0.0040
3001.00,0.0041
3000.00,0.0043
2999.00,0.0044
2998.00,0.0046
2997.00,0.0048
2996.00,0.0050
2995.00,0.0052
2994.00,0.0054
2993.00,0.0056
2992.00,0.0058
2991.00,0.0060
2990.00,0.0062
2989.00,0.0064
2988.00,0.0066
2987.00,0.0069
2986.00,0.0071
2985.00,0.0073
2984.00,0.0074
2983.00,0.0076
2982.00,0.0077
2981.00,0.0078
2980.00,0.0079
2979.00,0.0081
2978.00,0.0082
2977.00,0.0083
2976.00,0.0084
2975.00,0.0085
2974.00,0.0086
2973.00,0.0087
2972.00,0.0088
2971.00,0.0089
2970.00,0.0090
2969.00,0.0091
2968.00,0.0093
2967.00,0.0094
2966.00,0.0096
2965.00,0.0097
2964.00,0.0099
2963.00,0.0100
2962.00,0.0102
2961.00,0.0103
2960.00,0.0105
2959.00,0.0106
2958.00,0.0107
2957.00,0.0107
2956.00,0.0108
2955.00,0.0109
2954.00,0.0109
2953.00,0.0109
2952.00,0.0110
2951.00,0.0109
2950.00,0.0109
2949.00,0.0108
2948.00,0.0108
2947.00,0.0107
2946.00,0.0107
2945.00,0.0106
2944.00,0.0105
2943.00,0.0105
2942.00,0.0104
2941.00,0.0104
2940.00,0.0104
2939.00,0.0105
2938.00,0.0105
2937.00,0.0105
2936.00,0.0106
2935.00,0.0106
2934.00,0.0107
2933.00,0.0108
2932.00,0.0109
2931.00,0.0109
2930.00,0.0110
2929.00,0.0111
2928.00,0.0112
2927.00,0.0112
2926.00,0.0113
2925.00,0.0113
2924.00,0.0113
2923.00,0.0112
2922.00,0.0112
2921.00,0.0111
2920.00,0.0110
2919.00,0.0108
2918.00,0.0107
2917.00,0.0105
2916.00,0.0103
2915.00,0.0101
2914.00,0.0099
2913.00,0.0097
2912.00,0.0095
2911.00,0.0093
2910.00,0.0091
2909.00,0.0090
2908.00,0.0088
2907.00,0.0086
2906.00,0.0085
2905.00,0.0084
2904.00,0.0083
2903.00,0.0083
2902.00,0.0082
2901.00,0.0082
2900.00,0.0082
2899.00,0.0081
2898.00,0.0081
2897.00,0.0081
2896.00,0.0081
2895.00,0.0081
2894.00,0.0081
2893.00,0.0082
2892.00,0.0082
2891.00,0.0082
2890.00,0.0082
2889.00,0.0081
2888.00,0.0081
2887.00,0.0081
2886.00,0.0081
2885.00,0.0081
2884.00,0.0081
2883.00,0.0081
2882.00,0.0081
2881.00,0.0081
2880.00,0.0081
2879.00,0.0081
2878.00,0.0081
2877.00,0.0081
2876.00,0.0081
2875.00,0.0081
2874.00,0.0080
2873.00,0.0081
2872.00,0.0081
2871.00,0.0081
2870.00,0.0081
2869.00,0.0080
2868.00,0.0080
2867.00,0.0080
2866.00,0.0079
2865.00,0.0079
2864.00,0.0079
2863.00,0.0078
2862.00,0.0078
2861.00,0.0077
2860.00,0.0077
2859.00,0.0077
2858.00,0.0076
2857.00,0.0076
2856.00,0.0075
2855.00,0.0073
2854.00,0.0072
2853.00,0.0070
2852.00,0.0068
2851.00,0.0065
2850.00,0.0062
2849.00,0.0060
2848.00,0.0057
2847.00,0.0055
2846.00,0.0053
2845.00,0.0051
2844.00,0.0049
2843.00,0.0047
2842.00,0.0045
2841.00,0.0043
2840.00,0.0041
2839.00,0.0039
2838.00,0.0038
2837.00,0.0037
2836.00,0.0036
2835.00,0.0035
2834.00,0.0034
2833.00,0.0033
2832.00,0.0032
2831.00,0.0031
2830.00,0.0030
2829.00,0.0029
2828.00,0.0028
2827.00,0.0027
2826.00,0.0027
2825.00,0.0026
2824.00,0.0025
2823.00,0.0024
2822.00,0.0024
2821.00,0.0023
2820.00,0.0022
2819.00,0.0022
2818.00,0.0021
2817.00,0.0021
2816.00,0.0020
2815.00,0.0020
2814.00,0.0019
2813.00,0.0019
2812.00,0.0018
2811.00,0.0018
2810.00,0.0018
2809.00,0.0017
2808.00,0.0017
2807.00,0.0017
2806.00,0.0017
2805.00,0.0017
2804.00,0.0017
2803.00,0.0016
2802.00,0.0016
2801.00,0.0016
2800.00,0.0016
2799.00,0.0016
2798.00,0.0015
2797.00,0.0015
2796.00,0.0015
2795.00,0.0015
2794.00,0.0015
2793.00,0.0015
2792.00,0.0014
2791.00,0.0014
2790.00,0.0014
2789.00,0.0014
2788.00,0.0014
2787.00,0.0014
2786.00,0.0014
2785.00,0.0014
2784.00,0.0014
2783.00,0.0013
2782.00,0.0013
2781.00,0.0013
2780.00,0.0013
2779.00,0.0013
2778.00,0.0013
2777.00,0.0013
2776.00,0.0013
