Created as New Dataset,Sample 020 By YargerLab Date Thursday, August 07 2025
cm-1,A
4000.00,0.0076
3999.00,0.0076
3998.00,0.0076
3997.00,0.0076
3996.00,0.0076
3995.00,0.0076
3994.00,0.0076
3993.00,0.0076
3992.00,0.0076
3991.00,0.0076
3990.00,0.0076
3989.00,0.0076
3988.00,0.0076
3987.00,0.0076
3986.00,0.0076
3985.00,0.0076
3984.00,0.0076
3983.00,0.0076
3982.00,0.0076
3981.00,0.0076
3980.00,0.0076
3979.00,0.0076
3978.00,0.0076
3977.00,0.0076
3976.00,0.0076
3975.00,0.0076
3974.00,0.0076
3973.00,0.0075
3972.00,0.0075
3971.00,0.0075
3970.00,0.0075
3969.00,0.0076
3968.00,0.0076
3967.00,0.0076
3966.00,0.0077
3965.00,0.0077
3964.00,0.0077
3963.00,0.0077
3962.00,0.0076
3961.00,0.0076
3960.00,0.0076
3959.00,0.0076
3958.00,0.0076
3957.00,0.0076
3956.00,0.0076
3955.00,0.0076
3954.00,0.0076
3953.00,0.0076
3952.00,0.0076
3951.00,0.0076
3950.00,0.0077
3949.00,0.0076
3948.00,0.0076
3947.00,0.0076
3946.00,0.0076
3945.00,0.0076
3944.00,0.0076
3943.00,0.0076
3942.00,0.0076
3941.00,0.0076
3940.00,0.0075
3939.00,0.0075
3938.00,0.0075
3937.00,0.0075
3936.00,0.0076
3935.00,0.0075
3934.00,0.0075
3933.00,0.0075
3932.00,0.0076
3931.00,0.0076
3930.00,0.0076
3929.00,0.0076
3928.00,0.0076
3927.00,0.0076
3926.00,0.0076
3925.00,0.0076
3924.00,0.0076
3923.00,0.0076
3922.00,0.0075
3921.00,0.0075
3920.00,0.0075
3919.00,0.0075
3918.00,0.0076
3917.00,0.0076
3916.00,0.0076
3915.00,0.0076
3914.00,0.0076
3913.00,0.0076
3912.00,0.0075
3911.00,0.0075
3910.00,0.0075
3909.00,0.0075
3908.00,0.0076
3907.00,0.0076
3906.00,0.0076
3905.00,0.0076
3904.00,0.0076
3903.00,0.0076
3902.00,0.0076
3901.00,0.0076
3900.00,0.0076
3899.00,0.0076
3898.00,0.0076
3897.00,0.0076
3896.00,0.0076
3895.00,0.0075
3894.00,0.0076
3893.00,0.0076
3892.00,0.0076
3891.00,0.0076
3890.00,0.0076
3889.00,0.0076
3888.00,0.0076
3887.00,0.0076
3886.00,0.0076
3885.00,0.0076
3884.00,0.0076
3883.00,0.0076
3882.00,0.0076
3881.00,0.0075
3880.00,0.0075
3879.00,0.0076
3878.00,0.0075
3877.00,0.0075
3876.00,0.0075
3875.00,0.0075
3874.00,0.0075
3873.00,0.0075
3872.00,0.0075
3871.00,0.0075
3870.00,0.0075
3869.00,0.0075
3868.00,0.0075
3867.00,0.0075
3866.00,0.0075
3865.00,0.0075
3864.00,0.0075
3863.00,0.0075
3862.00,0.0075
3861.00,0.0075
3860.00,0.0075
3859.00,0.0075
3858.00,0.0075
3857.00,0.0076
3856.00,0.0076
3855.00,0.0075
3854.00,0.0075
3853.00,0.0075
3852.00,0.0075
3851.00,0.0075
3850.00,0.0075
3849.00,0.0075
3848.00,0.0075
3847.00,0.0075
3846.00,0.0075
3845.00,0.0075
3844.00,0.0075
3843.00,0.0075
3842.00,0.0075
3841.00,0.0075
3840.00,0.0075
3839.00,0.0075
3838.00,0.0075
3837.00,0.0075
3836.00,0.0075
3835.00,0.0075
3834.00,0.0075
3833.00,0.0075
3832.00,0.0075
3831.00,0.0076
3830.00,0.0076
3829.00,0.0076
3828.00,0.0076
3827.00,0.0076
3826.00,0.0076
3825.00,0.0075
3824.00,0.0075
3823.00,0.0075
3822.00,0.0075
3821.00,0.0075
3820.00,0.0075
3819.00,0.0075
3818.00,0.0075
3817.00,0.0075
3816.00,0.0074
3815.00,0.0075
3814.00,0.0075
3813.00,0.0075
3812.00,0.0075
3811.00,0.0075
3810.00,0.0075
3809.00,0.0075
3808.00,0.0075
3807.00,0.0075
3806.00,0.0075
3805.00,0.0075
3804.00,0.0074
3803.00,0.0074
3802.00,0.0075
3801.00,0.0075
3800.00,0.0075
3799.00,0.0075
3798.00,0.0075
3797.00,0.0075
3796.00,0.0075
3795.00,0.0075
3794.00,0.0075
3793.00,0.0075
3792.00,0.0075
3791.00,0.0075
3790.00,0.0075
3789.00,0.0075
3788.00,0.0075
3787.00,0.0075
3786.00,0.0075
3785.00,0.0075
3784.00,0.0075
3783.00,0.0075
3782.00,0.0075
3781.00,0.0075
3780.00,0.0075
3779.00,0.0075
3778.00,0.0075
3777.00,0.0075
3776.00,0.0075
3775.00,0.0075
3774.00,0.0075
3773.00,0.0075
3772.00,0.0075
3771.00,0.0075
3770.00,0.0075
3769.00,0.0075
3768.00,0.0075
3767.00,0.0075
3766.00,0.0075
3765.00,0.0075
3764.00,0.0075
3763.00,0.0075
3762.00,0.0075
3761.00,0.0075
3760.00,0.0075
3759.00,0.0075
3758.00,0.0075
3757.00,0.0075
3756.00,0.0075
3755.00,0.0075
3754.00,0.0074
3753.00,0.0074
3752.00,0.0074
3751.00,0.0073
3750.00,0.0073
3749.00,0.0073
3748.00,0.0073
3747.00,0.0073
3746.00,0.0073
3745.00,0.0073
3744.00,0.0074
3743.00,0.0074
3742.00,0.0074
3741.00,0.0074
3740.00,0.0074
3739.00,0.0074
3738.00,0.0074
3737.00,0.0074
3736.00,0.0074
3735.00,0.0074
3734.00,0.0074
3733.00,0.0074
3732.00,0.0074
3731.00,0.0074
3730.00,0.0074
3729.00,0.0074
3728.00,0.0074
3727.00,0.0074
3726.00,0.0074
3725.00,0.0074
3724.00,0.0074
3723.00,0.0074
3722.00,0.0074
3721.00,0.0074
3720.00,0.0074
3719.00,0.0074
3718.00,0.0073
3717.00,0.0073
3716.00,0.0073
3715.00,0.0074
3714.00,0.0074
3713.00,0.0073
3712.00,0.0073
3711.00,0.0073
3710.00,0.0073
3709.00,0.0073
3708.00,0.0073
3707.00,0.0073
3706.00,0.0073
3705.00,0.0073
3704.00,0.0073
3703.00,0.0073
3702.00,0.0073
3701.00,0.0073
3700.00,0.0073
3699.00,0.0073
3698.00,0.0073
3697.00,0.0073
3696.00,0.0073
3695.00,0.0073
3694.00,0.0073
3693.00,0.0073
3692.00,0.0073
3691.00,0.0073
3690.00,0.0073
3689.00,0.0074
3688.00,0.0074
3687.00,0.0074
3686.00,0.0075
3685.00,0.0075
3684.00,0.0075
3683.00,0.0075
3682.00,0.0076
3681.00,0.0076
3680.00,0.0076
3679.00,0.0076
3678.00,0.0076
3677.00,0.0076
3676.00,0.0076
3675.00,0.0076
3674.00,0.0076
3673.00,0.0076
3672.00,0.0076
3671.00,0.0076
3670.00,0.0076
3669.00,0.0077
3668.00,0.0077
3667.00,0.0077
3666.00,0.0077
3665.00,0.0077
3664.00,0.0077
3663.00,0.0077
3662.00,0.0077
3661.00,0.0078
3660.00,0.0078
3659.00,0.0078
3658.00,0.0078
3657.00,0.0078
3656.00,0.0078
3655.00,0.0078
3654.00,0.0078
3653.00,0.0079
3652.00,0.0079
3651.00,0.0079
3650.00,0.0079
3649.00,0.0079
3648.00,0.0080
3647.00,0.0080
3646.00,0.0080
3645.00,0.0080
3644.00,0.0081
3643.00,0.0081
3642.00,0.0082
3641.00,0.0082
3640.00,0.0083
3639.00,0.0083
3638.00,0.0083
3637.00,0.0083
3636.00,0.0083
3635.00,0.0083
3634.00,0.0084
3633.00,0.0084
3632.00,0.0084
3631.00,0.0083
3630.00,0.0083
3629.00,0.0083
3628.00,0.0084
3627.00,0.0084
3626.00,0.0084
3625.00,0.0085
3624.00,0.0085
3623.00,0.0086
3622.00,0.0086
3621.00,0.0086
3620.00,0.0087
3619.00,0.0087
3618.00,0.0088
3617.00,0.0088
3616.00,0.0088
3615.00,0.0089
3614.00,0.0089
3613.00,0.0089
3612.00,0.0090
3611.00,0.0090
3610.00,0.0091
3609.00,0.0091
3608.00,0.0091
3607.00,0.0092
3606.00,0.0092
3605.00,0.0092
3604.00,0.0093
3603.00,0.0093
3602.00,0.0094
3601.00,0.0094
3600.00,0.0095
3599.00,0.0096
3598.00,0.0096
3597.00,0.0097
3596.00,0.0097
3595.00,0.0097
3594.00,0.0098
3593.00,0.0098
3592.00,0.0099
3591.00,0.0099
3590.00,0.0099
3589.00,0.0100
3588.00,0.0100
3587.00,0.0101
3586.00,0.0102
3585.00,0.0103
3584.00,0.0103
3583.00,0.0104
3582.00,0.0104
3581.00,0.0105
3580.00,0.0105
3579.00,0.0106
3578.00,0.0107
3577.00,0.0107
3576.00,0.0108
3575.00,0.0108
3574.00,0.0109
3573.00,0.0110
3572.00,0.0110
3571.00,0.0111
3570.00,0.0111
3569.00,0.0112
3568.00,0.0113
3567.00,0.0114
3566.00,0.0114
3565.00,0.0114
3564.00,0.0114
3563.00,0.0115
3562.00,0.0115
3561.00,0.0116
3560.00,0.0117
3559.00,0.0117
3558.00,0.0118
3557.00,0.0118
3556.00,0.0119
3555.00,0.0119
3554.00,0.0119
3553.00,0.0120
3552.00,0.0120
3551.00,0.0121
3550.00,0.0122
3549.00,0.0123
3548.00,0.0123
3547.00,0.0124
3546.00,0.0124
3545.00,0.0125
3544.00,0.0125
3543.00,0.0125
3542.00,0.0126
3541.00,0.0126
3540.00,0.0127
3539.00,0.0127
3538.00,0.0127
3537.00,0.0128
3536.00,0.0128
3535.00,0.0129
3534.00,0.0129
3533.00,0.0129
3532.00,0.0129
3531.00,0.0130
3530.00,0.0130
3529.00,0.0131
3528.00,0.0131
3527.00,0.0131
3526.00,0.0132
3525.00,0.0132
3524.00,0.0132
3523.00,0.0133
3522.00,0.0133
3521.00,0.0133
3520.00,0.0133
3519.00,0.0133
3518.00,0.0134
3517.00,0.0134
3516.00,0.0135
3515.00,0.0135
3514.00,0.0136
3513.00,0.0136
3512.00,0.0136
3511.00,0.0137
3510.00,0.0137
3509.00,0.0137
3508.00,0.0137
3507.00,0.0137
3506.00,0.0138
3505.00,0.0138
3504.00,0.0139
3503.00,0.0139
3502.00,0.0139
3501.00,0.0139
3500.00,0.0139
3499.00,0.0140
3498.00,0.0140
3497.00,0.0140
3496.00,0.0141
3495.00,0.0141
3494.00,0.0141
3493.00,0.0141
3492.00,0.0142
3491.00,0.0142
3490.00,0.0142
3489.00,0.0143
3488.00,0.0143
3487.00,0.0143
3486.00,0.0143
3485.00,0.0144
3484.00,0.0144
3483.00,0.0144
3482.00,0.0144
3481.00,0.0145
3480.00,0.0145
3479.00,0.0145
3478.00,0.0145
3477.00,0.0146
3476.00,0.0146
3475.00,0.0146
3474.00,0.0147
3473.00,0.0147
3472.00,0.0147
3471.00,0.0147
3470.00,0.0147
3469.00,0.0147
3468.00,0.0147
3467.00,0.0148
3466.00,0.0148
3465.00,0.0148
3464.00,0.0148
3463.00,0.0149
3462.00,0.0149
3461.00,0.0149
3460.00,0.0149
3459.00,0.0149
3458.00,0.0150
3457.00,0.0150
3456.00,0.0150
3455.00,0.0150
3454.00,0.0150
3453.00,0.0150
3452.00,0.0150
3451.00,0.0150
3450.00,0.0150
3449.00,0.0150
3448.00,0.0151
3447.00,0.0151
3446.00,0.0152
3445.00,0.0152
3444.00,0.0152
3443.00,0.0151
3442.00,0.0151
3441.00,0.0151
3440.00,0.0151
3439.00,0.0151
3438.00,0.0151
3437.00,0.0151
3436.00,0.0151
3435.00,0.0151
3434.00,0.0151
3433.00,0.0151
3432.00,0.0152
3431.00,0.0152
3430.00,0.0152
3429.00,0.0152
3428.00,0.0152
3427.00,0.0152
3426.00,0.0152
3425.00,0.0152
3424.00,0.0152
3423.00,0.0152
3422.00,0.0152
3421.00,0.0152
3420.00,0.0152
3419.00,0.0152
3418.00,0.0152
3417.00,0.0152
3416.00,0.0151
3415.00,0.0151
3414.00,0.0152
3413.00,0.0152
3412.00,0.0152
3411.00,0.0152
3410.00,0.0152
3409.00,0.0152
3408.00,0.0152
3407.00,0.0151
3406.00,0.0151
3405.00,0.0151
3404.00,0.0151
3403.00,0.0151
3402.00,0.0151
3401.00,0.0151
3400.00,0.0151
3399.00,0.0151
3398.00,0.0151
3397.00,0.0151
3396.00,0.0151
3395.00,0.0151
3394.00,0.0152
3393.00,0.0152
3392.00,0.0152
3391.00,0.0152
3390.00,0.0152
3389.00,0.0152
3388.00,0.0152
3387.00,0.0152
3386.00,0.0152
3385.00,0.0151
3384.00,0.0151
3383.00,0.0151
3382.00,0.0151
3381.00,0.0151
3380.00,0.0151
3379.00,0.0151
3378.00,0.0151
3377.00,0.0152
3376.00,0.0152
3375.00,0.0152
3374.00,0.0152
3373.00,0.0152
3372.00,0.0151
3371.00,0.0151
3370.00,0.0150
3369.00,0.0150
3368.00,0.0150
3367.00,0.0151
3366.00,0.0151
3365.00,0.0152
3364.00,0.0152
3363.00,0.0152
3362.00,0.0152
3361.00,0.0152
3360.00,0.0152
3359.00,0.0152
3358.00,0.0152
3357.00,0.0153
3356.00,0.0153
3355.00,0.0153
3354.00,0.0153
3353.00,0.0152
3352.00,0.0152
3351.00,0.0152
3350.00,0.0152
3349.00,0.0152
3348.00,0.0153
3347.00,0.0153
3346.00,0.0153
3345.00,0.0153
3344.00,0.0153
3343.00,0.0153
3342.00,0.0153
3341.00,0.0153
3340.00,0.0152
3339.00,0.0152
3338.00,0.0152
3337.00,0.0152
3336.00,0.0152
3335.00,0.0153
3334.00,0.0153
3333.00,0.0153
3332.00,0.0153
3331.00,0.0154
3330.00,0.0153
3329.00,0.0153
3328.00,0.0153
3327.00,0.0152
3326.00,0.0152
3325.00,0.0152
3324.00,0.0152
3323.00,0.0152
3322.00,0.0153
3321.00,0.0153
3320.00,0.0153
3319.00,0.0154
3318.00,0.0154
3317.00,0.0154
3316.00,0.0154
3315.00,0.0153
3314.00,0.0153
3313.00,0.0153
3312.00,0.0153
3311.00,0.0153
3310.00,0.0152
3309.00,0.0151
3308.00,0.0151
3307.00,0.0151
3306.00,0.0151
3305.00,0.0152
3304.00,0.0152
3303.00,0.0153
3302.00,0.0154
3301.00,0.0154
3300.00,0.0154
3299.00,0.0154
3298.00,0.0153
3297.00,0.0153
3296.00,0.0153
3295.00,0.0153
3294.00,0.0153
3293.00,0.0153
3292.00,0.0153
3291.00,0.0153
3290.00,0.0154
3289.00,0.0154
3288.00,0.0154
3287.00,0.0154
3286.00,0.0154
3285.00,0.0154
3284.00,0.0154
3283.00,0.0154
3282.00,0.0154
3281.00,0.0154
3280.00,0.0154
3279.00,0.0154
3278.00,0.0154
3277.00,0.0154
3276.00,0.0154
3275.00,0.0154
3274.00,0.0154
3273.00,0.0153
3272.00,0.0153
3271.00,0.0153
3270.00,0.0154
3269.00,0.0154
3268.00,0.0154
3267.00,0.0154
3266.00,0.0154
3265.00,0.0154
3264.00,0.0153
3263.00,0.0153
3262.00,0.0154
3261.00,0.0154
3260.00,0.0154
3259.00,0.0154
3258.00,0.0153
3257.00,0.0153
3256.00,0.0153
3255.00,0.0153
3254.00,0.0153
3253.00,0.0153
3252.00,0.0153
3251.00,0.0153
3250.00,0.0152
3249.00,0.0152
3248.00,0.0152
3247.00,0.0152
3246.00,0.0152
3245.00,0.0152
3244.00,0.0152
3243.00,0.0152
3242.00,0.0152
3241.00,0.0152
3240.00,0.0153
3239.00,0.0153
3238.00,0.0153
3237.00,0.0152
3236.00,0.0152
3235.00,0.0152
3234.00,0.0151
3233.00,0.0151
3232.00,0.0151
3231.00,0.0151
3230.00,0.0151
3229.00,0.0151
3228.00,0.0151
3227.00,0.0151
3226.00,0.0151
3225.00,0.0151
3224.00,0.0151
3223.00,0.0151
3222.00,0.0151
3221.00,0.0150
3220.00,0.0150
3219.00,0.0150
3218.00,0.0150
3217.00,0.0149
3216.00,0.0149
3215.00,0.0149
3214.00,0.0149
3213.00,0.0149
3212.00,0.0149
3211.00,0.0149
3210.00,0.0149
3209.00,0.0149
3208.00,0.0148
3207.00,0.0148
3206.00,0.0148
3205.00,0.0148
3204.00,0.0148
3203.00,0.0147
3202.00,0.0147
3201.00,0.0147
3200.00,0.0147
3199.00,0.0147
3198.00,0.0146
3197.00,0.0146
3196.00,0.0146
3195.00,0.0146
3194.00,0.0146
3193.00,0.0146
3192.00,0.0146
3191.00,0.0146
3190.00,0.0145
3189.00,0.0145
3188.00,0.0145
3187.00,0.0145
3186.00,0.0145
3185.00,0.0145
3184.00,0.0145
3183.00,0.0145
3182.00,0.0145
3181.00,0.0144
3180.00,0.0144
3179.00,0.0144
3178.00,0.0144
3177.00,0.0144
3176.00,0.0144
3175.00,0.0144
3174.00,0.0144
3173.00,0.0144
3172.00,0.0143
3171.00,0.0143
3170.00,0.0143
3169.00,0.0143
3168.00,0.0143
3167.00,0.0143
3166.00,0.0142
3165.00,0.0142
3164.00,0.0142
3163.00,0.0142
3162.00,0.0142
3161.00,0.0142
3160.00,0.0141
3159.00,0.0141
3158.00,0.0141
3157.00,0.0141
3156.00,0.0141
3155.00,0.0141
3154.00,0.0141
3153.00,0.0140
3152.00,0.0140
3151.00,0.0140
3150.00,0.0140
3149.00,0.0140
3148.00,0.0140
3147.00,0.0140
3146.00,0.0139
3145.00,0.0139
3144.00,0.0139
3143.00,0.0138
3142.00,0.0138
3141.00,0.0138
3140.00,0.0139
3139.00,0.0138
3138.00,0.0138
3137.00,0.0138
3136.00,0.0138
3135.00,0.0137
3134.00,0.0137
3133.00,0.0137
3132.00,0.0137
3131.00,0.0137
3130.00,0.0137
3129.00,0.0137
3128.00,0.0137
3127.00,0.0137
3126.00,0.0137
3125.00,0.0137
3124.00,0.0136
3123.00,0.0136
3122.00,0.0136
3121.00,0.0136
3120.00,0.0136
3119.00,0.0136
3118.00,0.0136
3117.00,0.0136
3116.00,0.0136
3115.00,0.0136
3114.00,0.0136
3113.00,0.0135
3112.00,0.0135
3111.00,0.0135
3110.00,0.0135
3109.00,0.0135
3108.00,0.0135
3107.00,0.0135
3106.00,0.0134
3105.00,0.0134
3104.00,0.0134
3103.00,0.0133
3102.00,0.0133
3101.00,0.0133
3100.00,0.0133
3099.00,0.0133
3098.00,0.0132
3097.00,0.0132
3096.00,0.0132
3095.00,0.0132
3094.00,0.0132
3093.00,0.0132
3092.00,0.0132
3091.00,0.0132
3090.00,0.0132
3089.00,0.0132
3088.00,0.0132
3087.00,0.0132
3086.00,0.0132
3085.00,0.0132
3084.00,0.0132
3083.00,0.0132
3082.00,0.0132
3081.00,0.0132
3080.00,0.0132
3079.00,0.0132
3078.00,0.0132
3077.00,0.0132
3076.00,0.0132
3075.00,0.0132
3074.00,0.0132
3073.00,0.0132
3072.00,0.0132
3071.00,0.0132
3070.00,0.0132
3069.00,0.0131
3068.00,0.0131
3067.00,0.0131
3066.00,0.0131
3065.00,0.0130
3064.00,0.0130
3063.00,0.0130
3062.00,0.0130
3061.00,0.0130
3060.00,0.0129
3059.00,0.0129
3058.00,0.0129
3057.00,0.0128
3056.00,0.0128
3055.00,0.0128
3054.00,0.0128
3053.00,0.0128
3052.00,0.0128
3051.00,0.0128
3050.00,0.0127
3049.00,0.0127
3048.00,0.0127
3047.00,0.0127
3046.00,0.0127
3045.00,0.0127
3044.00,0.0127
3043.00,0.0127
3042.00,0.0126
3041.00,0.0126
3040.00,0.0126
3039.00,0.0126
3038.00,0.0126
3037.00,0.0126
3036.00,0.0126
3035.00,0.0126
3034.00,0.0126
3033.00,0.0125
3032.00,0.0125
3031.00,0.0125
3030.00,0.0125
3029.00,0.0125
3028.00,0.0125
3027.00,0.0125
3026.00,0.0125
3025.00,0.0125
3024.00,0.0124
3023.00,0.0124
3022.00,0.0124
3021.00,0.0124
3020.00,0.0124
3019.00,0.0125
3018.00,0.0125
3017.00,0.0125
3016.00,0.0125
3015.00,0.0126
3014.00,0.0126
3013.00,0.0127
3012.00,0.0127
3011.00,0.0128
3010.00,0.0129
3009.00,0.0130
3008.00,0.0131
3007.00,0.0132
3006.00,0.0134
3005.00,0.0135
3004.00,0.0137
3003.00,0.0139
3002.00,0.0142
3001.00,0.0144
3000.00,0.0147
2999.00,0.0149
2998.00,0.0152
2997.00,0.0155
2996.00,0.0159
2995.00,0.0162
2994.00,0.0166
2993.00,0.0170
2992.00,0.0173
2991.00,0.0177
2990.00,0.0181
2989.00,0.0185
2988.00,0.0190
2987.00,0.0194
2986.00,0.0198
2985.00,0.0202
2984.00,0.0205
2983.00,0.0209
2982.00,0.0212
2981.00,0.0215
2980.00,0.0218
2979.00,0.0220
2978.00,0.0223
2977.00,0.0224
2976.00,0.0226
2975.00,0.0227
2974.00,0.0229
2973.00,0.0231
2972.00,0.0232
2971.00,0.0234
2970.00,0.0236
2969.00,0.0237
2968.00,0.0239
2967.00,0.0240
2966.00,0.0242
2965.00,0.0244
2964.00,0.0247
2963.00,0.0249
2962.00,0.0252
2961.00,0.0254
2960.00,0.0257
2959.00,0.0259
2958.00,0.0262
2957.00,0.0264
2956.00,0.0265
2955.00,0.0267
2954.00,0.0268
2953.00,0.0269
2952.00,0.0270
2951.00,0.0270
2950.00,0.0270
2949.00,0.0270
2948.00,0.0270
2947.00,0.0269
2946.00,0.0268
2945.00,0.0267
2944.00,0.0267
2943.00,0.0266
2942.00,0.0266
2941.00,0.0265
2940.00,0.0265
2939.00,0.0265
2938.00,0.0266
2937.00,0.0266
2936.00,0.0267
2935.00,0.0268
2934.00,0.0269
2933.00,0.0270
2932.00,0.0271
2931.00,0.0272
2930.00,0.0273
2929.00,0.0275
2928.00,0.0276
2927.00,0.0277
2926.00,0.0277
2925.00,0.0278
2924.00,0.0278
2923.00,0.0278
2922.00,0.0278
2921.00,0.0277
2920.00,0.0276
2919.00,0.0275
2918.00,0.0274
2917.00,0.0272
2916.00,0.0270
2915.00,0.0268
2914.00,0.0265
2913.00,0.0263
2912.00,0.0260
2911.00,0.0257
2910.00,0.0254
2909.00,0.0250
2908.00,0.0247
2907.00,0.0245
2906.00,0.0242
2905.00,0.0240
2904.00,0.0238
2903.00,0.0236
2902.00,0.0234
2901.00,0.0233
2900.00,0.0233
2899.00,0.0232
2898.00,0.0232
2897.00,0.0231
2896.00,0.0231
2895.00,0.0231
2894.00,0.0232
2893.00,0.0232
2892.00,0.0232
2891.00,0.0232
2890.00,0.0232
2889.00,0.0232
2888.00,0.0232
2887.00,0.0232
2886.00,0.0231
2885.00,0.0231
2884.00,0.0231
2883.00,0.0232
2882.00,0.0232
2881.00,0.0232
2880.00,0.0232
2879.00,0.0233
2878.00,0.0233
2877.00,0.0234
2876.00,0.0235
2875.00,0.0235
2874.00,0.0236
2873.00,0.0236
2872.00,0.0237
2871.00,0.0237
2870.00,0.0237
2869.00,0.0236
2868.00,0.0236
2867.00,0.0235
2866.00,0.0234
2865.00,0.0233
2864.00,0.0232
2863.00,0.0231
2862.00,0.0231
2861.00,0.0230
2860.00,0.0230
2859.00,0.0229
2858.00,0.0228
2857.00,0.0227
2856.00,0.0225
2855.00,0.0222
2854.00,0.0219
2853.00,0.0216
2852.00,0.0213
2851.00,0.0210
2850.00,0.0207
2849.00,0.0203
2848.00,0.0200
2847.00,0.0197
2846.00,0.0194
2845.00,0.0191
2844.00,0.0187
2843.00,0.0184
2842.00,0.0181
2841.00,0.0178
2840.00,0.0175
2839.00,0.0172
2838.00,0.0170
2837.00,0.0168
2836.00,0.0166
2835.00,0.0164
2834.00,0.0162
2833.00,0.0161
2832.00,0.0159
2831.00,0.0157
2830.00,0.0155
2829.00,0.0153
2828.00,0.0152
2827.00,0.0150
2826.00,0.0149
2825.00,0.0147
2824.00,0.0145
2823.00,0.0144
2822.00,0.0143
2821.00,0.0141
2820.00,0.0140
2819.00,0.0139
2818.00,0.0138
2817.00,0.0137
2816.00,0.0136
2815.00,0.0135
2814.00,0.0134
2813.00,0.0133
2812.00,0.0132
2811.00,0.0131
2810.00,0.0131
2809.00,0.0130
2808.00,0.0129
2807.00,0.0129
2806.00,0.0128
2805.00,0.0127
2804.00,0.0127
2803.00,0.0126
2802.00,0.0125
2801.00,0.0125
2800.00,0.0124
2799.00,0.0124
2798.00,0.0123
2797.00,0.0123
2796.00,0.0122
2795.00,0.0122
2794.00,0.0122
2793.00,0.0121
2792.00,0.0121
2791.00,0.0121
2790.00,0.0120
2789.00,0.0120
2788.00,0.0119
2787.00,0.0119
2786.00,0.0119
2785.00,0.0118
2784.00,0.0118
2783.00,0.0118
2782.00,0.0117
2781.00,0.0117
2780.00,0.0117
2779.00,0.0116
2778.00,0.0116
2777.00,0.0116
2776.00,0.0116
2775.00,0.0115
2774.00,0.0115
2773.00,0.0115
2772.00,0.0115
2771.00,0.0114
2770.00,0.0114
2769.00,0.0114
2768.00,0.0114
2767.00,0.0113
2766.00,0.0113
2765.00,0.0113
2764.00,0.0113
2763.00,0.0113
2762.00,0.0113
2761.00,0.0113
2760.00,0.0113
2759.00,0.0113
2758.00,0.0112
2757.00,0.0112
