Created as New Dataset,Sample 815 By YargerLab Date Thursday, July 10 2025
cm-1,A
4000.00,0.0058
3999.00,0.0058
3998.00,0.0059
3997.00,0.0059
3996.00,0.0059
3995.00,0.0059
3994.00,0.0059
3993.00,0.0059
3992.00,0.0059
3991.00,0.0059
3990.00,0.0059
3989.00,0.0059
3988.00,0.0059
3987.00,0.0059
3986.00,0.0058
3985.00,0.0058
3984.00,0.0058
3983.00,0.0058
3982.00,0.0058
3981.00,0.0059
3980.00,0.0059
3979.00,0.0059
3978.00,0.0059
3977.00,0.0058
3976.00,0.0058
3975.00,0.0058
3974.00,0.0058
3973.00,0.0058
3972.00,0.0058
3971.00,0.0058
3970.00,0.0058
3969.00,0.0058
3968.00,0.0058
3967.00,0.0058
3966.00,0.0058
3965.00,0.0057
3964.00,0.0057
3963.00,0.0057
3962.00,0.0057
3961.00,0.0058
3960.00,0.0058
3959.00,0.0058
3958.00,0.0058
3957.00,0.0058
3956.00,0.0058
3955.00,0.0058
3954.00,0.0058
3953.00,0.0058
3952.00,0.0058
3951.00,0.0058
3950.00,0.0058
3949.00,0.0058
3948.00,0.0058
3947.00,0.0058
3946.00,0.0058
3945.00,0.0058
3944.00,0.0058
3943.00,0.0058
3942.00,0.0057
3941.00,0.0057
3940.00,0.0057
3939.00,0.0057
3938.00,0.0057
3937.00,0.0057
3936.00,0.0057
3935.00,0.0058
3934.00,0.0058
3933.00,0.0057
3932.00,0.0057
3931.00,0.0057
3930.00,0.0057
3929.00,0.0057
3928.00,0.0057
3927.00,0.0057
3926.00,0.0057
3925.00,0.0057
3924.00,0.0058
3923.00,0.0057
3922.00,0.0057
3921.00,0.0057
3920.00,0.0057
3919.00,0.0057
3918.00,0.0057
3917.00,0.0056
3916.00,0.0056
3915.00,0.0056
3914.00,0.0057
3913.00,0.0057
3912.00,0.0057
3911.00,0.0057
3910.00,0.0057
3909.00,0.0057
3908.00,0.0057
3907.00,0.0058
3906.00,0.0058
3905.00,0.0058
3904.00,0.0058
3903.00,0.0058
3902.00,0.0057
3901.00,0.0057
3900.00,0.0057
3899.00,0.0057
3898.00,0.0056
3897.00,0.0056
3896.00,0.0057
3895.00,0.0057
3894.00,0.0057
3893.00,0.0057
3892.00,0.0057
3891.00,0.0057
3890.00,0.0057
3889.00,0.0058
3888.00,0.0058
3887.00,0.0058
3886.00,0.0057
3885.00,0.0057
3884.00,0.0057
3883.00,0.0057
3882.00,0.0057
3881.00,0.0057
3880.00,0.0057
3879.00,0.0057
3878.00,0.0057
3877.00,0.0057
3876.00,0.0057
3875.00,0.0057
3874.00,0.0057
3873.00,0.0057
3872.00,0.0057
3871.00,0.0057
3870.00,0.0057
3869.00,0.0057
3868.00,0.0057
3867.00,0.0057
3866.00,0.0056
3865.00,0.0056
3864.00,0.0056
3863.00,0.0056
3862.00,0.0056
3861.00,0.0057
3860.00,0.0057
3859.00,0.0058
3858.00,0.0058
3857.00,0.0058
3856.00,0.0058
3855.00,0.0058
3854.00,0.0058
3853.00,0.0058
3852.00,0.0058
3851.00,0.0057
3850.00,0.0057
3849.00,0.0057
3848.00,0.0057
3847.00,0.0057
3846.00,0.0057
3845.00,0.0057
3844.00,0.0058
3843.00,0.0058
3842.00,0.0058
3841.00,0.0058
3840.00,0.0058
3839.00,0.0057
3838.00,0.0057
3837.00,0.0057
3836.00,0.0057
3835.00,0.0057
3834.00,0.0057
3833.00,0.0057
3832.00,0.0057
3831.00,0.0057
3830.00,0.0057
3829.00,0.0058
3828.00,0.0058
3827.00,0.0058
3826.00,0.0058
3825.00,0.0058
3824.00,0.0058
3823.00,0.0058
3822.00,0.0058
3821.00,0.0057
3820.00,0.0057
3819.00,0.0057
3818.00,0.0057
3817.00,0.0057
3816.00,0.0057
3815.00,0.0057
3814.00,0.0057
3813.00,0.0057
3812.00,0.0057
3811.00,0.0057
3810.00,0.0057
3809.00,0.0057
3808.00,0.0057
3807.00,0.0057
3806.00,0.0057
3805.00,0.0057
3804.00,0.0057
3803.00,0.0057
3802.00,0.0057
3801.00,0.0057
3800.00,0.0057
3799.00,0.0057
3798.00,0.0057
3797.00,0.0057
3796.00,0.0056
3795.00,0.0056
3794.00,0.0056
3793.00,0.0056
3792.00,0.0057
3791.00,0.0057
3790.00,0.0057
3789.00,0.0057
3788.00,0.0057
3787.00,0.0057
3786.00,0.0058
3785.00,0.0058
3784.00,0.0058
3783.00,0.0058
3782.00,0.0058
3781.00,0.0058
3780.00,0.0057
3779.00,0.0057
3778.00,0.0057
3777.00,0.0057
3776.00,0.0058
3775.00,0.0058
3774.00,0.0058
3773.00,0.0058
3772.00,0.0058
3771.00,0.0058
3770.00,0.0058
3769.00,0.0058
3768.00,0.0058
3767.00,0.0058
3766.00,0.0058
3765.00,0.0058
3764.00,0.0058
3763.00,0.0058
3762.00,0.0058
3761.00,0.0058
3760.00,0.0058
3759.00,0.0058
3758.00,0.0058
3757.00,0.0058
3756.00,0.0059
3755.00,0.0059
3754.00,0.0059
3753.00,0.0059
3752.00,0.0059
3751.00,0.0059
3750.00,0.0058
3749.00,0.0058
3748.00,0.0058
3747.00,0.0058
3746.00,0.0058
3745.00,0.0057
3744.00,0.0058
3743.00,0.0058
3742.00,0.0059
3741.00,0.0059
3740.00,0.0058
3739.00,0.0058
3738.00,0.0058
3737.00,0.0058
3736.00,0.0058
3735.00,0.0058
3734.00,0.0057
3733.00,0.0057
3732.00,0.0057
3731.00,0.0057
3730.00,0.0057
3729.00,0.0057
3728.00,0.0057
3727.00,0.0057
3726.00,0.0057
3725.00,0.0057
3724.00,0.0058
3723.00,0.0058
3722.00,0.0058
3721.00,0.0058
3720.00,0.0058
3719.00,0.0058
3718.00,0.0057
3717.00,0.0057
3716.00,0.0057
3715.00,0.0058
3714.00,0.0058
3713.00,0.0058
3712.00,0.0058
3711.00,0.0058
3710.00,0.0058
3709.00,0.0057
3708.00,0.0057
3707.00,0.0058
3706.00,0.0058
3705.00,0.0058
3704.00,0.0058
3703.00,0.0058
3702.00,0.0058
3701.00,0.0058
3700.00,0.0058
3699.00,0.0058
3698.00,0.0058
3697.00,0.0059
3696.00,0.0059
3695.00,0.0060
3694.00,0.0060
3693.00,0.0061
3692.00,0.0061
3691.00,0.0061
3690.00,0.0062
3689.00,0.0062
3688.00,0.0063
3687.00,0.0064
3686.00,0.0065
3685.00,0.0066
3684.00,0.0067
3683.00,0.0067
3682.00,0.0068
3681.00,0.0069
3680.00,0.0069
3679.00,0.0069
3678.00,0.0070
3677.00,0.0071
3676.00,0.0072
3675.00,0.0072
3674.00,0.0073
3673.00,0.0073
3672.00,0.0073
3671.00,0.0073
3670.00,0.0074
3669.00,0.0074
3668.00,0.0075
3667.00,0.0075
3666.00,0.0076
3665.00,0.0077
3664.00,0.0077
3663.00,0.0078
3662.00,0.0079
3661.00,0.0079
3660.00,0.0080
3659.00,0.0081
3658.00,0.0082
3657.00,0.0083
3656.00,0.0085
3655.00,0.0086
3654.00,0.0087
3653.00,0.0088
3652.00,0.0089
3651.00,0.0090
3650.00,0.0093
3649.00,0.0095
3648.00,0.0096
3647.00,0.0097
3646.00,0.0098
3645.00,0.0099
3644.00,0.0100
3643.00,0.0101
3642.00,0.0103
3641.00,0.0104
3640.00,0.0106
3639.00,0.0108
3638.00,0.0110
3637.00,0.0111
3636.00,0.0113
3635.00,0.0114
3634.00,0.0116
3633.00,0.0117
3632.00,0.0118
3631.00,0.0120
3630.00,0.0123
3629.00,0.0126
3628.00,0.0129
3627.00,0.0132
3626.00,0.0133
3625.00,0.0134
3624.00,0.0135
3623.00,0.0136
3622.00,0.0138
3621.00,0.0140
3620.00,0.0143
3619.00,0.0147
3618.00,0.0150
3617.00,0.0153
3616.00,0.0155
3615.00,0.0157
3614.00,0.0158
3613.00,0.0160
3612.00,0.0163
3611.00,0.0165
3610.00,0.0167
3609.00,0.0171
3608.00,0.0174
3607.00,0.0177
3606.00,0.0180
3605.00,0.0182
3604.00,0.0184
3603.00,0.0186
3602.00,0.0189
3601.00,0.0192
3600.00,0.0195
3599.00,0.0198
3598.00,0.0201
3597.00,0.0203
3596.00,0.0206
3595.00,0.0210
3594.00,0.0214
3593.00,0.0217
3592.00,0.0219
3591.00,0.0221
3590.00,0.0224
3589.00,0.0227
3588.00,0.0232
3587.00,0.0238
3586.00,0.0242
3585.00,0.0246
3584.00,0.0249
3583.00,0.0251
3582.00,0.0254
3581.00,0.0257
3580.00,0.0261
3579.00,0.0265
3578.00,0.0268
3577.00,0.0272
3576.00,0.0276
3575.00,0.0279
3574.00,0.0283
3573.00,0.0286
3572.00,0.0289
3571.00,0.0291
3570.00,0.0294
3569.00,0.0297
3568.00,0.0303
3567.00,0.0309
3566.00,0.0315
3565.00,0.0320
3564.00,0.0324
3563.00,0.0327
3562.00,0.0330
3561.00,0.0333
3560.00,0.0337
3559.00,0.0340
3558.00,0.0343
3557.00,0.0346
3556.00,0.0349
3555.00,0.0353
3554.00,0.0357
3553.00,0.0361
3552.00,0.0365
3551.00,0.0369
3550.00,0.0371
3549.00,0.0374
3548.00,0.0377
3547.00,0.0381
3546.00,0.0385
3545.00,0.0390
3544.00,0.0394
3543.00,0.0397
3542.00,0.0399
3541.00,0.0402
3540.00,0.0404
3539.00,0.0406
3538.00,0.0409
3537.00,0.0412
3536.00,0.0416
3535.00,0.0419
3534.00,0.0422
3533.00,0.0424
3532.00,0.0426
3531.00,0.0428
3530.00,0.0431
3529.00,0.0433
3528.00,0.0436
3527.00,0.0439
3526.00,0.0442
3525.00,0.0444
3524.00,0.0447
3523.00,0.0450
3522.00,0.0452
3521.00,0.0454
3520.00,0.0456
3519.00,0.0458
3518.00,0.0460
3517.00,0.0462
3516.00,0.0464
3515.00,0.0466
3514.00,0.0467
3513.00,0.0468
3512.00,0.0470
3511.00,0.0472
3510.00,0.0474
3509.00,0.0476
3508.00,0.0478
3507.00,0.0480
3506.00,0.0481
3505.00,0.0483
3504.00,0.0485
3503.00,0.0488
3502.00,0.0490
3501.00,0.0492
3500.00,0.0493
3499.00,0.0493
3498.00,0.0495
3497.00,0.0496
3496.00,0.0498
3495.00,0.0499
3494.00,0.0501
3493.00,0.0502
3492.00,0.0503
3491.00,0.0504
3490.00,0.0505
3489.00,0.0506
3488.00,0.0508
3487.00,0.0510
3486.00,0.0511
3485.00,0.0512
3484.00,0.0513
3483.00,0.0515
3482.00,0.0516
3481.00,0.0518
3480.00,0.0520
3479.00,0.0521
3478.00,0.0521
3477.00,0.0522
3476.00,0.0523
3475.00,0.0524
3474.00,0.0526
3473.00,0.0527
3472.00,0.0529
3471.00,0.0530
3470.00,0.0531
3469.00,0.0532
3468.00,0.0533
3467.00,0.0534
3466.00,0.0535
3465.00,0.0536
3464.00,0.0536
3463.00,0.0537
3462.00,0.0538
3461.00,0.0539
3460.00,0.0540
3459.00,0.0541
3458.00,0.0541
3457.00,0.0542
3456.00,0.0542
3455.00,0.0543
3454.00,0.0544
3453.00,0.0545
3452.00,0.0546
3451.00,0.0546
3450.00,0.0546
3449.00,0.0547
3448.00,0.0548
3447.00,0.0549
3446.00,0.0550
3445.00,0.0551
3444.00,0.0552
3443.00,0.0552
3442.00,0.0553
3441.00,0.0553
3440.00,0.0554
3439.00,0.0554
3438.00,0.0555
3437.00,0.0555
3436.00,0.0555
3435.00,0.0555
3434.00,0.0555
3433.00,0.0555
3432.00,0.0555
3431.00,0.0555
3430.00,0.0555
3429.00,0.0555
3428.00,0.0555
3427.00,0.0555
3426.00,0.0554
3425.00,0.0554
3424.00,0.0554
3423.00,0.0553
3422.00,0.0553
3421.00,0.0553
3420.00,0.0554
3419.00,0.0553
3418.00,0.0553
3417.00,0.0552
3416.00,0.0552
3415.00,0.0551
3414.00,0.0551
3413.00,0.0550
3412.00,0.0550
3411.00,0.0549
3410.00,0.0548
3409.00,0.0547
3408.00,0.0546
3407.00,0.0546
3406.00,0.0545
3405.00,0.0544
3404.00,0.0543
3403.00,0.0542
3402.00,0.0541
3401.00,0.0540
3400.00,0.0539
3399.00,0.0538
3398.00,0.0537
3397.00,0.0536
3396.00,0.0535
3395.00,0.0534
3394.00,0.0532
3393.00,0.0531
3392.00,0.0530
3391.00,0.0528
3390.00,0.0527
3389.00,0.0525
3388.00,0.0523
3387.00,0.0522
3386.00,0.0520
3385.00,0.0519
3384.00,0.0517
3383.00,0.0516
3382.00,0.0514
3381.00,0.0512
3380.00,0.0511
3379.00,0.0509
3378.00,0.0507
3377.00,0.0505
3376.00,0.0503
3375.00,0.0501
3374.00,0.0499
3373.00,0.0497
3372.00,0.0494
3371.00,0.0491
3370.00,0.0489
3369.00,0.0487
3368.00,0.0485
3367.00,0.0484
3366.00,0.0483
3365.00,0.0481
3364.00,0.0480
3363.00,0.0478
3362.00,0.0476
3361.00,0.0474
3360.00,0.0473
3359.00,0.0471
3358.00,0.0470
3357.00,0.0468
3356.00,0.0467
3355.00,0.0464
3354.00,0.0462
3353.00,0.0459
3352.00,0.0457
3351.00,0.0455
3350.00,0.0453
3349.00,0.0453
3348.00,0.0452
3347.00,0.0450
3346.00,0.0448
3345.00,0.0446
3344.00,0.0444
3343.00,0.0441
3342.00,0.0439
3341.00,0.0437
3340.00,0.0435
3339.00,0.0433
3338.00,0.0432
3337.00,0.0432
3336.00,0.0432
3335.00,0.0432
3334.00,0.0431
3333.00,0.0430
3332.00,0.0429
3331.00,0.0428
3330.00,0.0426
3329.00,0.0424
3328.00,0.0422
3327.00,0.0419
3326.00,0.0418
3325.00,0.0417
3324.00,0.0417
3323.00,0.0417
3322.00,0.0417
3321.00,0.0416
3320.00,0.0416
3319.00,0.0415
3318.00,0.0414
3317.00,0.0412
3316.00,0.0411
3315.00,0.0409
3314.00,0.0408
3313.00,0.0406
3312.00,0.0404
3311.00,0.0402
3310.00,0.0399
3309.00,0.0396
3308.00,0.0394
3307.00,0.0393
3306.00,0.0392
3305.00,0.0393
3304.00,0.0394
3303.00,0.0396
3302.00,0.0397
3301.00,0.0397
3300.00,0.0396
3299.00,0.0393
3298.00,0.0391
3297.00,0.0388
3296.00,0.0386
3295.00,0.0385
3294.00,0.0384
3293.00,0.0384
3292.00,0.0384
3291.00,0.0385
3290.00,0.0386
3289.00,0.0387
3288.00,0.0386
3287.00,0.0386
3286.00,0.0384
3285.00,0.0383
3284.00,0.0382
3283.00,0.0381
3282.00,0.0380
3281.00,0.0378
3280.00,0.0377
3279.00,0.0375
3278.00,0.0372
3277.00,0.0370
3276.00,0.0368
3275.00,0.0366
3274.00,0.0363
3273.00,0.0361
3272.00,0.0359
3271.00,0.0357
3270.00,0.0357
3269.00,0.0357
3268.00,0.0357
3267.00,0.0356
3266.00,0.0355
3265.00,0.0354
3264.00,0.0353
3263.00,0.0351
3262.00,0.0350
3261.00,0.0348
3260.00,0.0345
3259.00,0.0343
3258.00,0.0340
3257.00,0.0338
3256.00,0.0336
3255.00,0.0335
3254.00,0.0334
3253.00,0.0332
3252.00,0.0331
3251.00,0.0328
3250.00,0.0326
3249.00,0.0323
3248.00,0.0321
3247.00,0.0319
3246.00,0.0317
3245.00,0.0316
3244.00,0.0315
3243.00,0.0314
3242.00,0.0312
3241.00,0.0310
3240.00,0.0309
3239.00,0.0306
3238.00,0.0304
3237.00,0.0301
3236.00,0.0299
3235.00,0.0296
3234.00,0.0294
3233.00,0.0292
3232.00,0.0291
3231.00,0.0290
3230.00,0.0289
3229.00,0.0287
3228.00,0.0285
3227.00,0.0283
3226.00,0.0281
3225.00,0.0279
3224.00,0.0277
3223.00,0.0275
3222.00,0.0273
3221.00,0.0271
3220.00,0.0270
3219.00,0.0268
3218.00,0.0266
3217.00,0.0264
3216.00,0.0262
3215.00,0.0260
3214.00,0.0258
3213.00,0.0256
3212.00,0.0254
3211.00,0.0253
3210.00,0.0251
3209.00,0.0249
3208.00,0.0248
3207.00,0.0246
3206.00,0.0244
3205.00,0.0242
3204.00,0.0240
3203.00,0.0238
3202.00,0.0237
3201.00,0.0235
3200.00,0.0233
3199.00,0.0232
3198.00,0.0230
3197.00,0.0229
3196.00,0.0228
3195.00,0.0226
3194.00,0.0224
3193.00,0.0222
3192.00,0.0221
3191.00,0.0219
3190.00,0.0217
3189.00,0.0216
3188.00,0.0214
3187.00,0.0213
3186.00,0.0212
3185.00,0.0211
3184.00,0.0209
3183.00,0.0208
3182.00,0.0206
3181.00,0.0205
3180.00,0.0203
3179.00,0.0202
3178.00,0.0201
3177.00,0.0200
3176.00,0.0198
3175.00,0.0197
3174.00,0.0196
3173.00,0.0195
3172.00,0.0194
3171.00,0.0192
3170.00,0.0191
3169.00,0.0190
3168.00,0.0189
3167.00,0.0188
3166.00,0.0186
3165.00,0.0185
3164.00,0.0184
3163.00,0.0183
3162.00,0.0182
3161.00,0.0181
3160.00,0.0180
3159.00,0.0179
3158.00,0.0178
3157.00,0.0177
3156.00,0.0176
3155.00,0.0175
3154.00,0.0174
3153.00,0.0173
3152.00,0.0172
3151.00,0.0171
3150.00,0.0170
3149.00,0.0169
3148.00,0.0168
3147.00,0.0167
3146.00,0.0166
3145.00,0.0165
3144.00,0.0164
3143.00,0.0163
3142.00,0.0162
3141.00,0.0161
3140.00,0.0161
3139.00,0.0160
3138.00,0.0160
3137.00,0.0159
3136.00,0.0158
3135.00,0.0157
3134.00,0.0156
3133.00,0.0155
3132.00,0.0155
3131.00,0.0154
3130.00,0.0153
3129.00,0.0152
3128.00,0.0152
3127.00,0.0151
3126.00,0.0151
3125.00,0.0150
3124.00,0.0149
3123.00,0.0148
3122.00,0.0147
3121.00,0.0146
3120.00,0.0146
3119.00,0.0145
3118.00,0.0144
3117.00,0.0144
3116.00,0.0143
3115.00,0.0143
3114.00,0.0143
3113.00,0.0142
3112.00,0.0142
3111.00,0.0142
3110.00,0.0141
3109.00,0.0140
3108.00,0.0140
3107.00,0.0139
3106.00,0.0139
3105.00,0.0138
3104.00,0.0138
3103.00,0.0137
3102.00,0.0136
3101.00,0.0136
3100.00,0.0135
3099.00,0.0134
3098.00,0.0134
3097.00,0.0133
3096.00,0.0133
3095.00,0.0133
3094.00,0.0132
3093.00,0.0132
3092.00,0.0131
3091.00,0.0131
3090.00,0.0130
3089.00,0.0129
3088.00,0.0129
3087.00,0.0128
3086.00,0.0127
3085.00,0.0127
3084.00,0.0126
3083.00,0.0126
3082.00,0.0125
3081.00,0.0125
3080.00,0.0124
3079.00,0.0124
3078.00,0.0124
3077.00,0.0123
3076.00,0.0123
3075.00,0.0123
3074.00,0.0122
3073.00,0.0122
3072.00,0.0122
3071.00,0.0121
3070.00,0.0121
3069.00,0.0120
3068.00,0.0120
3067.00,0.0120
3066.00,0.0120
3065.00,0.0120
3064.00,0.0119
3063.00,0.0119
3062.00,0.0119
3061.00,0.0118
3060.00,0.0118
3059.00,0.0118
3058.00,0.0117
3057.00,0.0117
3056.00,0.0117
3055.00,0.0117
3054.00,0.0116
3053.00,0.0116
3052.00,0.0116
3051.00,0.0115
3050.00,0.0115
3049.00,0.0115
3048.00,0.0115
3047.00,0.0115
3046.00,0.0114
3045.00,0.0114
3044.00,0.0114
3043.00,0.0114
3042.00,0.0113
3041.00,0.0113
3040.00,0.0113
3039.00,0.0113
3038.00,0.0113
3037.00,0.0113
3036.00,0.0112
3035.00,0.0112
3034.00,0.0112
3033.00,0.0112
3032.00,0.0113
3031.00,0.0113
3030.00,0.0113
3029.00,0.0113
3028.00,0.0113
3027.00,0.0114
3026.00,0.0114
3025.00,0.0115
3024.00,0.0116
3023.00,0.0117
3022.00,0.0118
3021.00,0.0119
3020.00,0.0119
3019.00,0.0118
3018.00,0.0116
3017.00,0.0115
3016.00,0.0114
3015.00,0.0116
3014.00,0.0120
3013.00,0.0125
3012.00,0.0130
3011.00,0.0134
3010.00,0.0138
3009.00,0.0141
3008.00,0.0145
3007.00,0.0148
3006.00,0.0151
3005.00,0.0155
3004.00,0.0159
3003.00,0.0163
3002.00,0.0168
3001.00,0.0173
3000.00,0.0178
2999.00,0.0184
2998.00,0.0191
2997.00,0.0197
2996.00,0.0205
2995.00,0.0212
2994.00,0.0219
2993.00,0.0227
2992.00,0.0235
2991.00,0.0242
2990.00,0.0250
2989.00,0.0257
2988.00,0.0265
2987.00,0.0272
2986.00,0.0278
2985.00,0.0283
2984.00,0.0288
2983.00,0.0292
2982.00,0.0296
2981.00,0.0302
2980.00,0.0307
2979.00,0.0312
2978.00,0.0315
2977.00,0.0317
2976.00,0.0320
2975.00,0.0325
2974.00,0.0333
2973.00,0.0342
2972.00,0.0351
2971.00,0.0360
2970.00,0.0368
2969.00,0.0375
2968.00,0.0382
2967.00,0.0388
2966.00,0.0395
2965.00,0.0400
2964.00,0.0406
2963.00,0.0411
2962.00,0.0416
2961.00,0.0420
2960.00,0.0424
2959.00,0.0427
2958.00,0.0431
2957.00,0.0434
2956.00,0.0436
2955.00,0.0438
2954.00,0.0440
2953.00,0.0441
2952.00,0.0442
2951.00,0.0442
2950.00,0.0441
2949.00,0.0439
2948.00,0.0437
2947.00,0.0435
2946.00,0.0432
2945.00,0.0430
2944.00,0.0426
2943.00,0.0423
2942.00,0.0420
2941.00,0.0417
2940.00,0.0414
2939.00,0.0412
2938.00,0.0410
2937.00,0.0409
2936.00,0.0408
2935.00,0.0408
2934.00,0.0408
2933.00,0.0408
2932.00,0.0409
2931.00,0.0410
2930.00,0.0411
2929.00,0.0413
2928.00,0.0415
2927.00,0.0417
2926.00,0.0418
2925.00,0.0420
2924.00,0.0421
2923.00,0.0421
2922.00,0.0420
2921.00,0.0419
2920.00,0.0416
2919.00,0.0413
2918.00,0.0410
2917.00,0.0406
2916.00,0.0401
2915.00,0.0396
2914.00,0.0391
2913.00,0.0386
2912.00,0.0381
2911.00,0.0376
2910.00,0.0371
2909.00,0.0367
2908.00,0.0362
2907.00,0.0359
2906.00,0.0356
2905.00,0.0353
2904.00,0.0352
2903.00,0.0351
2902.00,0.0350
2901.00,0.0350
2900.00,0.0350
2899.00,0.0351
2898.00,0.0351
2897.00,0.0352
2896.00,0.0353
2895.00,0.0354
2894.00,0.0355
2893.00,0.0356
2892.00,0.0357
2891.00,0.0357
2890.00,0.0357
2889.00,0.0357
2888.00,0.0357
2887.00,0.0357
2886.00,0.0357
2885.00,0.0356
2884.00,0.0356
2883.00,0.0355
2882.00,0.0355
2881.00,0.0355
2880.00,0.0354
2879.00,0.0353
2878.00,0.0352
2877.00,0.0350
2876.00,0.0348
2875.00,0.0345
2874.00,0.0343
2873.00,0.0341
2872.00,0.0340
2871.00,0.0338
2870.00,0.0336
2869.00,0.0334
2868.00,0.0331
2867.00,0.0329
2866.00,0.0326
2865.00,0.0324
2864.00,0.0321
2863.00,0.0318
2862.00,0.0315
2861.00,0.0311
2860.00,0.0307
2859.00,0.0303
2858.00,0.0298
2857.00,0.0293
2856.00,0.0288
2855.00,0.0282
2854.00,0.0276
2853.00,0.0270
2852.00,0.0263
2851.00,0.0256
2850.00,0.0250
2849.00,0.0243
2848.00,0.0237
2847.00,0.0232
2846.00,0.0226
2845.00,0.0221
2844.00,0.0216
2843.00,0.0211
2842.00,0.0207
2841.00,0.0202
2840.00,0.0197
2839.00,0.0193
2838.00,0.0190
2837.00,0.0187
2836.00,0.0184
2835.00,0.0181
2834.00,0.0178
2833.00,0.0175
2832.00,0.0172
2831.00,0.0169
2830.00,0.0166
2829.00,0.0163
2828.00,0.0160
2827.00,0.0156
2826.00,0.0153
2825.00,0.0150
2824.00,0.0148
2823.00,0.0145
2822.00,0.0143
2821.00,0.0140
2820.00,0.0138
2819.00,0.0136
2818.00,0.0134
2817.00,0.0133
2816.00,0.0131
2815.00,0.0130
2814.00,0.0128
2813.00,0.0127
2812.00,0.0126
2811.00,0.0124
2810.00,0.0123
2809.00,0.0122
2808.00,0.0122
2807.00,0.0121
2806.00,0.0120
2805.00,0.0119
2804.00,0.0119
2803.00,0.0118
2802.00,0.0117
2801.00,0.0117
2800.00,0.0116
2799.00,0.0115
2798.00,0.0114
2797.00,0.0114
2796.00,0.0113
2795.00,0.0113
2794.00,0.0112
2793.00,0.0112
2792.00,0.0111
2791.00,0.0111
2790.00,0.0110
2789.00,0.0110
2788.00,0.0109
2787.00,0.0109
2786.00,0.0109
2785.00,0.0108
2784.00,0.0108
2783.00,0.0107
2782.00,0.0107
2781.00,0.0106
2780.00,0.0106
2779.00,0.0106
2778.00,0.0105
2777.00,0.0105
2776.00,0.0105
2775.00,0.0104
2774.00,0.0104
2773.00,0.0103
2772.00,0.0103
2771.00,0.0103
2770.00,0.0103
2769.00,0.0102
2768.00,0.0102
2767.00,0.0101
2766.00,0.0101
2765.00,0.0101
2764.00,0.0101
2763.00,0.0101
2762.00,0.0100
2761.00,0.0100
2760.00,0.0100
2759.00,0.0100
2758.00,0.0100
2757.00,0.0100
