Created as New Dataset,Sample 588 By YargerLab Date Thursday, June 05 2025
cm-1,A
4000.00,0.0030
3999.00,0.0030
3998.00,0.0030
3997.00,0.0030
3996.00,0.0030
3995.00,0.0030
3994.00,0.0030
3993.00,0.0030
3992.00,0.0030
3991.00,0.0030
3990.00,0.0030
3989.00,0.0030
3988.00,0.0030
3987.00,0.0030
3986.00,0.0030
3985.00,0.0030
3984.00,0.0030
3983.00,0.0030
3982.00,0.0030
3981.00,0.0030
3980.00,0.0030
3979.00,0.0030
3978.00,0.0030
3977.00,0.0030
3976.00,0.0030
3975.00,0.0030
3974.00,0.0030
3973.00,0.0030
3972.00,0.0030
3971.00,0.0030
3970.00,0.0030
3969.00,0.0030
3968.00,0.0030
3967.00,0.0030
3966.00,0.0030
3965.00,0.0030
3964.00,0.0030
3963.00,0.0030
3962.00,0.0030
3961.00,0.0030
3960.00,0.0030
3959.00,0.0030
3958.00,0.0030
3957.00,0.0030
3956.00,0.0030
3955.00,0.0030
3954.00,0.0030
3953.00,0.0030
3952.00,0.0030
3951.00,0.0030
3950.00,0.0030
3949.00,0.0030
3948.00,0.0030
3947.00,0.0030
3946.00,0.0030
3945.00,0.0030
3944.00,0.0030
3943.00,0.0030
3942.00,0.0030
3941.00,0.0030
3940.00,0.0030
3939.00,0.0030
3938.00,0.0030
3937.00,0.0030
3936.00,0.0029
3935.00,0.0029
3934.00,0.0029
3933.00,0.0029
3932.00,0.0029
3931.00,0.0029
3930.00,0.0030
3929.00,0.0030
3928.00,0.0030
3927.00,0.0030
3926.00,0.0030
3925.00,0.0030
3924.00,0.0030
3923.00,0.0030
3922.00,0.0029
3921.00,0.0029
3920.00,0.0029
3919.00,0.0029
3918.00,0.0029
3917.00,0.0029
3916.00,0.0029
3915.00,0.0029
3914.00,0.0029
3913.00,0.0029
3912.00,0.0029
3911.00,0.0029
3910.00,0.0029
3909.00,0.0029
3908.00,0.0029
3907.00,0.0029
3906.00,0.0030
3905.00,0.0030
3904.00,0.0029
3903.00,0.0029
3902.00,0.0029
3901.00,0.0028
3900.00,0.0028
3899.00,0.0028
3898.00,0.0029
3897.00,0.0029
3896.00,0.0029
3895.00,0.0029
3894.00,0.0029
3893.00,0.0029
3892.00,0.0030
3891.00,0.0030
3890.00,0.0029
3889.00,0.0029
3888.00,0.0029
3887.00,0.0028
3886.00,0.0028
3885.00,0.0028
3884.00,0.0028
3883.00,0.0028
3882.00,0.0028
3881.00,0.0028
3880.00,0.0028
3879.00,0.0029
3878.00,0.0029
3877.00,0.0029
3876.00,0.0028
3875.00,0.0028
3874.00,0.0028
3873.00,0.0028
3872.00,0.0028
3871.00,0.0028
3870.00,0.0028
3869.00,0.0028
3868.00,0.0028
3867.00,0.0028
3866.00,0.0028
3865.00,0.0028
3864.00,0.0028
3863.00,0.0029
3862.00,0.0029
3861.00,0.0028
3860.00,0.0028
3859.00,0.0028
3858.00,0.0029
3857.00,0.0029
3856.00,0.0029
3855.00,0.0028
3854.00,0.0028
3853.00,0.0028
3852.00,0.0028
3851.00,0.0028
3850.00,0.0028
3849.00,0.0028
3848.00,0.0028
3847.00,0.0028
3846.00,0.0029
3845.00,0.0029
3844.00,0.0029
3843.00,0.0029
3842.00,0.0028
3841.00,0.0028
3840.00,0.0028
3839.00,0.0028
3838.00,0.0028
3837.00,0.0028
3836.00,0.0028
3835.00,0.0028
3834.00,0.0028
3833.00,0.0028
3832.00,0.0028
3831.00,0.0028
3830.00,0.0028
3829.00,0.0028
3828.00,0.0028
3827.00,0.0028
3826.00,0.0028
3825.00,0.0028
3824.00,0.0028
3823.00,0.0028
3822.00,0.0028
3821.00,0.0028
3820.00,0.0028
3819.00,0.0028
3818.00,0.0028
3817.00,0.0027
3816.00,0.0027
3815.00,0.0028
3814.00,0.0028
3813.00,0.0027
3812.00,0.0027
3811.00,0.0027
3810.00,0.0028
3809.00,0.0028
3808.00,0.0028
3807.00,0.0028
3806.00,0.0028
3805.00,0.0029
3804.00,0.0028
3803.00,0.0028
3802.00,0.0028
3801.00,0.0028
3800.00,0.0028
3799.00,0.0028
3798.00,0.0028
3797.00,0.0028
3796.00,0.0028
3795.00,0.0027
3794.00,0.0027
3793.00,0.0028
3792.00,0.0028
3791.00,0.0028
3790.00,0.0028
3789.00,0.0028
3788.00,0.0028
3787.00,0.0028
3786.00,0.0028
3785.00,0.0028
3784.00,0.0028
3783.00,0.0028
3782.00,0.0028
3781.00,0.0028
3780.00,0.0028
3779.00,0.0028
3778.00,0.0028
3777.00,0.0028
3776.00,0.0027
3775.00,0.0027
3774.00,0.0028
3773.00,0.0028
3772.00,0.0028
3771.00,0.0028
3770.00,0.0027
3769.00,0.0027
3768.00,0.0027
3767.00,0.0027
3766.00,0.0027
3765.00,0.0027
3764.00,0.0028
3763.00,0.0028
3762.00,0.0028
3761.00,0.0027
3760.00,0.0027
3759.00,0.0028
3758.00,0.0028
3757.00,0.0028
3756.00,0.0028
3755.00,0.0027
3754.00,0.0027
3753.00,0.0027
3752.00,0.0027
3751.00,0.0026
3750.00,0.0026
3749.00,0.0026
3748.00,0.0026
3747.00,0.0026
3746.00,0.0026
3745.00,0.0026
3744.00,0.0026
3743.00,0.0026
3742.00,0.0026
3741.00,0.0025
3740.00,0.0025
3739.00,0.0025
3738.00,0.0025
3737.00,0.0025
3736.00,0.0025
3735.00,0.0025
3734.00,0.0025
3733.00,0.0024
3732.00,0.0024
3731.00,0.0025
3730.00,0.0025
3729.00,0.0025
3728.00,0.0025
3727.00,0.0025
3726.00,0.0025
3725.00,0.0026
3724.00,0.0026
3723.00,0.0026
3722.00,0.0026
3721.00,0.0025
3720.00,0.0025
3719.00,0.0025
3718.00,0.0025
3717.00,0.0025
3716.00,0.0025
3715.00,0.0026
3714.00,0.0026
3713.00,0.0026
3712.00,0.0026
3711.00,0.0026
3710.00,0.0026
3709.00,0.0026
3708.00,0.0025
3707.00,0.0025
3706.00,0.0025
3705.00,0.0025
3704.00,0.0025
3703.00,0.0025
3702.00,0.0024
3701.00,0.0024
3700.00,0.0025
3699.00,0.0025
3698.00,0.0025
3697.00,0.0025
3696.00,0.0026
3695.00,0.0026
3694.00,0.0026
3693.00,0.0025
3692.00,0.0025
3691.00,0.0024
3690.00,0.0024
3689.00,0.0023
3688.00,0.0023
3687.00,0.0023
3686.00,0.0023
3685.00,0.0023
3684.00,0.0024
3683.00,0.0024
3682.00,0.0024
3681.00,0.0024
3680.00,0.0024
3679.00,0.0024
3678.00,0.0023
3677.00,0.0023
3676.00,0.0022
3675.00,0.0022
3674.00,0.0022
3673.00,0.0022
3672.00,0.0021
3671.00,0.0021
3670.00,0.0021
3669.00,0.0021
3668.00,0.0022
3667.00,0.0021
3666.00,0.0021
3665.00,0.0021
3664.00,0.0022
3663.00,0.0022
3662.00,0.0022
3661.00,0.0022
3660.00,0.0022
3659.00,0.0022
3658.00,0.0021
3657.00,0.0021
3656.00,0.0021
3655.00,0.0021
3654.00,0.0021
3653.00,0.0021
3652.00,0.0021
3651.00,0.0020
3650.00,0.0020
3649.00,0.0021
3648.00,0.0021
3647.00,0.0021
3646.00,0.0022
3645.00,0.0022
3644.00,0.0021
3643.00,0.0021
3642.00,0.0021
3641.00,0.0022
3640.00,0.0022
3639.00,0.0022
3638.00,0.0022
3637.00,0.0022
3636.00,0.0022
3635.00,0.0022
3634.00,0.0023
3633.00,0.0023
3632.00,0.0024
3631.00,0.0023
3630.00,0.0023
3629.00,0.0023
3628.00,0.0023
3627.00,0.0023
3626.00,0.0023
3625.00,0.0023
3624.00,0.0023
3623.00,0.0023
3622.00,0.0023
3621.00,0.0023
3620.00,0.0023
3619.00,0.0023
3618.00,0.0024
3617.00,0.0024
3616.00,0.0024
3615.00,0.0024
3614.00,0.0024
3613.00,0.0024
3612.00,0.0024
3611.00,0.0023
3610.00,0.0023
3609.00,0.0023
3608.00,0.0023
3607.00,0.0023
3606.00,0.0023
3605.00,0.0023
3604.00,0.0023
3603.00,0.0024
3602.00,0.0024
3601.00,0.0024
3600.00,0.0025
3599.00,0.0024
3598.00,0.0024
3597.00,0.0024
3596.00,0.0024
3595.00,0.0024
3594.00,0.0024
3593.00,0.0024
3592.00,0.0024
3591.00,0.0024
3590.00,0.0024
3589.00,0.0024
3588.00,0.0024
3587.00,0.0025
3586.00,0.0025
3585.00,0.0025
3584.00,0.0025
3583.00,0.0025
3582.00,0.0025
3581.00,0.0025
3580.00,0.0025
3579.00,0.0025
3578.00,0.0026
3577.00,0.0026
3576.00,0.0026
3575.00,0.0025
3574.00,0.0025
3573.00,0.0025
3572.00,0.0025
3571.00,0.0025
3570.00,0.0025
3569.00,0.0025
3568.00,0.0025
3567.00,0.0026
3566.00,0.0026
3565.00,0.0026
3564.00,0.0026
3563.00,0.0026
3562.00,0.0026
3561.00,0.0026
3560.00,0.0027
3559.00,0.0027
3558.00,0.0027
3557.00,0.0028
3556.00,0.0028
3555.00,0.0028
3554.00,0.0028
3553.00,0.0028
3552.00,0.0028
3551.00,0.0028
3550.00,0.0028
3549.00,0.0028
3548.00,0.0028
3547.00,0.0028
3546.00,0.0028
3545.00,0.0029
3544.00,0.0029
3543.00,0.0030
3542.00,0.0030
3541.00,0.0030
3540.00,0.0030
3539.00,0.0030
3538.00,0.0031
3537.00,0.0031
3536.00,0.0031
3535.00,0.0031
3534.00,0.0032
3533.00,0.0032
3532.00,0.0032
3531.00,0.0033
3530.00,0.0033
3529.00,0.0033
3528.00,0.0033
3527.00,0.0033
3526.00,0.0033
3525.00,0.0033
3524.00,0.0033
3523.00,0.0034
3522.00,0.0034
3521.00,0.0035
3520.00,0.0036
3519.00,0.0036
3518.00,0.0037
3517.00,0.0037
3516.00,0.0037
3515.00,0.0037
3514.00,0.0038
3513.00,0.0038
3512.00,0.0039
3511.00,0.0040
3510.00,0.0040
3509.00,0.0041
3508.00,0.0042
3507.00,0.0042
3506.00,0.0043
3505.00,0.0043
3504.00,0.0044
3503.00,0.0045
3502.00,0.0045
3501.00,0.0046
3500.00,0.0047
3499.00,0.0047
3498.00,0.0048
3497.00,0.0049
3496.00,0.0051
3495.00,0.0052
3494.00,0.0053
3493.00,0.0055
3492.00,0.0056
3491.00,0.0057
3490.00,0.0058
3489.00,0.0059
3488.00,0.0060
3487.00,0.0061
3486.00,0.0063
3485.00,0.0064
3484.00,0.0066
3483.00,0.0067
3482.00,0.0069
3481.00,0.0070
3480.00,0.0072
3479.00,0.0074
3478.00,0.0075
3477.00,0.0077
3476.00,0.0079
3475.00,0.0081
3474.00,0.0084
3473.00,0.0086
3472.00,0.0089
3471.00,0.0092
3470.00,0.0095
3469.00,0.0099
3468.00,0.0103
3467.00,0.0108
3466.00,0.0113
3465.00,0.0119
3464.00,0.0126
3463.00,0.0134
3462.00,0.0143
3461.00,0.0154
3460.00,0.0165
3459.00,0.0176
3458.00,0.0189
3457.00,0.0202
3456.00,0.0215
3455.00,0.0228
3454.00,0.0240
3453.00,0.0250
3452.00,0.0258
3451.00,0.0263
3450.00,0.0264
3449.00,0.0263
3448.00,0.0259
3447.00,0.0253
3446.00,0.0245
3445.00,0.0235
3444.00,0.0224
3443.00,0.0213
3442.00,0.0202
3441.00,0.0192
3440.00,0.0182
3439.00,0.0173
3438.00,0.0164
3437.00,0.0156
3436.00,0.0149
3435.00,0.0142
3434.00,0.0136
3433.00,0.0130
3432.00,0.0125
3431.00,0.0120
3430.00,0.0116
3429.00,0.0112
3428.00,0.0109
3427.00,0.0105
3426.00,0.0102
3425.00,0.0099
3424.00,0.0096
3423.00,0.0093
3422.00,0.0091
3421.00,0.0089
3420.00,0.0088
3419.00,0.0086
3418.00,0.0085
3417.00,0.0083
3416.00,0.0081
3415.00,0.0080
3414.00,0.0079
3413.00,0.0078
3412.00,0.0077
3411.00,0.0077
3410.00,0.0076
3409.00,0.0075
3408.00,0.0074
3407.00,0.0074
3406.00,0.0073
3405.00,0.0073
3404.00,0.0072
3403.00,0.0072
3402.00,0.0072
3401.00,0.0072
3400.00,0.0071
3399.00,0.0071
3398.00,0.0070
3397.00,0.0070
3396.00,0.0070
3395.00,0.0070
3394.00,0.0069
3393.00,0.0069
3392.00,0.0069
3391.00,0.0069
3390.00,0.0069
3389.00,0.0069
3388.00,0.0069
3387.00,0.0069
3386.00,0.0068
3385.00,0.0069
3384.00,0.0069
3383.00,0.0069
3382.00,0.0069
3381.00,0.0069
3380.00,0.0069
3379.00,0.0069
3378.00,0.0069
3377.00,0.0069
3376.00,0.0069
3375.00,0.0069
3374.00,0.0069
3373.00,0.0069
3372.00,0.0069
3371.00,0.0069
3370.00,0.0068
3369.00,0.0069
3368.00,0.0069
3367.00,0.0069
3366.00,0.0069
3365.00,0.0069
3364.00,0.0069
3363.00,0.0069
3362.00,0.0069
3361.00,0.0069
3360.00,0.0069
3359.00,0.0069
3358.00,0.0069
3357.00,0.0070
3356.00,0.0070
3355.00,0.0070
3354.00,0.0071
3353.00,0.0071
3352.00,0.0071
3351.00,0.0071
3350.00,0.0072
3349.00,0.0072
3348.00,0.0072
3347.00,0.0072
3346.00,0.0072
3345.00,0.0072
3344.00,0.0072
3343.00,0.0072
3342.00,0.0073
3341.00,0.0073
3340.00,0.0073
3339.00,0.0073
3338.00,0.0073
3337.00,0.0074
3336.00,0.0074
3335.00,0.0074
3334.00,0.0075
3333.00,0.0075
3332.00,0.0075
3331.00,0.0076
3330.00,0.0076
3329.00,0.0076
3328.00,0.0076
3327.00,0.0076
3326.00,0.0076
3325.00,0.0077
3324.00,0.0077
3323.00,0.0078
3322.00,0.0078
3321.00,0.0078
3320.00,0.0079
3319.00,0.0079
3318.00,0.0079
3317.00,0.0079
3316.00,0.0080
3315.00,0.0080
3314.00,0.0081
3313.00,0.0081
3312.00,0.0082
3311.00,0.0082
3310.00,0.0082
3309.00,0.0082
3308.00,0.0082
3307.00,0.0083
3306.00,0.0083
3305.00,0.0084
3304.00,0.0085
3303.00,0.0085
3302.00,0.0086
3301.00,0.0086
3300.00,0.0087
3299.00,0.0087
3298.00,0.0087
3297.00,0.0087
3296.00,0.0088
3295.00,0.0088
3294.00,0.0088
3293.00,0.0089
3292.00,0.0090
3291.00,0.0091
3290.00,0.0092
3289.00,0.0092
3288.00,0.0093
3287.00,0.0094
3286.00,0.0095
3285.00,0.0095
3284.00,0.0096
3283.00,0.0096
3282.00,0.0096
3281.00,0.0097
3280.00,0.0098
3279.00,0.0098
3278.00,0.0099
3277.00,0.0099
3276.00,0.0099
3275.00,0.0100
3274.00,0.0100
3273.00,0.0100
3272.00,0.0101
3271.00,0.0101
3270.00,0.0102
3269.00,0.0103
3268.00,0.0105
3267.00,0.0106
3266.00,0.0107
3265.00,0.0107
3264.00,0.0108
3263.00,0.0108
3262.00,0.0108
3261.00,0.0109
3260.00,0.0109
3259.00,0.0110
3258.00,0.0110
3257.00,0.0110
3256.00,0.0110
3255.00,0.0111
3254.00,0.0111
3253.00,0.0111
3252.00,0.0112
3251.00,0.0112
3250.00,0.0112
3249.00,0.0112
3248.00,0.0112
3247.00,0.0113
3246.00,0.0113
3245.00,0.0114
3244.00,0.0115
3243.00,0.0115
3242.00,0.0116
3241.00,0.0116
3240.00,0.0117
3239.00,0.0117
3238.00,0.0118
3237.00,0.0118
3236.00,0.0118
3235.00,0.0119
3234.00,0.0119
3233.00,0.0120
3232.00,0.0121
3231.00,0.0122
3230.00,0.0122
3229.00,0.0123
3228.00,0.0123
3227.00,0.0123
3226.00,0.0123
3225.00,0.0124
3224.00,0.0124
3223.00,0.0125
3222.00,0.0125
3221.00,0.0126
3220.00,0.0126
3219.00,0.0127
3218.00,0.0127
3217.00,0.0127
3216.00,0.0128
3215.00,0.0128
3214.00,0.0128
3213.00,0.0129
3212.00,0.0130
3211.00,0.0130
3210.00,0.0131
3209.00,0.0132
3208.00,0.0132
3207.00,0.0133
3206.00,0.0133
3205.00,0.0133
3204.00,0.0134
3203.00,0.0135
3202.00,0.0135
3201.00,0.0136
3200.00,0.0136
3199.00,0.0137
3198.00,0.0137
3197.00,0.0137
3196.00,0.0138
3195.00,0.0138
3194.00,0.0139
3193.00,0.0139
3192.00,0.0139
3191.00,0.0140
3190.00,0.0140
3189.00,0.0140
3188.00,0.0141
3187.00,0.0141
3186.00,0.0142
3185.00,0.0142
3184.00,0.0142
3183.00,0.0143
3182.00,0.0143
3181.00,0.0143
3180.00,0.0143
3179.00,0.0144
3178.00,0.0144
3177.00,0.0145
3176.00,0.0145
3175.00,0.0146
3174.00,0.0146
3173.00,0.0146
3172.00,0.0146
3171.00,0.0146
3170.00,0.0146
3169.00,0.0146
3168.00,0.0146
3167.00,0.0147
3166.00,0.0147
3165.00,0.0147
3164.00,0.0148
3163.00,0.0148
3162.00,0.0148
3161.00,0.0148
3160.00,0.0148
3159.00,0.0149
3158.00,0.0149
3157.00,0.0148
3156.00,0.0148
3155.00,0.0147
3154.00,0.0146
3153.00,0.0146
3152.00,0.0147
3151.00,0.0149
3150.00,0.0150
3149.00,0.0151
3148.00,0.0152
3147.00,0.0152
3146.00,0.0153
3145.00,0.0154
3144.00,0.0154
3143.00,0.0154
3142.00,0.0154
3141.00,0.0154
3140.00,0.0154
3139.00,0.0155
3138.00,0.0156
3137.00,0.0157
3136.00,0.0158
3135.00,0.0158
3134.00,0.0158
3133.00,0.0158
3132.00,0.0158
3131.00,0.0159
3130.00,0.0159
3129.00,0.0159
3128.00,0.0160
3127.00,0.0160
3126.00,0.0160
3125.00,0.0160
3124.00,0.0160
3123.00,0.0160
3122.00,0.0160
3121.00,0.0159
3120.00,0.0159
3119.00,0.0160
3118.00,0.0160
3117.00,0.0161
3116.00,0.0162
3115.00,0.0163
3114.00,0.0163
3113.00,0.0164
3112.00,0.0164
3111.00,0.0164
3110.00,0.0164
3109.00,0.0165
3108.00,0.0166
3107.00,0.0166
3106.00,0.0167
3105.00,0.0167
3104.00,0.0167
3103.00,0.0168
3102.00,0.0168
3101.00,0.0168
3100.00,0.0168
3099.00,0.0168
3098.00,0.0169
3097.00,0.0169
3096.00,0.0169
3095.00,0.0169
3094.00,0.0169
3093.00,0.0169
3092.00,0.0169
3091.00,0.0169
3090.00,0.0169
3089.00,0.0169
3088.00,0.0169
3087.00,0.0169
3086.00,0.0170
3085.00,0.0170
3084.00,0.0170
3083.00,0.0171
3082.00,0.0171
3081.00,0.0172
3080.00,0.0173
3079.00,0.0173
3078.00,0.0175
3077.00,0.0176
3076.00,0.0177
3075.00,0.0179
3074.00,0.0181
3073.00,0.0182
3072.00,0.0183
3071.00,0.0183
3070.00,0.0183
3069.00,0.0183
3068.00,0.0182
3067.00,0.0180
3066.00,0.0179
3065.00,0.0178
3064.00,0.0176
3063.00,0.0174
3062.00,0.0171
3061.00,0.0169
3060.00,0.0167
3059.00,0.0165
3058.00,0.0163
3057.00,0.0162
3056.00,0.0161
3055.00,0.0159
3054.00,0.0159
3053.00,0.0158
3052.00,0.0157
3051.00,0.0156
3050.00,0.0155
3049.00,0.0155
3048.00,0.0154
3047.00,0.0154
3046.00,0.0153
3045.00,0.0152
3044.00,0.0152
3043.00,0.0151
3042.00,0.0151
3041.00,0.0151
3040.00,0.0151
3039.00,0.0151
3038.00,0.0151
3037.00,0.0150
3036.00,0.0150
3035.00,0.0149
3034.00,0.0149
3033.00,0.0149
3032.00,0.0149
3031.00,0.0148
3030.00,0.0148
3029.00,0.0147
3028.00,0.0147
3027.00,0.0146
3026.00,0.0145
3025.00,0.0144
3024.00,0.0144
3023.00,0.0143
3022.00,0.0142
3021.00,0.0142
3020.00,0.0141
3019.00,0.0141
3018.00,0.0140
3017.00,0.0139
3016.00,0.0138
3015.00,0.0138
3014.00,0.0137
3013.00,0.0137
3012.00,0.0136
3011.00,0.0136
3010.00,0.0136
3009.00,0.0135
3008.00,0.0135
3007.00,0.0134
3006.00,0.0134
3005.00,0.0133
3004.00,0.0132
3003.00,0.0132
3002.00,0.0132
3001.00,0.0131
3000.00,0.0131
2999.00,0.0132
2998.00,0.0132
2997.00,0.0133
2996.00,0.0134
2995.00,0.0135
2994.00,0.0136
2993.00,0.0137
2992.00,0.0139
2991.00,0.0140
2990.00,0.0141
2989.00,0.0142
2988.00,0.0143
2987.00,0.0143
2986.00,0.0143
2985.00,0.0142
2984.00,0.0140
2983.00,0.0139
2982.00,0.0139
2981.00,0.0141
2980.00,0.0144
2979.00,0.0148
2978.00,0.0152
2977.00,0.0155
2976.00,0.0158
2975.00,0.0160
2974.00,0.0162
2973.00,0.0162
2972.00,0.0163
2971.00,0.0164
2970.00,0.0166
2969.00,0.0168
2968.00,0.0171
2967.00,0.0174
2966.00,0.0178
2965.00,0.0183
2964.00,0.0188
2963.00,0.0194
2962.00,0.0202
2961.00,0.0209
2960.00,0.0217
2959.00,0.0224
2958.00,0.0230
2957.00,0.0236
2956.00,0.0240
2955.00,0.0243
2954.00,0.0245
2953.00,0.0246
2952.00,0.0245
2951.00,0.0243
2950.00,0.0239
2949.00,0.0235
2948.00,0.0231
2947.00,0.0227
2946.00,0.0225
2945.00,0.0226
2944.00,0.0228
2943.00,0.0231
2942.00,0.0236
2941.00,0.0242
2940.00,0.0249
2939.00,0.0256
2938.00,0.0263
2937.00,0.0271
2936.00,0.0280
2935.00,0.0289
2934.00,0.0299
2933.00,0.0310
2932.00,0.0321
2931.00,0.0333
2930.00,0.0344
2929.00,0.0355
2928.00,0.0364
2927.00,0.0370
2926.00,0.0374
2925.00,0.0375
2924.00,0.0374
2923.00,0.0371
2922.00,0.0367
2921.00,0.0361
2920.00,0.0353
2919.00,0.0345
2918.00,0.0337
2917.00,0.0328
2916.00,0.0320
2915.00,0.0311
2914.00,0.0302
2913.00,0.0293
2912.00,0.0284
2911.00,0.0276
2910.00,0.0267
2909.00,0.0258
2908.00,0.0250
2907.00,0.0242
2906.00,0.0235
2905.00,0.0229
2904.00,0.0224
2903.00,0.0219
2902.00,0.0216
2901.00,0.0212
2900.00,0.0209
2899.00,0.0206
2898.00,0.0203
2897.00,0.0201
2896.00,0.0198
2895.00,0.0196
2894.00,0.0194
2893.00,0.0193
2892.00,0.0191
2891.00,0.0189
2890.00,0.0188
2889.00,0.0188
2888.00,0.0187
2887.00,0.0187
2886.00,0.0187
2885.00,0.0186
2884.00,0.0186
2883.00,0.0186
2882.00,0.0186
2881.00,0.0187
2880.00,0.0188
2879.00,0.0189
2878.00,0.0191
2877.00,0.0194
2876.00,0.0197
2875.00,0.0201
2874.00,0.0205
2873.00,0.0209
2872.00,0.0212
2871.00,0.0214
2870.00,0.0214
2869.00,0.0212
2868.00,0.0208
2867.00,0.0205
2866.00,0.0203
2865.00,0.0203
2864.00,0.0205
2863.00,0.0208
2862.00,0.0213
2861.00,0.0219
2860.00,0.0225
2859.00,0.0229
2858.00,0.0233
2857.00,0.0234
2856.00,0.0233
2855.00,0.0230
2854.00,0.0226
2853.00,0.0220
2852.00,0.0213
2851.00,0.0206
2850.00,0.0199
2849.00,0.0193
2848.00,0.0188
2847.00,0.0183
2846.00,0.0180
2845.00,0.0178
2844.00,0.0176
2843.00,0.0174
2842.00,0.0172
2841.00,0.0170
2840.00,0.0168
2839.00,0.0166
2838.00,0.0166
2837.00,0.0167
2836.00,0.0168
2835.00,0.0169
2834.00,0.0169
2833.00,0.0167
2832.00,0.0165
2831.00,0.0161
2830.00,0.0157
2829.00,0.0152
2828.00,0.0147
2827.00,0.0142
2826.00,0.0138
2825.00,0.0135
2824.00,0.0132
2823.00,0.0129
2822.00,0.0126
2821.00,0.0124
2820.00,0.0123
2819.00,0.0122
2818.00,0.0120
2817.00,0.0119
2816.00,0.0118
2815.00,0.0117
2814.00,0.0116
2813.00,0.0116
2812.00,0.0115
2811.00,0.0114
2810.00,0.0114
2809.00,0.0113
2808.00,0.0112
2807.00,0.0112
2806.00,0.0112
2805.00,0.0111
2804.00,0.0111
2803.00,0.0111
2802.00,0.0111
2801.00,0.0110
2800.00,0.0110
2799.00,0.0109
2798.00,0.0109
2797.00,0.0109
2796.00,0.0108
2795.00,0.0108
2794.00,0.0108
2793.00,0.0107
2792.00,0.0107
2791.00,0.0107
2790.00,0.0107
2789.00,0.0107
2788.00,0.0107
2787.00,0.0107
2786.00,0.0108
2785.00,0.0108
2784.00,0.0108
2783.00,0.0108
2782.00,0.0108
2781.00,0.0108
2780.00,0.0109
2779.00,0.0109
2778.00,0.0109
2777.00,0.0109
2776.00,0.0109
2775.00,0.0109
2774.00,0.0110
2773.00,0.0110
2772.00,0.0111
2771.00,0.0111
2770.00,0.0112
2769.00,0.0112
2768.00,0.0112
2767.00,0.0113
2766.00,0.0113
2765.00,0.0113
2764.00,0.0113
2763.00,0.0113
2762.00,0.0114
2761.00,0.0114
2760.00,0.0114
2759.00,0.0115
2758.00,0.0115
2757.00,0.0115
