Created as New Dataset,Sample 015 By YargerLab Date Thursday, August 07 2025
cm-1,A
4000.00,0.0071
3999.00,0.0072
3998.00,0.0072
3997.00,0.0072
3996.00,0.0071
3995.00,0.0071
3994.00,0.0071
3993.00,0.0071
3992.00,0.0071
3991.00,0.0071
3990.00,0.0071
3989.00,0.0071
3988.00,0.0071
3987.00,0.0071
3986.00,0.0071
3985.00,0.0071
3984.00,0.0071
3983.00,0.0071
3982.00,0.0071
3981.00,0.0071
3980.00,0.0071
3979.00,0.0071
3978.00,0.0071
3977.00,0.0071
3976.00,0.0071
3975.00,0.0071
3974.00,0.0071
3973.00,0.0071
3972.00,0.0071
3971.00,0.0071
3970.00,0.0071
3969.00,0.0071
3968.00,0.0071
3967.00,0.0071
3966.00,0.0072
3965.00,0.0072
3964.00,0.0071
3963.00,0.0071
3962.00,0.0071
3961.00,0.0071
3960.00,0.0071
3959.00,0.0071
3958.00,0.0071
3957.00,0.0071
3956.00,0.0071
3955.00,0.0071
3954.00,0.0071
3953.00,0.0071
3952.00,0.0071
3951.00,0.0071
3950.00,0.0071
3949.00,0.0071
3948.00,0.0071
3947.00,0.0071
3946.00,0.0071
3945.00,0.0071
3944.00,0.0071
3943.00,0.0071
3942.00,0.0071
3941.00,0.0071
3940.00,0.0071
3939.00,0.0071
3938.00,0.0071
3937.00,0.0071
3936.00,0.0071
3935.00,0.0071
3934.00,0.0071
3933.00,0.0071
3932.00,0.0071
3931.00,0.0071
3930.00,0.0071
3929.00,0.0071
3928.00,0.0071
3927.00,0.0071
3926.00,0.0071
3925.00,0.0071
3924.00,0.0071
3923.00,0.0071
3922.00,0.0071
3921.00,0.0071
3920.00,0.0071
3919.00,0.0071
3918.00,0.0071
3917.00,0.0071
3916.00,0.0071
3915.00,0.0071
3914.00,0.0071
3913.00,0.0071
3912.00,0.0071
3911.00,0.0071
3910.00,0.0071
3909.00,0.0071
3908.00,0.0071
3907.00,0.0071
3906.00,0.0071
3905.00,0.0071
3904.00,0.0071
3903.00,0.0071
3902.00,0.0071
3901.00,0.0071
3900.00,0.0071
3899.00,0.0071
3898.00,0.0071
3897.00,0.0071
3896.00,0.0071
3895.00,0.0071
3894.00,0.0071
3893.00,0.0071
3892.00,0.0071
3891.00,0.0071
3890.00,0.0071
3889.00,0.0071
3888.00,0.0071
3887.00,0.0071
3886.00,0.0071
3885.00,0.0071
3884.00,0.0071
3883.00,0.0071
3882.00,0.0071
3881.00,0.0071
3880.00,0.0071
3879.00,0.0071
3878.00,0.0071
3877.00,0.0071
3876.00,0.0070
3875.00,0.0070
3874.00,0.0070
3873.00,0.0070
3872.00,0.0070
3871.00,0.0070
3870.00,0.0070
3869.00,0.0070
3868.00,0.0071
3867.00,0.0071
3866.00,0.0071
3865.00,0.0070
3864.00,0.0070
3863.00,0.0070
3862.00,0.0070
3861.00,0.0070
3860.00,0.0070
3859.00,0.0070
3858.00,0.0070
3857.00,0.0071
3856.00,0.0071
3855.00,0.0071
3854.00,0.0071
3853.00,0.0071
3852.00,0.0071
3851.00,0.0071
3850.00,0.0071
3849.00,0.0071
3848.00,0.0070
3847.00,0.0070
3846.00,0.0070
3845.00,0.0070
3844.00,0.0070
3843.00,0.0070
3842.00,0.0070
3841.00,0.0070
3840.00,0.0070
3839.00,0.0070
3838.00,0.0070
3837.00,0.0070
3836.00,0.0070
3835.00,0.0070
3834.00,0.0070
3833.00,0.0070
3832.00,0.0070
3831.00,0.0070
3830.00,0.0071
3829.00,0.0071
3828.00,0.0070
3827.00,0.0070
3826.00,0.0070
3825.00,0.0070
3824.00,0.0070
3823.00,0.0070
3822.00,0.0070
3821.00,0.0069
3820.00,0.0070
3819.00,0.0070
3818.00,0.0070
3817.00,0.0070
3816.00,0.0070
3815.00,0.0070
3814.00,0.0070
3813.00,0.0070
3812.00,0.0070
3811.00,0.0070
3810.00,0.0070
3809.00,0.0070
3808.00,0.0070
3807.00,0.0070
3806.00,0.0070
3805.00,0.0070
3804.00,0.0070
3803.00,0.0070
3802.00,0.0070
3801.00,0.0070
3800.00,0.0070
3799.00,0.0070
3798.00,0.0070
3797.00,0.0070
3796.00,0.0070
3795.00,0.0070
3794.00,0.0070
3793.00,0.0070
3792.00,0.0070
3791.00,0.0070
3790.00,0.0070
3789.00,0.0070
3788.00,0.0070
3787.00,0.0070
3786.00,0.0070
3785.00,0.0070
3784.00,0.0070
3783.00,0.0070
3782.00,0.0070
3781.00,0.0070
3780.00,0.0070
3779.00,0.0070
3778.00,0.0070
3777.00,0.0070
3776.00,0.0070
3775.00,0.0070
3774.00,0.0070
3773.00,0.0070
3772.00,0.0070
3771.00,0.0070
3770.00,0.0070
3769.00,0.0070
3768.00,0.0070
3767.00,0.0070
3766.00,0.0070
3765.00,0.0070
3764.00,0.0070
3763.00,0.0070
3762.00,0.0070
3761.00,0.0069
3760.00,0.0069
3759.00,0.0069
3758.00,0.0069
3757.00,0.0069
3756.00,0.0069
3755.00,0.0069
3754.00,0.0069
3753.00,0.0069
3752.00,0.0069
3751.00,0.0069
3750.00,0.0069
3749.00,0.0069
3748.00,0.0070
3747.00,0.0070
3746.00,0.0070
3745.00,0.0070
3744.00,0.0070
3743.00,0.0070
3742.00,0.0070
3741.00,0.0069
3740.00,0.0069
3739.00,0.0069
3738.00,0.0070
3737.00,0.0070
3736.00,0.0069
3735.00,0.0069
3734.00,0.0069
3733.00,0.0069
3732.00,0.0069
3731.00,0.0069
3730.00,0.0069
3729.00,0.0069
3728.00,0.0069
3727.00,0.0069
3726.00,0.0069
3725.00,0.0069
3724.00,0.0069
3723.00,0.0068
3722.00,0.0068
3721.00,0.0068
3720.00,0.0068
3719.00,0.0068
3718.00,0.0067
3717.00,0.0068
3716.00,0.0068
3715.00,0.0068
3714.00,0.0069
3713.00,0.0069
3712.00,0.0069
3711.00,0.0068
3710.00,0.0068
3709.00,0.0068
3708.00,0.0068
3707.00,0.0068
3706.00,0.0068
3705.00,0.0068
3704.00,0.0068
3703.00,0.0068
3702.00,0.0068
3701.00,0.0068
3700.00,0.0068
3699.00,0.0068
3698.00,0.0068
3697.00,0.0068
3696.00,0.0068
3695.00,0.0068
3694.00,0.0068
3693.00,0.0069
3692.00,0.0069
3691.00,0.0069
3690.00,0.0069
3689.00,0.0069
3688.00,0.0069
3687.00,0.0070
3686.00,0.0070
3685.00,0.0071
3684.00,0.0071
3683.00,0.0071
3682.00,0.0071
3681.00,0.0072
3680.00,0.0072
3679.00,0.0072
3678.00,0.0072
3677.00,0.0072
3676.00,0.0071
3675.00,0.0072
3674.00,0.0072
3673.00,0.0072
3672.00,0.0072
3671.00,0.0072
3670.00,0.0073
3669.00,0.0073
3668.00,0.0073
3667.00,0.0073
3666.00,0.0073
3665.00,0.0073
3664.00,0.0073
3663.00,0.0073
3662.00,0.0073
3661.00,0.0073
3660.00,0.0074
3659.00,0.0074
3658.00,0.0074
3657.00,0.0074
3656.00,0.0074
3655.00,0.0074
3654.00,0.0075
3653.00,0.0075
3652.00,0.0074
3651.00,0.0074
3650.00,0.0074
3649.00,0.0075
3648.00,0.0076
3647.00,0.0077
3646.00,0.0078
3645.00,0.0078
3644.00,0.0078
3643.00,0.0078
3642.00,0.0078
3641.00,0.0079
3640.00,0.0079
3639.00,0.0079
3638.00,0.0079
3637.00,0.0079
3636.00,0.0080
3635.00,0.0080
3634.00,0.0080
3633.00,0.0080
3632.00,0.0081
3631.00,0.0081
3630.00,0.0081
3629.00,0.0082
3628.00,0.0083
3627.00,0.0083
3626.00,0.0084
3625.00,0.0084
3624.00,0.0084
3623.00,0.0084
3622.00,0.0084
3621.00,0.0085
3620.00,0.0085
3619.00,0.0085
3618.00,0.0086
3617.00,0.0087
3616.00,0.0087
3615.00,0.0087
3614.00,0.0087
3613.00,0.0088
3612.00,0.0089
3611.00,0.0089
3610.00,0.0090
3609.00,0.0091
3608.00,0.0092
3607.00,0.0092
3606.00,0.0093
3605.00,0.0093
3604.00,0.0093
3603.00,0.0093
3602.00,0.0093
3601.00,0.0094
3600.00,0.0095
3599.00,0.0095
3598.00,0.0096
3597.00,0.0096
3596.00,0.0097
3595.00,0.0097
3594.00,0.0098
3593.00,0.0099
3592.00,0.0100
3591.00,0.0100
3590.00,0.0101
3589.00,0.0102
3588.00,0.0102
3587.00,0.0103
3586.00,0.0105
3585.00,0.0105
3584.00,0.0106
3583.00,0.0107
3582.00,0.0107
3581.00,0.0108
3580.00,0.0108
3579.00,0.0109
3578.00,0.0109
3577.00,0.0110
3576.00,0.0111
3575.00,0.0112
3574.00,0.0113
3573.00,0.0114
3572.00,0.0114
3571.00,0.0115
3570.00,0.0116
3569.00,0.0117
3568.00,0.0118
3567.00,0.0119
3566.00,0.0121
3565.00,0.0121
3564.00,0.0122
3563.00,0.0122
3562.00,0.0122
3561.00,0.0122
3560.00,0.0123
3559.00,0.0123
3558.00,0.0124
3557.00,0.0125
3556.00,0.0125
3555.00,0.0125
3554.00,0.0126
3553.00,0.0126
3552.00,0.0127
3551.00,0.0128
3550.00,0.0128
3549.00,0.0129
3548.00,0.0130
3547.00,0.0131
3546.00,0.0131
3545.00,0.0132
3544.00,0.0133
3543.00,0.0133
3542.00,0.0133
3541.00,0.0133
3540.00,0.0133
3539.00,0.0134
3538.00,0.0134
3537.00,0.0135
3536.00,0.0135
3535.00,0.0136
3534.00,0.0136
3533.00,0.0136
3532.00,0.0136
3531.00,0.0137
3530.00,0.0137
3529.00,0.0138
3528.00,0.0138
3527.00,0.0139
3526.00,0.0140
3525.00,0.0140
3524.00,0.0141
3523.00,0.0141
3522.00,0.0141
3521.00,0.0141
3520.00,0.0142
3519.00,0.0142
3518.00,0.0142
3517.00,0.0143
3516.00,0.0143
3515.00,0.0143
3514.00,0.0144
3513.00,0.0144
3512.00,0.0144
3511.00,0.0145
3510.00,0.0145
3509.00,0.0146
3508.00,0.0146
3507.00,0.0146
3506.00,0.0147
3505.00,0.0147
3504.00,0.0148
3503.00,0.0148
3502.00,0.0149
3501.00,0.0149
3500.00,0.0150
3499.00,0.0150
3498.00,0.0150
3497.00,0.0151
3496.00,0.0151
3495.00,0.0152
3494.00,0.0152
3493.00,0.0152
3492.00,0.0153
3491.00,0.0153
3490.00,0.0154
3489.00,0.0154
3488.00,0.0155
3487.00,0.0155
3486.00,0.0156
3485.00,0.0156
3484.00,0.0156
3483.00,0.0156
3482.00,0.0157
3481.00,0.0157
3480.00,0.0158
3479.00,0.0158
3478.00,0.0159
3477.00,0.0159
3476.00,0.0160
3475.00,0.0160
3474.00,0.0160
3473.00,0.0161
3472.00,0.0161
3471.00,0.0162
3470.00,0.0162
3469.00,0.0162
3468.00,0.0162
3467.00,0.0162
3466.00,0.0163
3465.00,0.0163
3464.00,0.0163
3463.00,0.0163
3462.00,0.0164
3461.00,0.0164
3460.00,0.0165
3459.00,0.0165
3458.00,0.0165
3457.00,0.0165
3456.00,0.0166
3455.00,0.0166
3454.00,0.0166
3453.00,0.0166
3452.00,0.0166
3451.00,0.0166
3450.00,0.0166
3449.00,0.0166
3448.00,0.0166
3447.00,0.0167
3446.00,0.0167
3445.00,0.0168
3444.00,0.0167
3443.00,0.0167
3442.00,0.0167
3441.00,0.0167
3440.00,0.0167
3439.00,0.0168
3438.00,0.0168
3437.00,0.0168
3436.00,0.0168
3435.00,0.0168
3434.00,0.0168
3433.00,0.0168
3432.00,0.0168
3431.00,0.0168
3430.00,0.0168
3429.00,0.0168
3428.00,0.0168
3427.00,0.0168
3426.00,0.0168
3425.00,0.0168
3424.00,0.0168
3423.00,0.0168
3422.00,0.0168
3421.00,0.0169
3420.00,0.0169
3419.00,0.0168
3418.00,0.0168
3417.00,0.0168
3416.00,0.0168
3415.00,0.0168
3414.00,0.0168
3413.00,0.0168
3412.00,0.0168
3411.00,0.0168
3410.00,0.0168
3409.00,0.0167
3408.00,0.0167
3407.00,0.0167
3406.00,0.0167
3405.00,0.0167
3404.00,0.0167
3403.00,0.0167
3402.00,0.0167
3401.00,0.0167
3400.00,0.0167
3399.00,0.0167
3398.00,0.0168
3397.00,0.0168
3396.00,0.0168
3395.00,0.0168
3394.00,0.0167
3393.00,0.0167
3392.00,0.0167
3391.00,0.0167
3390.00,0.0168
3389.00,0.0168
3388.00,0.0169
3387.00,0.0169
3386.00,0.0169
3385.00,0.0169
3384.00,0.0169
3383.00,0.0169
3382.00,0.0169
3381.00,0.0169
3380.00,0.0169
3379.00,0.0169
3378.00,0.0169
3377.00,0.0169
3376.00,0.0169
3375.00,0.0170
3374.00,0.0170
3373.00,0.0169
3372.00,0.0169
3371.00,0.0168
3370.00,0.0167
3369.00,0.0167
3368.00,0.0167
3367.00,0.0168
3366.00,0.0169
3365.00,0.0170
3364.00,0.0170
3363.00,0.0170
3362.00,0.0170
3361.00,0.0171
3360.00,0.0171
3359.00,0.0172
3358.00,0.0172
3357.00,0.0173
3356.00,0.0173
3355.00,0.0172
3354.00,0.0172
3353.00,0.0170
3352.00,0.0169
3351.00,0.0169
3350.00,0.0170
3349.00,0.0171
3348.00,0.0172
3347.00,0.0173
3346.00,0.0172
3345.00,0.0172
3344.00,0.0172
3343.00,0.0171
3342.00,0.0171
3341.00,0.0170
3340.00,0.0169
3339.00,0.0169
3338.00,0.0169
3337.00,0.0170
3336.00,0.0171
3335.00,0.0172
3334.00,0.0172
3333.00,0.0172
3332.00,0.0172
3331.00,0.0172
3330.00,0.0171
3329.00,0.0170
3328.00,0.0169
3327.00,0.0169
3326.00,0.0168
3325.00,0.0168
3324.00,0.0169
3323.00,0.0170
3322.00,0.0170
3321.00,0.0171
3320.00,0.0171
3319.00,0.0171
3318.00,0.0171
3317.00,0.0171
3316.00,0.0170
3315.00,0.0170
3314.00,0.0170
3313.00,0.0169
3312.00,0.0168
3311.00,0.0167
3310.00,0.0166
3309.00,0.0164
3308.00,0.0163
3307.00,0.0163
3306.00,0.0164
3305.00,0.0165
3304.00,0.0166
3303.00,0.0168
3302.00,0.0169
3301.00,0.0169
3300.00,0.0169
3299.00,0.0169
3298.00,0.0168
3297.00,0.0167
3296.00,0.0166
3295.00,0.0166
3294.00,0.0166
3293.00,0.0166
3292.00,0.0166
3291.00,0.0167
3290.00,0.0168
3289.00,0.0168
3288.00,0.0168
3287.00,0.0168
3286.00,0.0168
3285.00,0.0168
3284.00,0.0168
3283.00,0.0168
3282.00,0.0168
3281.00,0.0168
3280.00,0.0168
3279.00,0.0167
3278.00,0.0167
3277.00,0.0167
3276.00,0.0166
3275.00,0.0166
3274.00,0.0165
3273.00,0.0165
3272.00,0.0165
3271.00,0.0165
3270.00,0.0165
3269.00,0.0166
3268.00,0.0166
3267.00,0.0166
3266.00,0.0166
3265.00,0.0166
3264.00,0.0166
3263.00,0.0166
3262.00,0.0166
3261.00,0.0166
3260.00,0.0166
3259.00,0.0166
3258.00,0.0166
3257.00,0.0166
3256.00,0.0165
3255.00,0.0166
3254.00,0.0166
3253.00,0.0166
3252.00,0.0166
3251.00,0.0166
3250.00,0.0165
3249.00,0.0165
3248.00,0.0164
3247.00,0.0164
3246.00,0.0164
3245.00,0.0165
3244.00,0.0165
3243.00,0.0166
3242.00,0.0166
3241.00,0.0166
3240.00,0.0166
3239.00,0.0166
3238.00,0.0166
3237.00,0.0165
3236.00,0.0165
3235.00,0.0164
3234.00,0.0164
3233.00,0.0164
3232.00,0.0164
3231.00,0.0164
3230.00,0.0165
3229.00,0.0165
3228.00,0.0165
3227.00,0.0165
3226.00,0.0165
3225.00,0.0165
3224.00,0.0165
3223.00,0.0165
3222.00,0.0165
3221.00,0.0165
3220.00,0.0165
3219.00,0.0164
3218.00,0.0164
3217.00,0.0164
3216.00,0.0164
3215.00,0.0164
3214.00,0.0164
3213.00,0.0164
3212.00,0.0164
3211.00,0.0164
3210.00,0.0163
3209.00,0.0163
3208.00,0.0163
3207.00,0.0163
3206.00,0.0163
3205.00,0.0163
3204.00,0.0163
3203.00,0.0162
3202.00,0.0162
3201.00,0.0162
3200.00,0.0162
3199.00,0.0162
3198.00,0.0162
3197.00,0.0162
3196.00,0.0162
3195.00,0.0161
3194.00,0.0161
3193.00,0.0161
3192.00,0.0161
3191.00,0.0162
3190.00,0.0162
3189.00,0.0162
3188.00,0.0161
3187.00,0.0161
3186.00,0.0161
3185.00,0.0161
3184.00,0.0161
3183.00,0.0161
3182.00,0.0161
3181.00,0.0161
3180.00,0.0161
3179.00,0.0161
3178.00,0.0161
3177.00,0.0162
3176.00,0.0162
3175.00,0.0162
3174.00,0.0162
3173.00,0.0161
3172.00,0.0161
3171.00,0.0161
3170.00,0.0161
3169.00,0.0161
3168.00,0.0161
3167.00,0.0161
3166.00,0.0160
3165.00,0.0160
3164.00,0.0160
3163.00,0.0160
3162.00,0.0159
3161.00,0.0159
3160.00,0.0159
3159.00,0.0159
3158.00,0.0159
3157.00,0.0159
3156.00,0.0159
3155.00,0.0159
3154.00,0.0158
3153.00,0.0158
3152.00,0.0158
3151.00,0.0158
3150.00,0.0158
3149.00,0.0158
3148.00,0.0158
3147.00,0.0157
3146.00,0.0157
3145.00,0.0157
3144.00,0.0157
3143.00,0.0157
3142.00,0.0157
3141.00,0.0157
3140.00,0.0156
3139.00,0.0156
3138.00,0.0156
3137.00,0.0156
3136.00,0.0155
3135.00,0.0155
3134.00,0.0155
3133.00,0.0155
3132.00,0.0156
3131.00,0.0156
3130.00,0.0156
3129.00,0.0156
3128.00,0.0156
3127.00,0.0156
3126.00,0.0156
3125.00,0.0155
3124.00,0.0155
3123.00,0.0155
3122.00,0.0155
3121.00,0.0155
3120.00,0.0155
3119.00,0.0155
3118.00,0.0154
3117.00,0.0154
3116.00,0.0154
3115.00,0.0154
3114.00,0.0154
3113.00,0.0154
3112.00,0.0153
3111.00,0.0153
3110.00,0.0153
3109.00,0.0152
3108.00,0.0152
3107.00,0.0152
3106.00,0.0152
3105.00,0.0152
3104.00,0.0152
3103.00,0.0151
3102.00,0.0151
3101.00,0.0151
3100.00,0.0151
3099.00,0.0151
3098.00,0.0151
3097.00,0.0151
3096.00,0.0151
3095.00,0.0151
3094.00,0.0151
3093.00,0.0151
3092.00,0.0151
3091.00,0.0151
3090.00,0.0151
3089.00,0.0151
3088.00,0.0151
3087.00,0.0151
3086.00,0.0151
3085.00,0.0151
3084.00,0.0151
3083.00,0.0151
3082.00,0.0151
3081.00,0.0151
3080.00,0.0151
3079.00,0.0151
3078.00,0.0151
3077.00,0.0151
3076.00,0.0151
3075.00,0.0151
3074.00,0.0151
3073.00,0.0151
3072.00,0.0151
3071.00,0.0150
3070.00,0.0150
3069.00,0.0150
3068.00,0.0150
3067.00,0.0149
3066.00,0.0149
3065.00,0.0149
3064.00,0.0148
3063.00,0.0148
3062.00,0.0148
3061.00,0.0147
3060.00,0.0147
3059.00,0.0147
3058.00,0.0147
3057.00,0.0147
3056.00,0.0147
3055.00,0.0147
3054.00,0.0147
3053.00,0.0146
3052.00,0.0146
3051.00,0.0146
3050.00,0.0146
3049.00,0.0145
3048.00,0.0146
3047.00,0.0146
3046.00,0.0145
3045.00,0.0145
3044.00,0.0145
3043.00,0.0145
3042.00,0.0145
3041.00,0.0145
3040.00,0.0145
3039.00,0.0145
3038.00,0.0145
3037.00,0.0145
3036.00,0.0145
3035.00,0.0145
3034.00,0.0145
3033.00,0.0145
3032.00,0.0144
3031.00,0.0144
3030.00,0.0144
3029.00,0.0144
3028.00,0.0144
3027.00,0.0144
3026.00,0.0144
3025.00,0.0144
3024.00,0.0143
3023.00,0.0143
3022.00,0.0144
3021.00,0.0144
3020.00,0.0144
3019.00,0.0144
3018.00,0.0145
3017.00,0.0145
3016.00,0.0146
3015.00,0.0146
3014.00,0.0147
3013.00,0.0148
3012.00,0.0149
3011.00,0.0151
3010.00,0.0153
3009.00,0.0154
3008.00,0.0156
3007.00,0.0158
3006.00,0.0160
3005.00,0.0162
3004.00,0.0165
3003.00,0.0169
3002.00,0.0172
3001.00,0.0176
3000.00,0.0180
2999.00,0.0184
2998.00,0.0189
2997.00,0.0194
2996.00,0.0200
2995.00,0.0205
2994.00,0.0211
2993.00,0.0217
2992.00,0.0224
2991.00,0.0230
2990.00,0.0237
2989.00,0.0243
2988.00,0.0250
2987.00,0.0257
2986.00,0.0263
2985.00,0.0269
2984.00,0.0275
2983.00,0.0280
2982.00,0.0286
2981.00,0.0291
2980.00,0.0296
2979.00,0.0301
2978.00,0.0305
2977.00,0.0309
2976.00,0.0312
2975.00,0.0316
2974.00,0.0319
2973.00,0.0322
2972.00,0.0326
2971.00,0.0329
2970.00,0.0332
2969.00,0.0336
2968.00,0.0339
2967.00,0.0343
2966.00,0.0346
2965.00,0.0350
2964.00,0.0353
2963.00,0.0357
2962.00,0.0361
2961.00,0.0365
2960.00,0.0369
2959.00,0.0372
2958.00,0.0376
2957.00,0.0378
2956.00,0.0380
2955.00,0.0382
2954.00,0.0383
2953.00,0.0384
2952.00,0.0384
2951.00,0.0384
2950.00,0.0384
2949.00,0.0383
2948.00,0.0382
2947.00,0.0381
2946.00,0.0380
2945.00,0.0379
2944.00,0.0379
2943.00,0.0378
2942.00,0.0378
2941.00,0.0379
2940.00,0.0379
2939.00,0.0380
2938.00,0.0382
2937.00,0.0384
2936.00,0.0386
2935.00,0.0388
2934.00,0.0391
2933.00,0.0393
2932.00,0.0396
2931.00,0.0398
2930.00,0.0401
2929.00,0.0403
2928.00,0.0406
2927.00,0.0407
2926.00,0.0408
2925.00,0.0409
2924.00,0.0409
2923.00,0.0408
2922.00,0.0407
2921.00,0.0405
2920.00,0.0403
2919.00,0.0400
2918.00,0.0396
2917.00,0.0392
2916.00,0.0387
2915.00,0.0382
2914.00,0.0377
2913.00,0.0371
2912.00,0.0366
2911.00,0.0360
2910.00,0.0354
2909.00,0.0349
2908.00,0.0344
2907.00,0.0338
2906.00,0.0334
2905.00,0.0330
2904.00,0.0326
2903.00,0.0323
2902.00,0.0321
2901.00,0.0319
2900.00,0.0317
2899.00,0.0316
2898.00,0.0315
2897.00,0.0315
2896.00,0.0314
2895.00,0.0314
2894.00,0.0315
2893.00,0.0314
2892.00,0.0314
2891.00,0.0314
2890.00,0.0314
2889.00,0.0314
2888.00,0.0314
2887.00,0.0313
2886.00,0.0313
2885.00,0.0313
2884.00,0.0314
2883.00,0.0314
2882.00,0.0315
2881.00,0.0316
2880.00,0.0317
2879.00,0.0318
2878.00,0.0319
2877.00,0.0320
2876.00,0.0322
2875.00,0.0323
2874.00,0.0323
2873.00,0.0324
2872.00,0.0325
2871.00,0.0326
2870.00,0.0326
2869.00,0.0325
2868.00,0.0324
2867.00,0.0323
2866.00,0.0322
2865.00,0.0320
2864.00,0.0320
2863.00,0.0319
2862.00,0.0318
2861.00,0.0318
2860.00,0.0317
2859.00,0.0316
2858.00,0.0314
2857.00,0.0312
2856.00,0.0309
2855.00,0.0304
2854.00,0.0299
2853.00,0.0294
2852.00,0.0288
2851.00,0.0282
2850.00,0.0276
2849.00,0.0270
2848.00,0.0265
2847.00,0.0259
2846.00,0.0254
2845.00,0.0248
2844.00,0.0242
2843.00,0.0237
2842.00,0.0231
2841.00,0.0226
2840.00,0.0221
2839.00,0.0217
2838.00,0.0213
2837.00,0.0210
2836.00,0.0207
2835.00,0.0204
2834.00,0.0201
2833.00,0.0198
2832.00,0.0195
2831.00,0.0192
2830.00,0.0189
2829.00,0.0186
2828.00,0.0183
2827.00,0.0180
2826.00,0.0178
2825.00,0.0175
2824.00,0.0173
2823.00,0.0170
2822.00,0.0168
2821.00,0.0166
2820.00,0.0164
2819.00,0.0163
2818.00,0.0161
2817.00,0.0160
2816.00,0.0158
2815.00,0.0157
2814.00,0.0155
2813.00,0.0154
2812.00,0.0152
2811.00,0.0151
2810.00,0.0150
2809.00,0.0149
2808.00,0.0148
2807.00,0.0147
2806.00,0.0145
2805.00,0.0144
2804.00,0.0143
2803.00,0.0142
2802.00,0.0141
2801.00,0.0141
2800.00,0.0140
2799.00,0.0139
2798.00,0.0138
2797.00,0.0138
2796.00,0.0137
2795.00,0.0136
2794.00,0.0136
2793.00,0.0135
2792.00,0.0134
2791.00,0.0134
2790.00,0.0133
2789.00,0.0133
2788.00,0.0133
2787.00,0.0132
2786.00,0.0132
2785.00,0.0132
2784.00,0.0131
2783.00,0.0131
2782.00,0.0130
2781.00,0.0129
2780.00,0.0129
2779.00,0.0128
2778.00,0.0128
2777.00,0.0127
2776.00,0.0127
2775.00,0.0126
2774.00,0.0126
2773.00,0.0126
2772.00,0.0126
2771.00,0.0126
2770.00,0.0125
2769.00,0.0125
2768.00,0.0124
2767.00,0.0124
2766.00,0.0124
2765.00,0.0123
2764.00,0.0123
2763.00,0.0123
2762.00,0.0123
2761.00,0.0123
2760.00,0.0123
2759.00,0.0123
2758.00,0.0123
2757.00,0.0123
