Created as New Dataset,Sample 1044 By YargerLab Date Monday, August 04 2025
cm-1,A
4000.00,0.0069
3999.00,0.0069
3998.00,0.0069
3997.00,0.0069
3996.00,0.0069
3995.00,0.0069
3994.00,0.0069
3993.00,0.0069
3992.00,0.0069
3991.00,0.0069
3990.00,0.0069
3989.00,0.0069
3988.00,0.0069
3987.00,0.0069
3986.00,0.0069
3985.00,0.0069
3984.00,0.0069
3983.00,0.0069
3982.00,0.0070
3981.00,0.0070
3980.00,0.0069
3979.00,0.0069
3978.00,0.0069
3977.00,0.0068
3976.00,0.0068
3975.00,0.0068
3974.00,0.0068
3973.00,0.0069
3972.00,0.0069
3971.00,0.0069
3970.00,0.0069
3969.00,0.0069
3968.00,0.0069
3967.00,0.0069
3966.00,0.0069
3965.00,0.0069
3964.00,0.0069
3963.00,0.0069
3962.00,0.0069
3961.00,0.0069
3960.00,0.0069
3959.00,0.0069
3958.00,0.0069
3957.00,0.0069
3956.00,0.0069
3955.00,0.0069
3954.00,0.0069
3953.00,0.0069
3952.00,0.0069
3951.00,0.0069
3950.00,0.0069
3949.00,0.0069
3948.00,0.0069
3947.00,0.0069
3946.00,0.0069
3945.00,0.0069
3944.00,0.0069
3943.00,0.0069
3942.00,0.0069
3941.00,0.0069
3940.00,0.0069
3939.00,0.0069
3938.00,0.0069
3937.00,0.0069
3936.00,0.0069
3935.00,0.0069
3934.00,0.0069
3933.00,0.0069
3932.00,0.0069
3931.00,0.0069
3930.00,0.0069
3929.00,0.0069
3928.00,0.0069
3927.00,0.0069
3926.00,0.0069
3925.00,0.0069
3924.00,0.0069
3923.00,0.0069
3922.00,0.0069
3921.00,0.0068
3920.00,0.0068
3919.00,0.0068
3918.00,0.0068
3917.00,0.0069
3916.00,0.0069
3915.00,0.0069
3914.00,0.0069
3913.00,0.0069
3912.00,0.0069
3911.00,0.0069
3910.00,0.0069
3909.00,0.0070
3908.00,0.0070
3907.00,0.0070
3906.00,0.0070
3905.00,0.0070
3904.00,0.0070
3903.00,0.0070
3902.00,0.0069
3901.00,0.0069
3900.00,0.0069
3899.00,0.0069
3898.00,0.0069
3897.00,0.0069
3896.00,0.0069
3895.00,0.0069
3894.00,0.0069
3893.00,0.0069
3892.00,0.0069
3891.00,0.0069
3890.00,0.0069
3889.00,0.0069
3888.00,0.0069
3887.00,0.0069
3886.00,0.0069
3885.00,0.0069
3884.00,0.0069
3883.00,0.0069
3882.00,0.0069
3881.00,0.0069
3880.00,0.0069
3879.00,0.0069
3878.00,0.0069
3877.00,0.0069
3876.00,0.0069
3875.00,0.0069
3874.00,0.0069
3873.00,0.0069
3872.00,0.0069
3871.00,0.0069
3870.00,0.0068
3869.00,0.0068
3868.00,0.0068
3867.00,0.0068
3866.00,0.0068
3865.00,0.0069
3864.00,0.0069
3863.00,0.0069
3862.00,0.0068
3861.00,0.0068
3860.00,0.0068
3859.00,0.0068
3858.00,0.0068
3857.00,0.0069
3856.00,0.0069
3855.00,0.0069
3854.00,0.0070
3853.00,0.0070
3852.00,0.0070
3851.00,0.0069
3850.00,0.0069
3849.00,0.0069
3848.00,0.0069
3847.00,0.0069
3846.00,0.0069
3845.00,0.0069
3844.00,0.0069
3843.00,0.0069
3842.00,0.0069
3841.00,0.0069
3840.00,0.0069
3839.00,0.0069
3838.00,0.0069
3837.00,0.0069
3836.00,0.0069
3835.00,0.0069
3834.00,0.0069
3833.00,0.0069
3832.00,0.0069
3831.00,0.0069
3830.00,0.0069
3829.00,0.0069
3828.00,0.0069
3827.00,0.0069
3826.00,0.0069
3825.00,0.0068
3824.00,0.0068
3823.00,0.0068
3822.00,0.0068
3821.00,0.0069
3820.00,0.0069
3819.00,0.0069
3818.00,0.0069
3817.00,0.0069
3816.00,0.0069
3815.00,0.0069
3814.00,0.0069
3813.00,0.0069
3812.00,0.0069
3811.00,0.0069
3810.00,0.0069
3809.00,0.0069
3808.00,0.0069
3807.00,0.0070
3806.00,0.0070
3805.00,0.0070
3804.00,0.0070
3803.00,0.0070
3802.00,0.0069
3801.00,0.0069
3800.00,0.0069
3799.00,0.0069
3798.00,0.0068
3797.00,0.0069
3796.00,0.0068
3795.00,0.0068
3794.00,0.0068
3793.00,0.0068
3792.00,0.0069
3791.00,0.0069
3790.00,0.0069
3789.00,0.0068
3788.00,0.0068
3787.00,0.0068
3786.00,0.0068
3785.00,0.0068
3784.00,0.0068
3783.00,0.0069
3782.00,0.0069
3781.00,0.0069
3780.00,0.0069
3779.00,0.0069
3778.00,0.0069
3777.00,0.0069
3776.00,0.0069
3775.00,0.0069
3774.00,0.0069
3773.00,0.0069
3772.00,0.0069
3771.00,0.0069
3770.00,0.0069
3769.00,0.0069
3768.00,0.0069
3767.00,0.0069
3766.00,0.0068
3765.00,0.0068
3764.00,0.0069
3763.00,0.0069
3762.00,0.0069
3761.00,0.0069
3760.00,0.0069
3759.00,0.0069
3758.00,0.0069
3757.00,0.0069
3756.00,0.0069
3755.00,0.0069
3754.00,0.0069
3753.00,0.0069
3752.00,0.0069
3751.00,0.0069
3750.00,0.0069
3749.00,0.0069
3748.00,0.0069
3747.00,0.0069
3746.00,0.0068
3745.00,0.0068
3744.00,0.0068
3743.00,0.0068
3742.00,0.0068
3741.00,0.0068
3740.00,0.0068
3739.00,0.0068
3738.00,0.0068
3737.00,0.0068
3736.00,0.0068
3735.00,0.0068
3734.00,0.0068
3733.00,0.0068
3732.00,0.0068
3731.00,0.0068
3730.00,0.0068
3729.00,0.0068
3728.00,0.0068
3727.00,0.0068
3726.00,0.0068
3725.00,0.0067
3724.00,0.0067
3723.00,0.0067
3722.00,0.0067
3721.00,0.0067
3720.00,0.0067
3719.00,0.0067
3718.00,0.0068
3717.00,0.0068
3716.00,0.0068
3715.00,0.0068
3714.00,0.0068
3713.00,0.0068
3712.00,0.0068
3711.00,0.0068
3710.00,0.0067
3709.00,0.0067
3708.00,0.0067
3707.00,0.0067
3706.00,0.0067
3705.00,0.0067
3704.00,0.0067
3703.00,0.0067
3702.00,0.0067
3701.00,0.0067
3700.00,0.0067
3699.00,0.0067
3698.00,0.0067
3697.00,0.0067
3696.00,0.0067
3695.00,0.0067
3694.00,0.0067
3693.00,0.0068
3692.00,0.0068
3691.00,0.0068
3690.00,0.0068
3689.00,0.0068
3688.00,0.0068
3687.00,0.0068
3686.00,0.0068
3685.00,0.0068
3684.00,0.0068
3683.00,0.0068
3682.00,0.0068
3681.00,0.0068
3680.00,0.0068
3679.00,0.0068
3678.00,0.0069
3677.00,0.0069
3676.00,0.0069
3675.00,0.0069
3674.00,0.0069
3673.00,0.0068
3672.00,0.0068
3671.00,0.0068
3670.00,0.0068
3669.00,0.0069
3668.00,0.0069
3667.00,0.0069
3666.00,0.0069
3665.00,0.0069
3664.00,0.0070
3663.00,0.0070
3662.00,0.0070
3661.00,0.0070
3660.00,0.0070
3659.00,0.0070
3658.00,0.0070
3657.00,0.0070
3656.00,0.0070
3655.00,0.0070
3654.00,0.0071
3653.00,0.0071
3652.00,0.0071
3651.00,0.0072
3650.00,0.0072
3649.00,0.0072
3648.00,0.0073
3647.00,0.0073
3646.00,0.0073
3645.00,0.0073
3644.00,0.0073
3643.00,0.0073
3642.00,0.0073
3641.00,0.0073
3640.00,0.0073
3639.00,0.0074
3638.00,0.0074
3637.00,0.0075
3636.00,0.0075
3635.00,0.0075
3634.00,0.0075
3633.00,0.0076
3632.00,0.0076
3631.00,0.0076
3630.00,0.0077
3629.00,0.0077
3628.00,0.0078
3627.00,0.0078
3626.00,0.0079
3625.00,0.0079
3624.00,0.0079
3623.00,0.0079
3622.00,0.0079
3621.00,0.0080
3620.00,0.0080
3619.00,0.0081
3618.00,0.0081
3617.00,0.0082
3616.00,0.0082
3615.00,0.0082
3614.00,0.0083
3613.00,0.0083
3612.00,0.0084
3611.00,0.0084
3610.00,0.0085
3609.00,0.0085
3608.00,0.0086
3607.00,0.0086
3606.00,0.0087
3605.00,0.0087
3604.00,0.0087
3603.00,0.0088
3602.00,0.0088
3601.00,0.0088
3600.00,0.0089
3599.00,0.0089
3598.00,0.0089
3597.00,0.0090
3596.00,0.0091
3595.00,0.0091
3594.00,0.0092
3593.00,0.0093
3592.00,0.0093
3591.00,0.0094
3590.00,0.0094
3589.00,0.0095
3588.00,0.0096
3587.00,0.0096
3586.00,0.0097
3585.00,0.0097
3584.00,0.0098
3583.00,0.0099
3582.00,0.0099
3581.00,0.0100
3580.00,0.0100
3579.00,0.0101
3578.00,0.0102
3577.00,0.0102
3576.00,0.0103
3575.00,0.0104
3574.00,0.0105
3573.00,0.0105
3572.00,0.0106
3571.00,0.0107
3570.00,0.0107
3569.00,0.0108
3568.00,0.0109
3567.00,0.0110
3566.00,0.0111
3565.00,0.0111
3564.00,0.0112
3563.00,0.0113
3562.00,0.0114
3561.00,0.0114
3560.00,0.0115
3559.00,0.0116
3558.00,0.0117
3557.00,0.0117
3556.00,0.0118
3555.00,0.0119
3554.00,0.0119
3553.00,0.0120
3552.00,0.0121
3551.00,0.0121
3550.00,0.0122
3549.00,0.0123
3548.00,0.0123
3547.00,0.0124
3546.00,0.0125
3545.00,0.0126
3544.00,0.0127
3543.00,0.0127
3542.00,0.0128
3541.00,0.0128
3540.00,0.0129
3539.00,0.0130
3538.00,0.0130
3537.00,0.0131
3536.00,0.0132
3535.00,0.0132
3534.00,0.0133
3533.00,0.0133
3532.00,0.0134
3531.00,0.0135
3530.00,0.0135
3529.00,0.0136
3528.00,0.0136
3527.00,0.0137
3526.00,0.0138
3525.00,0.0138
3524.00,0.0139
3523.00,0.0140
3522.00,0.0140
3521.00,0.0141
3520.00,0.0141
3519.00,0.0141
3518.00,0.0142
3517.00,0.0142
3516.00,0.0143
3515.00,0.0143
3514.00,0.0144
3513.00,0.0144
3512.00,0.0144
3511.00,0.0145
3510.00,0.0145
3509.00,0.0146
3508.00,0.0146
3507.00,0.0147
3506.00,0.0147
3505.00,0.0148
3504.00,0.0148
3503.00,0.0149
3502.00,0.0149
3501.00,0.0150
3500.00,0.0150
3499.00,0.0151
3498.00,0.0151
3497.00,0.0151
3496.00,0.0151
3495.00,0.0152
3494.00,0.0152
3493.00,0.0153
3492.00,0.0153
3491.00,0.0154
3490.00,0.0154
3489.00,0.0155
3488.00,0.0155
3487.00,0.0156
3486.00,0.0156
3485.00,0.0157
3484.00,0.0157
3483.00,0.0158
3482.00,0.0158
3481.00,0.0159
3480.00,0.0159
3479.00,0.0160
3478.00,0.0160
3477.00,0.0161
3476.00,0.0162
3475.00,0.0162
3474.00,0.0163
3473.00,0.0164
3472.00,0.0164
3471.00,0.0165
3470.00,0.0166
3469.00,0.0166
3468.00,0.0167
3467.00,0.0168
3466.00,0.0168
3465.00,0.0169
3464.00,0.0170
3463.00,0.0170
3462.00,0.0171
3461.00,0.0172
3460.00,0.0173
3459.00,0.0173
3458.00,0.0173
3457.00,0.0174
3456.00,0.0174
3455.00,0.0175
3454.00,0.0176
3453.00,0.0177
3452.00,0.0178
3451.00,0.0178
3450.00,0.0179
3449.00,0.0179
3448.00,0.0180
3447.00,0.0181
3446.00,0.0182
3445.00,0.0182
3444.00,0.0183
3443.00,0.0184
3442.00,0.0184
3441.00,0.0185
3440.00,0.0186
3439.00,0.0187
3438.00,0.0188
3437.00,0.0188
3436.00,0.0189
3435.00,0.0190
3434.00,0.0191
3433.00,0.0192
3432.00,0.0193
3431.00,0.0194
3430.00,0.0195
3429.00,0.0195
3428.00,0.0196
3427.00,0.0197
3426.00,0.0198
3425.00,0.0199
3424.00,0.0200
3423.00,0.0201
3422.00,0.0202
3421.00,0.0203
3420.00,0.0204
3419.00,0.0205
3418.00,0.0206
3417.00,0.0207
3416.00,0.0208
3415.00,0.0209
3414.00,0.0210
3413.00,0.0210
3412.00,0.0211
3411.00,0.0212
3410.00,0.0212
3409.00,0.0213
3408.00,0.0213
3407.00,0.0214
3406.00,0.0214
3405.00,0.0214
3404.00,0.0215
3403.00,0.0215
3402.00,0.0215
3401.00,0.0216
3400.00,0.0216
3399.00,0.0216
3398.00,0.0215
3397.00,0.0215
3396.00,0.0215
3395.00,0.0214
3394.00,0.0214
3393.00,0.0214
3392.00,0.0214
3391.00,0.0213
3390.00,0.0213
3389.00,0.0212
3388.00,0.0211
3387.00,0.0211
3386.00,0.0210
3385.00,0.0210
3384.00,0.0209
3383.00,0.0208
3382.00,0.0207
3381.00,0.0207
3380.00,0.0206
3379.00,0.0205
3378.00,0.0204
3377.00,0.0203
3376.00,0.0202
3375.00,0.0202
3374.00,0.0201
3373.00,0.0200
3372.00,0.0199
3371.00,0.0199
3370.00,0.0198
3369.00,0.0197
3368.00,0.0196
3367.00,0.0196
3366.00,0.0195
3365.00,0.0195
3364.00,0.0195
3363.00,0.0194
3362.00,0.0193
3361.00,0.0193
3360.00,0.0192
3359.00,0.0191
3358.00,0.0191
3357.00,0.0190
3356.00,0.0190
3355.00,0.0189
3354.00,0.0189
3353.00,0.0188
3352.00,0.0187
3351.00,0.0187
3350.00,0.0187
3349.00,0.0187
3348.00,0.0187
3347.00,0.0187
3346.00,0.0186
3345.00,0.0186
3344.00,0.0185
3343.00,0.0184
3342.00,0.0184
3341.00,0.0184
3340.00,0.0183
3339.00,0.0183
3338.00,0.0183
3337.00,0.0183
3336.00,0.0183
3335.00,0.0183
3334.00,0.0183
3333.00,0.0183
3332.00,0.0183
3331.00,0.0183
3330.00,0.0183
3329.00,0.0183
3328.00,0.0182
3327.00,0.0182
3326.00,0.0182
3325.00,0.0182
3324.00,0.0182
3323.00,0.0182
3322.00,0.0182
3321.00,0.0183
3320.00,0.0183
3319.00,0.0183
3318.00,0.0183
3317.00,0.0183
3316.00,0.0183
3315.00,0.0183
3314.00,0.0183
3313.00,0.0183
3312.00,0.0183
3311.00,0.0182
3310.00,0.0181
3309.00,0.0181
3308.00,0.0180
3307.00,0.0180
3306.00,0.0181
3305.00,0.0182
3304.00,0.0183
3303.00,0.0184
3302.00,0.0185
3301.00,0.0185
3300.00,0.0185
3299.00,0.0185
3298.00,0.0185
3297.00,0.0184
3296.00,0.0184
3295.00,0.0184
3294.00,0.0185
3293.00,0.0185
3292.00,0.0185
3291.00,0.0186
3290.00,0.0187
3289.00,0.0188
3288.00,0.0188
3287.00,0.0188
3286.00,0.0188
3285.00,0.0189
3284.00,0.0189
3283.00,0.0189
3282.00,0.0189
3281.00,0.0189
3280.00,0.0189
3279.00,0.0190
3278.00,0.0189
3277.00,0.0189
3276.00,0.0189
3275.00,0.0189
3274.00,0.0189
3273.00,0.0189
3272.00,0.0189
3271.00,0.0189
3270.00,0.0189
3269.00,0.0189
3268.00,0.0190
3267.00,0.0190
3266.00,0.0191
3265.00,0.0191
3264.00,0.0191
3263.00,0.0191
3262.00,0.0192
3261.00,0.0192
3260.00,0.0192
3259.00,0.0192
3258.00,0.0191
3257.00,0.0191
3256.00,0.0192
3255.00,0.0192
3254.00,0.0192
3253.00,0.0192
3252.00,0.0193
3251.00,0.0192
3250.00,0.0192
3249.00,0.0192
3248.00,0.0191
3247.00,0.0192
3246.00,0.0192
3245.00,0.0192
3244.00,0.0192
3243.00,0.0192
3242.00,0.0192
3241.00,0.0192
3240.00,0.0192
3239.00,0.0191
3238.00,0.0191
3237.00,0.0190
3236.00,0.0190
3235.00,0.0189
3234.00,0.0189
3233.00,0.0189
3232.00,0.0189
3231.00,0.0189
3230.00,0.0189
3229.00,0.0188
3228.00,0.0188
3227.00,0.0188
3226.00,0.0187
3225.00,0.0187
3224.00,0.0186
3223.00,0.0186
3222.00,0.0185
3221.00,0.0185
3220.00,0.0184
3219.00,0.0184
3218.00,0.0183
3217.00,0.0183
3216.00,0.0182
3215.00,0.0182
3214.00,0.0181
3213.00,0.0180
3212.00,0.0180
3211.00,0.0179
3210.00,0.0178
3209.00,0.0178
3208.00,0.0177
3207.00,0.0176
3206.00,0.0175
3205.00,0.0174
3204.00,0.0174
3203.00,0.0173
3202.00,0.0172
3201.00,0.0171
3200.00,0.0171
3199.00,0.0170
3198.00,0.0169
3197.00,0.0168
3196.00,0.0167
3195.00,0.0166
3194.00,0.0165
3193.00,0.0165
3192.00,0.0164
3191.00,0.0163
3190.00,0.0162
3189.00,0.0161
3188.00,0.0160
3187.00,0.0160
3186.00,0.0159
3185.00,0.0158
3184.00,0.0158
3183.00,0.0157
3182.00,0.0156
3181.00,0.0155
3180.00,0.0154
3179.00,0.0154
3178.00,0.0153
3177.00,0.0152
3176.00,0.0152
3175.00,0.0151
3174.00,0.0150
3173.00,0.0149
3172.00,0.0148
3171.00,0.0148
3170.00,0.0147
3169.00,0.0147
3168.00,0.0146
3167.00,0.0145
3166.00,0.0144
3165.00,0.0143
3164.00,0.0142
3163.00,0.0141
3162.00,0.0141
3161.00,0.0140
3160.00,0.0139
3159.00,0.0138
3158.00,0.0137
3157.00,0.0136
3156.00,0.0135
3155.00,0.0135
3154.00,0.0134
3153.00,0.0134
3152.00,0.0133
3151.00,0.0133
3150.00,0.0132
3149.00,0.0131
3148.00,0.0130
3147.00,0.0130
3146.00,0.0129
3145.00,0.0129
3144.00,0.0128
3143.00,0.0127
3142.00,0.0126
3141.00,0.0126
3140.00,0.0125
3139.00,0.0124
3138.00,0.0124
3137.00,0.0123
3136.00,0.0123
3135.00,0.0123
3134.00,0.0122
3133.00,0.0122
3132.00,0.0121
3131.00,0.0121
3130.00,0.0120
3129.00,0.0120
3128.00,0.0120
3127.00,0.0119
3126.00,0.0119
3125.00,0.0118
3124.00,0.0118
3123.00,0.0118
3122.00,0.0117
3121.00,0.0117
3120.00,0.0116
3119.00,0.0116
3118.00,0.0115
3117.00,0.0115
3116.00,0.0114
3115.00,0.0114
3114.00,0.0114
3113.00,0.0113
3112.00,0.0113
3111.00,0.0112
3110.00,0.0112
3109.00,0.0112
3108.00,0.0112
3107.00,0.0111
3106.00,0.0111
3105.00,0.0110
3104.00,0.0110
3103.00,0.0109
3102.00,0.0109
3101.00,0.0108
3100.00,0.0108
3099.00,0.0108
3098.00,0.0107
3097.00,0.0107
3096.00,0.0107
3095.00,0.0107
3094.00,0.0107
3093.00,0.0107
3092.00,0.0107
3091.00,0.0107
3090.00,0.0107
3089.00,0.0107
3088.00,0.0107
3087.00,0.0107
3086.00,0.0108
3085.00,0.0108
3084.00,0.0108
3083.00,0.0107
3082.00,0.0107
3081.00,0.0107
3080.00,0.0107
3079.00,0.0107
3078.00,0.0107
3077.00,0.0106
3076.00,0.0106
3075.00,0.0106
3074.00,0.0106
3073.00,0.0106
3072.00,0.0105
3071.00,0.0105
3070.00,0.0105
3069.00,0.0104
3068.00,0.0104
3067.00,0.0104
3066.00,0.0103
3065.00,0.0103
3064.00,0.0103
3063.00,0.0103
3062.00,0.0103
3061.00,0.0103
3060.00,0.0103
3059.00,0.0103
3058.00,0.0103
3057.00,0.0103
3056.00,0.0103
3055.00,0.0103
3054.00,0.0103
3053.00,0.0103
3052.00,0.0103
3051.00,0.0103
3050.00,0.0103
3049.00,0.0103
3048.00,0.0103
3047.00,0.0102
3046.00,0.0102
3045.00,0.0102
3044.00,0.0102
3043.00,0.0102
3042.00,0.0102
3041.00,0.0102
3040.00,0.0103
3039.00,0.0103
3038.00,0.0104
3037.00,0.0104
3036.00,0.0105
3035.00,0.0105
3034.00,0.0105
3033.00,0.0105
3032.00,0.0105
3031.00,0.0105
3030.00,0.0105
3029.00,0.0104
3028.00,0.0104
3027.00,0.0103
3026.00,0.0103
3025.00,0.0102
3024.00,0.0102
3023.00,0.0102
3022.00,0.0101
3021.00,0.0101
3020.00,0.0101
3019.00,0.0100
3018.00,0.0100
3017.00,0.0100
3016.00,0.0100
3015.00,0.0100
3014.00,0.0101
3013.00,0.0101
3012.00,0.0101
3011.00,0.0102
3010.00,0.0102
3009.00,0.0103
3008.00,0.0104
3007.00,0.0105
3006.00,0.0106
3005.00,0.0108
3004.00,0.0109
3003.00,0.0111
3002.00,0.0113
3001.00,0.0115
3000.00,0.0117
2999.00,0.0120
2998.00,0.0122
2997.00,0.0126
2996.00,0.0129
2995.00,0.0132
2994.00,0.0135
2993.00,0.0138
2992.00,0.0140
2991.00,0.0143
2990.00,0.0146
2989.00,0.0148
2988.00,0.0151
2987.00,0.0154
2986.00,0.0158
2985.00,0.0161
2984.00,0.0164
2983.00,0.0167
2982.00,0.0171
2981.00,0.0176
2980.00,0.0180
2979.00,0.0184
2978.00,0.0187
2977.00,0.0190
2976.00,0.0192
2975.00,0.0195
2974.00,0.0198
2973.00,0.0203
2972.00,0.0208
2971.00,0.0213
2970.00,0.0217
2969.00,0.0221
2968.00,0.0224
2967.00,0.0227
2966.00,0.0230
2965.00,0.0233
2964.00,0.0237
2963.00,0.0240
2962.00,0.0243
2961.00,0.0245
2960.00,0.0247
2959.00,0.0247
2958.00,0.0246
2957.00,0.0245
2956.00,0.0242
2955.00,0.0238
2954.00,0.0235
2953.00,0.0231
2952.00,0.0229
2951.00,0.0226
2950.00,0.0224
2949.00,0.0223
2948.00,0.0222
2947.00,0.0222
2946.00,0.0223
2945.00,0.0225
2944.00,0.0227
2943.00,0.0230
2942.00,0.0234
2941.00,0.0238
2940.00,0.0242
2939.00,0.0247
2938.00,0.0253
2937.00,0.0260
2936.00,0.0267
2935.00,0.0275
2934.00,0.0284
2933.00,0.0293
2932.00,0.0301
2931.00,0.0309
2930.00,0.0316
2929.00,0.0322
2928.00,0.0325
2927.00,0.0326
2926.00,0.0324
2925.00,0.0320
2924.00,0.0315
2923.00,0.0308
2922.00,0.0300
2921.00,0.0292
2920.00,0.0283
2919.00,0.0275
2918.00,0.0266
2917.00,0.0258
2916.00,0.0251
2915.00,0.0245
2914.00,0.0240
2913.00,0.0236
2912.00,0.0233
2911.00,0.0229
2910.00,0.0226
2909.00,0.0223
2908.00,0.0220
2907.00,0.0217
2906.00,0.0213
2905.00,0.0210
2904.00,0.0207
2903.00,0.0205
2902.00,0.0203
2901.00,0.0201
2900.00,0.0199
2899.00,0.0197
2898.00,0.0195
2897.00,0.0194
2896.00,0.0192
2895.00,0.0191
2894.00,0.0190
2893.00,0.0189
2892.00,0.0188
2891.00,0.0187
2890.00,0.0186
2889.00,0.0185
2888.00,0.0184
2887.00,0.0184
2886.00,0.0183
2885.00,0.0182
2884.00,0.0182
2883.00,0.0182
2882.00,0.0182
2881.00,0.0183
2880.00,0.0185
2879.00,0.0187
2878.00,0.0190
2877.00,0.0193
2876.00,0.0196
2875.00,0.0198
2874.00,0.0201
2873.00,0.0203
2872.00,0.0204
2871.00,0.0204
2870.00,0.0203
2869.00,0.0203
2868.00,0.0202
2867.00,0.0202
2866.00,0.0203
2865.00,0.0204
2864.00,0.0207
2863.00,0.0211
2862.00,0.0216
2861.00,0.0221
2860.00,0.0227
2859.00,0.0232
2858.00,0.0236
2857.00,0.0238
2856.00,0.0238
2855.00,0.0237
2854.00,0.0234
2853.00,0.0229
2852.00,0.0222
2851.00,0.0214
2850.00,0.0205
2849.00,0.0196
2848.00,0.0188
2847.00,0.0181
2846.00,0.0175
2845.00,0.0169
2844.00,0.0164
2843.00,0.0160
2842.00,0.0155
2841.00,0.0151
2840.00,0.0147
2839.00,0.0143
2838.00,0.0141
2837.00,0.0138
2836.00,0.0136
2835.00,0.0134
2834.00,0.0132
2833.00,0.0130
2832.00,0.0129
2831.00,0.0127
2830.00,0.0126
2829.00,0.0124
2828.00,0.0122
2827.00,0.0121
2826.00,0.0119
2825.00,0.0118
2824.00,0.0117
2823.00,0.0115
2822.00,0.0114
2821.00,0.0113
2820.00,0.0112
2819.00,0.0111
2818.00,0.0111
2817.00,0.0110
2816.00,0.0109
2815.00,0.0108
2814.00,0.0108
2813.00,0.0107
2812.00,0.0107
2811.00,0.0106
2810.00,0.0106
2809.00,0.0105
2808.00,0.0105
2807.00,0.0104
2806.00,0.0104
2805.00,0.0103
2804.00,0.0103
2803.00,0.0103
2802.00,0.0103
2801.00,0.0102
2800.00,0.0102
2799.00,0.0101
2798.00,0.0101
2797.00,0.0101
2796.00,0.0100
2795.00,0.0100
2794.00,0.0100
2793.00,0.0100
2792.00,0.0099
2791.00,0.0099
2790.00,0.0098
2789.00,0.0098
2788.00,0.0098
2787.00,0.0097
2786.00,0.0097
2785.00,0.0097
2784.00,0.0097
2783.00,0.0097
2782.00,0.0097
2781.00,0.0097
2780.00,0.0096
2779.00,0.0096
2778.00,0.0096
2777.00,0.0095
2776.00,0.0095
2775.00,0.0095
2774.00,0.0095
2773.00,0.0094
2772.00,0.0094
2771.00,0.0094
2770.00,0.0094
2769.00,0.0094
2768.00,0.0094
2767.00,0.0094
2766.00,0.0094
2765.00,0.0094
2764.00,0.0093
2763.00,0.0093
2762.00,0.0093
2761.00,0.0093
2760.00,0.0093
2759.00,0.0093
2758.00,0.0093
2757.00,0.0093
