Created as New Dataset,Sample 829 By YargerLab Date Tuesday, July 15 2025
cm-1,A
4000.00,0.0040
3999.00,0.0040
3998.00,0.0040
3997.00,0.0040
3996.00,0.0040
3995.00,0.0040
3994.00,0.0039
3993.00,0.0039
3992.00,0.0039
3991.00,0.0039
3990.00,0.0039
3989.00,0.0040
3988.00,0.0040
3987.00,0.0040
3986.00,0.0040
3985.00,0.0040
3984.00,0.0040
3983.00,0.0040
3982.00,0.0040
3981.00,0.0040
3980.00,0.0040
3979.00,0.0040
3978.00,0.0040
3977.00,0.0040
3976.00,0.0040
3975.00,0.0040
3974.00,0.0040
3973.00,0.0040
3972.00,0.0040
3971.00,0.0039
3970.00,0.0039
3969.00,0.0039
3968.00,0.0040
3967.00,0.0040
3966.00,0.0040
3965.00,0.0039
3964.00,0.0039
3963.00,0.0039
3962.00,0.0039
3961.00,0.0039
3960.00,0.0039
3959.00,0.0039
3958.00,0.0040
3957.00,0.0039
3956.00,0.0039
3955.00,0.0039
3954.00,0.0039
3953.00,0.0039
3952.00,0.0039
3951.00,0.0039
3950.00,0.0039
3949.00,0.0039
3948.00,0.0039
3947.00,0.0039
3946.00,0.0039
3945.00,0.0039
3944.00,0.0039
3943.00,0.0039
3942.00,0.0039
3941.00,0.0039
3940.00,0.0039
3939.00,0.0039
3938.00,0.0039
3937.00,0.0039
3936.00,0.0039
3935.00,0.0039
3934.00,0.0039
3933.00,0.0039
3932.00,0.0039
3931.00,0.0039
3930.00,0.0039
3929.00,0.0039
3928.00,0.0039
3927.00,0.0039
3926.00,0.0039
3925.00,0.0039
3924.00,0.0039
3923.00,0.0039
3922.00,0.0039
3921.00,0.0039
3920.00,0.0039
3919.00,0.0039
3918.00,0.0039
3917.00,0.0039
3916.00,0.0039
3915.00,0.0039
3914.00,0.0039
3913.00,0.0039
3912.00,0.0039
3911.00,0.0039
3910.00,0.0040
3909.00,0.0039
3908.00,0.0039
3907.00,0.0039
3906.00,0.0039
3905.00,0.0039
3904.00,0.0039
3903.00,0.0039
3902.00,0.0039
3901.00,0.0039
3900.00,0.0039
3899.00,0.0039
3898.00,0.0039
3897.00,0.0039
3896.00,0.0039
3895.00,0.0039
3894.00,0.0039
3893.00,0.0039
3892.00,0.0039
3891.00,0.0039
3890.00,0.0039
3889.00,0.0038
3888.00,0.0038
3887.00,0.0038
3886.00,0.0038
3885.00,0.0039
3884.00,0.0039
3883.00,0.0039
3882.00,0.0038
3881.00,0.0038
3880.00,0.0038
3879.00,0.0038
3878.00,0.0038
3877.00,0.0038
3876.00,0.0038
3875.00,0.0038
3874.00,0.0038
3873.00,0.0038
3872.00,0.0038
3871.00,0.0038
3870.00,0.0038
3869.00,0.0038
3868.00,0.0038
3867.00,0.0038
3866.00,0.0038
3865.00,0.0038
3864.00,0.0038
3863.00,0.0039
3862.00,0.0038
3861.00,0.0038
3860.00,0.0038
3859.00,0.0038
3858.00,0.0039
3857.00,0.0038
3856.00,0.0038
3855.00,0.0038
3854.00,0.0038
3853.00,0.0038
3852.00,0.0038
3851.00,0.0038
3850.00,0.0038
3849.00,0.0039
3848.00,0.0039
3847.00,0.0039
3846.00,0.0039
3845.00,0.0039
3844.00,0.0039
3843.00,0.0039
3842.00,0.0039
3841.00,0.0039
3840.00,0.0039
3839.00,0.0039
3838.00,0.0039
3837.00,0.0039
3836.00,0.0039
3835.00,0.0039
3834.00,0.0039
3833.00,0.0038
3832.00,0.0038
3831.00,0.0038
3830.00,0.0038
3829.00,0.0038
3828.00,0.0038
3827.00,0.0039
3826.00,0.0039
3825.00,0.0040
3824.00,0.0039
3823.00,0.0039
3822.00,0.0039
3821.00,0.0040
3820.00,0.0040
3819.00,0.0039
3818.00,0.0039
3817.00,0.0039
3816.00,0.0039
3815.00,0.0039
3814.00,0.0038
3813.00,0.0038
3812.00,0.0038
3811.00,0.0038
3810.00,0.0038
3809.00,0.0039
3808.00,0.0039
3807.00,0.0039
3806.00,0.0039
3805.00,0.0039
3804.00,0.0039
3803.00,0.0039
3802.00,0.0039
3801.00,0.0039
3800.00,0.0039
3799.00,0.0039
3798.00,0.0039
3797.00,0.0039
3796.00,0.0039
3795.00,0.0039
3794.00,0.0039
3793.00,0.0039
3792.00,0.0039
3791.00,0.0039
3790.00,0.0039
3789.00,0.0039
3788.00,0.0039
3787.00,0.0039
3786.00,0.0039
3785.00,0.0039
3784.00,0.0039
3783.00,0.0039
3782.00,0.0039
3781.00,0.0039
3780.00,0.0039
3779.00,0.0039
3778.00,0.0039
3777.00,0.0039
3776.00,0.0039
3775.00,0.0039
3774.00,0.0040
3773.00,0.0040
3772.00,0.0040
3771.00,0.0040
3770.00,0.0040
3769.00,0.0040
3768.00,0.0040
3767.00,0.0039
3766.00,0.0039
3765.00,0.0039
3764.00,0.0039
3763.00,0.0039
3762.00,0.0040
3761.00,0.0040
3760.00,0.0040
3759.00,0.0040
3758.00,0.0040
3757.00,0.0040
3756.00,0.0039
3755.00,0.0039
3754.00,0.0040
3753.00,0.0040
3752.00,0.0040
3751.00,0.0039
3750.00,0.0039
3749.00,0.0038
3748.00,0.0038
3747.00,0.0037
3746.00,0.0037
3745.00,0.0037
3744.00,0.0038
3743.00,0.0038
3742.00,0.0038
3741.00,0.0038
3740.00,0.0038
3739.00,0.0039
3738.00,0.0039
3737.00,0.0039
3736.00,0.0039
3735.00,0.0039
3734.00,0.0038
3733.00,0.0038
3732.00,0.0038
3731.00,0.0038
3730.00,0.0039
3729.00,0.0039
3728.00,0.0039
3727.00,0.0039
3726.00,0.0039
3725.00,0.0039
3724.00,0.0038
3723.00,0.0038
3722.00,0.0038
3721.00,0.0038
3720.00,0.0038
3719.00,0.0038
3718.00,0.0038
3717.00,0.0039
3716.00,0.0039
3715.00,0.0039
3714.00,0.0039
3713.00,0.0039
3712.00,0.0039
3711.00,0.0039
3710.00,0.0039
3709.00,0.0038
3708.00,0.0038
3707.00,0.0038
3706.00,0.0039
3705.00,0.0039
3704.00,0.0039
3703.00,0.0039
3702.00,0.0039
3701.00,0.0039
3700.00,0.0039
3699.00,0.0039
3698.00,0.0038
3697.00,0.0039
3696.00,0.0039
3695.00,0.0039
3694.00,0.0040
3693.00,0.0040
3692.00,0.0040
3691.00,0.0040
3690.00,0.0040
3689.00,0.0041
3688.00,0.0041
3687.00,0.0041
3686.00,0.0041
3685.00,0.0041
3684.00,0.0041
3683.00,0.0042
3682.00,0.0042
3681.00,0.0042
3680.00,0.0042
3679.00,0.0042
3678.00,0.0042
3677.00,0.0042
3676.00,0.0042
3675.00,0.0042
3674.00,0.0042
3673.00,0.0041
3672.00,0.0041
3671.00,0.0040
3670.00,0.0041
3669.00,0.0041
3668.00,0.0041
3667.00,0.0041
3666.00,0.0041
3665.00,0.0042
3664.00,0.0042
3663.00,0.0042
3662.00,0.0042
3661.00,0.0043
3660.00,0.0043
3659.00,0.0043
3658.00,0.0043
3657.00,0.0044
3656.00,0.0045
3655.00,0.0045
3654.00,0.0045
3653.00,0.0045
3652.00,0.0045
3651.00,0.0045
3650.00,0.0045
3649.00,0.0046
3648.00,0.0047
3647.00,0.0047
3646.00,0.0048
3645.00,0.0049
3644.00,0.0050
3643.00,0.0051
3642.00,0.0051
3641.00,0.0052
3640.00,0.0052
3639.00,0.0052
3638.00,0.0052
3637.00,0.0053
3636.00,0.0054
3635.00,0.0055
3634.00,0.0056
3633.00,0.0056
3632.00,0.0057
3631.00,0.0057
3630.00,0.0057
3629.00,0.0058
3628.00,0.0059
3627.00,0.0060
3626.00,0.0060
3625.00,0.0061
3624.00,0.0061
3623.00,0.0062
3622.00,0.0063
3621.00,0.0063
3620.00,0.0064
3619.00,0.0065
3618.00,0.0066
3617.00,0.0066
3616.00,0.0067
3615.00,0.0067
3614.00,0.0068
3613.00,0.0069
3612.00,0.0070
3611.00,0.0070
3610.00,0.0071
3609.00,0.0072
3608.00,0.0073
3607.00,0.0074
3606.00,0.0075
3605.00,0.0075
3604.00,0.0076
3603.00,0.0077
3602.00,0.0078
3601.00,0.0078
3600.00,0.0079
3599.00,0.0080
3598.00,0.0080
3597.00,0.0081
3596.00,0.0082
3595.00,0.0083
3594.00,0.0083
3593.00,0.0084
3592.00,0.0085
3591.00,0.0085
3590.00,0.0086
3589.00,0.0087
3588.00,0.0088
3587.00,0.0090
3586.00,0.0091
3585.00,0.0092
3584.00,0.0093
3583.00,0.0094
3582.00,0.0095
3581.00,0.0096
3580.00,0.0097
3579.00,0.0098
3578.00,0.0099
3577.00,0.0100
3576.00,0.0101
3575.00,0.0102
3574.00,0.0103
3573.00,0.0104
3572.00,0.0105
3571.00,0.0105
3570.00,0.0105
3569.00,0.0106
3568.00,0.0107
3567.00,0.0109
3566.00,0.0111
3565.00,0.0112
3564.00,0.0113
3563.00,0.0114
3562.00,0.0115
3561.00,0.0116
3560.00,0.0117
3559.00,0.0118
3558.00,0.0118
3557.00,0.0119
3556.00,0.0120
3555.00,0.0121
3554.00,0.0122
3553.00,0.0123
3552.00,0.0124
3551.00,0.0125
3550.00,0.0126
3549.00,0.0126
3548.00,0.0127
3547.00,0.0128
3546.00,0.0129
3545.00,0.0130
3544.00,0.0131
3543.00,0.0132
3542.00,0.0132
3541.00,0.0133
3540.00,0.0134
3539.00,0.0135
3538.00,0.0135
3537.00,0.0136
3536.00,0.0137
3535.00,0.0138
3534.00,0.0138
3533.00,0.0139
3532.00,0.0140
3531.00,0.0140
3530.00,0.0141
3529.00,0.0142
3528.00,0.0143
3527.00,0.0144
3526.00,0.0144
3525.00,0.0145
3524.00,0.0146
3523.00,0.0147
3522.00,0.0147
3521.00,0.0148
3520.00,0.0148
3519.00,0.0149
3518.00,0.0149
3517.00,0.0150
3516.00,0.0151
3515.00,0.0152
3514.00,0.0153
3513.00,0.0153
3512.00,0.0154
3511.00,0.0154
3510.00,0.0155
3509.00,0.0155
3508.00,0.0156
3507.00,0.0156
3506.00,0.0157
3505.00,0.0158
3504.00,0.0159
3503.00,0.0160
3502.00,0.0161
3501.00,0.0161
3500.00,0.0162
3499.00,0.0162
3498.00,0.0162
3497.00,0.0163
3496.00,0.0163
3495.00,0.0164
3494.00,0.0165
3493.00,0.0165
3492.00,0.0166
3491.00,0.0167
3490.00,0.0167
3489.00,0.0168
3488.00,0.0168
3487.00,0.0169
3486.00,0.0169
3485.00,0.0169
3484.00,0.0170
3483.00,0.0170
3482.00,0.0171
3481.00,0.0172
3480.00,0.0173
3479.00,0.0174
3478.00,0.0174
3477.00,0.0175
3476.00,0.0175
3475.00,0.0176
3474.00,0.0176
3473.00,0.0177
3472.00,0.0177
3471.00,0.0178
3470.00,0.0178
3469.00,0.0178
3468.00,0.0179
3467.00,0.0179
3466.00,0.0180
3465.00,0.0180
3464.00,0.0181
3463.00,0.0181
3462.00,0.0182
3461.00,0.0182
3460.00,0.0183
3459.00,0.0183
3458.00,0.0183
3457.00,0.0184
3456.00,0.0184
3455.00,0.0185
3454.00,0.0185
3453.00,0.0185
3452.00,0.0186
3451.00,0.0186
3450.00,0.0186
3449.00,0.0186
3448.00,0.0187
3447.00,0.0187
3446.00,0.0188
3445.00,0.0188
3444.00,0.0188
3443.00,0.0189
3442.00,0.0189
3441.00,0.0189
3440.00,0.0189
3439.00,0.0190
3438.00,0.0190
3437.00,0.0191
3436.00,0.0191
3435.00,0.0191
3434.00,0.0191
3433.00,0.0191
3432.00,0.0191
3431.00,0.0191
3430.00,0.0191
3429.00,0.0191
3428.00,0.0192
3427.00,0.0192
3426.00,0.0192
3425.00,0.0193
3424.00,0.0193
3423.00,0.0193
3422.00,0.0193
3421.00,0.0194
3420.00,0.0194
3419.00,0.0194
3418.00,0.0195
3417.00,0.0195
3416.00,0.0195
3415.00,0.0195
3414.00,0.0195
3413.00,0.0195
3412.00,0.0196
3411.00,0.0196
3410.00,0.0196
3409.00,0.0196
3408.00,0.0196
3407.00,0.0197
3406.00,0.0197
3405.00,0.0197
3404.00,0.0198
3403.00,0.0198
3402.00,0.0198
3401.00,0.0198
3400.00,0.0198
3399.00,0.0198
3398.00,0.0199
3397.00,0.0199
3396.00,0.0200
3395.00,0.0199
3394.00,0.0199
3393.00,0.0199
3392.00,0.0199
3391.00,0.0200
3390.00,0.0200
3389.00,0.0200
3388.00,0.0201
3387.00,0.0201
3386.00,0.0202
3385.00,0.0202
3384.00,0.0202
3383.00,0.0202
3382.00,0.0202
3381.00,0.0202
3380.00,0.0203
3379.00,0.0203
3378.00,0.0203
3377.00,0.0203
3376.00,0.0204
3375.00,0.0204
3374.00,0.0204
3373.00,0.0203
3372.00,0.0203
3371.00,0.0202
3370.00,0.0201
3369.00,0.0201
3368.00,0.0202
3367.00,0.0203
3366.00,0.0204
3365.00,0.0205
3364.00,0.0206
3363.00,0.0206
3362.00,0.0206
3361.00,0.0206
3360.00,0.0207
3359.00,0.0207
3358.00,0.0208
3357.00,0.0209
3356.00,0.0209
3355.00,0.0209
3354.00,0.0208
3353.00,0.0207
3352.00,0.0207
3351.00,0.0207
3350.00,0.0207
3349.00,0.0208
3348.00,0.0209
3347.00,0.0210
3346.00,0.0210
3345.00,0.0209
3344.00,0.0209
3343.00,0.0209
3342.00,0.0209
3341.00,0.0208
3340.00,0.0208
3339.00,0.0208
3338.00,0.0209
3337.00,0.0210
3336.00,0.0211
3335.00,0.0212
3334.00,0.0213
3333.00,0.0213
3332.00,0.0213
3331.00,0.0213
3330.00,0.0213
3329.00,0.0212
3328.00,0.0211
3327.00,0.0211
3326.00,0.0211
3325.00,0.0211
3324.00,0.0212
3323.00,0.0213
3322.00,0.0214
3321.00,0.0215
3320.00,0.0215
3319.00,0.0215
3318.00,0.0215
3317.00,0.0215
3316.00,0.0215
3315.00,0.0215
3314.00,0.0215
3313.00,0.0215
3312.00,0.0214
3311.00,0.0213
3310.00,0.0211
3309.00,0.0210
3308.00,0.0209
3307.00,0.0209
3306.00,0.0210
3305.00,0.0211
3304.00,0.0212
3303.00,0.0214
3302.00,0.0216
3301.00,0.0217
3300.00,0.0217
3299.00,0.0216
3298.00,0.0215
3297.00,0.0214
3296.00,0.0214
3295.00,0.0213
3294.00,0.0213
3293.00,0.0213
3292.00,0.0214
3291.00,0.0215
3290.00,0.0216
3289.00,0.0217
3288.00,0.0217
3287.00,0.0217
3286.00,0.0217
3285.00,0.0217
3284.00,0.0217
3283.00,0.0217
3282.00,0.0217
3281.00,0.0217
3280.00,0.0217
3279.00,0.0217
3278.00,0.0216
3277.00,0.0216
3276.00,0.0215
3275.00,0.0214
3274.00,0.0214
3273.00,0.0213
3272.00,0.0212
3271.00,0.0212
3270.00,0.0212
3269.00,0.0213
3268.00,0.0214
3267.00,0.0215
3266.00,0.0215
3265.00,0.0215
3264.00,0.0215
3263.00,0.0214
3262.00,0.0214
3261.00,0.0213
3260.00,0.0213
3259.00,0.0213
3258.00,0.0212
3257.00,0.0212
3256.00,0.0212
3255.00,0.0212
3254.00,0.0212
3253.00,0.0212
3252.00,0.0212
3251.00,0.0211
3250.00,0.0211
3249.00,0.0210
3248.00,0.0210
3247.00,0.0209
3246.00,0.0210
3245.00,0.0210
3244.00,0.0210
3243.00,0.0210
3242.00,0.0210
3241.00,0.0209
3240.00,0.0209
3239.00,0.0209
3238.00,0.0208
3237.00,0.0208
3236.00,0.0207
3235.00,0.0207
3234.00,0.0207
3233.00,0.0206
3232.00,0.0206
3231.00,0.0206
3230.00,0.0206
3229.00,0.0206
3228.00,0.0206
3227.00,0.0206
3226.00,0.0205
3225.00,0.0205
3224.00,0.0205
3223.00,0.0204
3222.00,0.0204
3221.00,0.0204
3220.00,0.0203
3219.00,0.0203
3218.00,0.0203
3217.00,0.0202
3216.00,0.0202
3215.00,0.0202
3214.00,0.0201
3213.00,0.0201
3212.00,0.0201
3211.00,0.0201
3210.00,0.0201
3209.00,0.0201
3208.00,0.0201
3207.00,0.0200
3206.00,0.0200
3205.00,0.0200
3204.00,0.0200
3203.00,0.0200
3202.00,0.0200
3201.00,0.0199
3200.00,0.0199
3199.00,0.0198
3198.00,0.0198
3197.00,0.0198
3196.00,0.0197
3195.00,0.0197
3194.00,0.0196
3193.00,0.0196
3192.00,0.0196
3191.00,0.0195
3190.00,0.0194
3189.00,0.0194
3188.00,0.0193
3187.00,0.0193
3186.00,0.0193
3185.00,0.0192
3184.00,0.0192
3183.00,0.0191
3182.00,0.0191
3181.00,0.0190
3180.00,0.0190
3179.00,0.0190
3178.00,0.0189
3177.00,0.0189
3176.00,0.0188
3175.00,0.0188
3174.00,0.0187
3173.00,0.0187
3172.00,0.0186
3171.00,0.0186
3170.00,0.0185
3169.00,0.0184
3168.00,0.0184
3167.00,0.0183
3166.00,0.0182
3165.00,0.0182
3164.00,0.0181
3163.00,0.0181
3162.00,0.0180
3161.00,0.0179
3160.00,0.0179
3159.00,0.0178
3158.00,0.0177
3157.00,0.0177
3156.00,0.0176
3155.00,0.0175
3154.00,0.0175
3153.00,0.0174
3152.00,0.0173
3151.00,0.0173
3150.00,0.0173
3149.00,0.0172
3148.00,0.0172
3147.00,0.0172
3146.00,0.0171
3145.00,0.0171
3144.00,0.0170
3143.00,0.0169
3142.00,0.0169
3141.00,0.0168
3140.00,0.0168
3139.00,0.0167
3138.00,0.0167
3137.00,0.0166
3136.00,0.0166
3135.00,0.0166
3134.00,0.0165
3133.00,0.0165
3132.00,0.0164
3131.00,0.0164
3130.00,0.0163
3129.00,0.0163
3128.00,0.0162
3127.00,0.0162
3126.00,0.0161
3125.00,0.0161
3124.00,0.0160
3123.00,0.0160
3122.00,0.0159
3121.00,0.0158
3120.00,0.0158
3119.00,0.0157
3118.00,0.0157
3117.00,0.0156
3116.00,0.0156
3115.00,0.0155
3114.00,0.0154
3113.00,0.0154
3112.00,0.0153
3111.00,0.0153
3110.00,0.0152
3109.00,0.0151
3108.00,0.0151
3107.00,0.0150
3106.00,0.0149
3105.00,0.0149
3104.00,0.0148
3103.00,0.0147
3102.00,0.0147
3101.00,0.0146
3100.00,0.0145
3099.00,0.0145
3098.00,0.0144
3097.00,0.0144
3096.00,0.0143
3095.00,0.0143
3094.00,0.0142
3093.00,0.0142
3092.00,0.0141
3091.00,0.0140
3090.00,0.0139
3089.00,0.0139
3088.00,0.0138
3087.00,0.0137
3086.00,0.0137
3085.00,0.0136
3084.00,0.0135
3083.00,0.0135
3082.00,0.0134
3081.00,0.0134
3080.00,0.0133
3079.00,0.0132
3078.00,0.0132
3077.00,0.0131
3076.00,0.0131
3075.00,0.0130
3074.00,0.0130
3073.00,0.0129
3072.00,0.0129
3071.00,0.0128
3070.00,0.0128
3069.00,0.0127
3068.00,0.0127
3067.00,0.0127
3066.00,0.0127
3065.00,0.0127
3064.00,0.0127
3063.00,0.0126
3062.00,0.0126
3061.00,0.0125
3060.00,0.0125
3059.00,0.0124
3058.00,0.0124
3057.00,0.0124
3056.00,0.0123
3055.00,0.0123
3054.00,0.0123
3053.00,0.0122
3052.00,0.0122
3051.00,0.0121
3050.00,0.0121
3049.00,0.0121
3048.00,0.0120
3047.00,0.0120
3046.00,0.0119
3045.00,0.0119
3044.00,0.0119
3043.00,0.0118
3042.00,0.0118
3041.00,0.0118
3040.00,0.0118
3039.00,0.0118
3038.00,0.0117
3037.00,0.0117
3036.00,0.0117
3035.00,0.0117
3034.00,0.0116
3033.00,0.0116
3032.00,0.0116
3031.00,0.0116
3030.00,0.0116
3029.00,0.0116
3028.00,0.0116
3027.00,0.0116
3026.00,0.0116
3025.00,0.0116
3024.00,0.0116
3023.00,0.0116
3022.00,0.0117
3021.00,0.0117
3020.00,0.0117
3019.00,0.0117
3018.00,0.0117
3017.00,0.0117
3016.00,0.0117
3015.00,0.0117
3014.00,0.0117
3013.00,0.0118
3012.00,0.0119
3011.00,0.0120
3010.00,0.0120
3009.00,0.0121
3008.00,0.0122
3007.00,0.0123
3006.00,0.0124
3005.00,0.0125
3004.00,0.0127
3003.00,0.0128
3002.00,0.0130
3001.00,0.0132
3000.00,0.0134
2999.00,0.0137
2998.00,0.0140
2997.00,0.0143
2996.00,0.0147
2995.00,0.0150
2994.00,0.0154
2993.00,0.0158
2992.00,0.0162
2991.00,0.0166
2990.00,0.0171
2989.00,0.0175
2988.00,0.0179
2987.00,0.0182
2986.00,0.0185
2985.00,0.0187
2984.00,0.0187
2983.00,0.0188
2982.00,0.0190
2981.00,0.0193
2980.00,0.0197
2979.00,0.0203
2978.00,0.0208
2977.00,0.0214
2976.00,0.0218
2975.00,0.0223
2974.00,0.0227
2973.00,0.0230
2972.00,0.0234
2971.00,0.0239
2970.00,0.0244
2969.00,0.0250
2968.00,0.0256
2967.00,0.0262
2966.00,0.0267
2965.00,0.0272
2964.00,0.0277
2963.00,0.0282
2962.00,0.0286
2961.00,0.0290
2960.00,0.0294
2959.00,0.0297
2958.00,0.0299
2957.00,0.0302
2956.00,0.0303
2955.00,0.0305
2954.00,0.0306
2953.00,0.0306
2952.00,0.0307
2951.00,0.0306
2950.00,0.0306
2949.00,0.0305
2948.00,0.0304
2947.00,0.0303
2946.00,0.0303
2945.00,0.0303
2944.00,0.0304
2943.00,0.0306
2942.00,0.0308
2941.00,0.0310
2940.00,0.0312
2939.00,0.0315
2938.00,0.0319
2937.00,0.0323
2936.00,0.0327
2935.00,0.0331
2934.00,0.0336
2933.00,0.0340
2932.00,0.0344
2931.00,0.0347
2930.00,0.0351
2929.00,0.0354
2928.00,0.0357
2927.00,0.0360
2926.00,0.0362
2925.00,0.0363
2924.00,0.0364
2923.00,0.0365
2922.00,0.0365
2921.00,0.0364
2920.00,0.0362
2919.00,0.0359
2918.00,0.0356
2917.00,0.0353
2916.00,0.0349
2915.00,0.0345
2914.00,0.0341
2913.00,0.0336
2912.00,0.0331
2911.00,0.0326
2910.00,0.0321
2909.00,0.0316
2908.00,0.0311
2907.00,0.0306
2906.00,0.0301
2905.00,0.0297
2904.00,0.0293
2903.00,0.0290
2902.00,0.0287
2901.00,0.0284
2900.00,0.0282
2899.00,0.0280
2898.00,0.0278
2897.00,0.0277
2896.00,0.0275
2895.00,0.0274
2894.00,0.0273
2893.00,0.0271
2892.00,0.0270
2891.00,0.0268
2890.00,0.0267
2889.00,0.0266
2888.00,0.0265
2887.00,0.0264
2886.00,0.0262
2885.00,0.0261
2884.00,0.0261
2883.00,0.0260
2882.00,0.0260
2881.00,0.0260
2880.00,0.0261
2879.00,0.0261
2878.00,0.0262
2877.00,0.0262
2876.00,0.0262
2875.00,0.0262
2874.00,0.0263
2873.00,0.0263
2872.00,0.0264
2871.00,0.0264
2870.00,0.0264
2869.00,0.0263
2868.00,0.0263
2867.00,0.0262
2866.00,0.0262
2865.00,0.0262
2864.00,0.0262
2863.00,0.0262
2862.00,0.0263
2861.00,0.0264
2860.00,0.0265
2859.00,0.0266
2858.00,0.0266
2857.00,0.0265
2856.00,0.0264
2855.00,0.0261
2854.00,0.0258
2853.00,0.0253
2852.00,0.0248
2851.00,0.0243
2850.00,0.0236
2849.00,0.0230
2848.00,0.0224
2847.00,0.0219
2846.00,0.0213
2845.00,0.0207
2844.00,0.0202
2843.00,0.0196
2842.00,0.0190
2841.00,0.0185
2840.00,0.0180
2839.00,0.0175
2838.00,0.0171
2837.00,0.0167
2836.00,0.0163
2835.00,0.0160
2834.00,0.0156
2833.00,0.0153
2832.00,0.0150
2831.00,0.0146
2830.00,0.0143
2829.00,0.0140
2828.00,0.0137
2827.00,0.0134
2826.00,0.0131
2825.00,0.0128
2824.00,0.0125
2823.00,0.0122
2822.00,0.0120
2821.00,0.0117
2820.00,0.0115
2819.00,0.0113
2818.00,0.0111
2817.00,0.0109
2816.00,0.0107
2815.00,0.0105
2814.00,0.0104
2813.00,0.0102
2812.00,0.0101
2811.00,0.0100
2810.00,0.0099
2809.00,0.0098
2808.00,0.0098
2807.00,0.0097
2806.00,0.0096
2805.00,0.0095
2804.00,0.0095
2803.00,0.0094
2802.00,0.0093
2801.00,0.0092
2800.00,0.0092
2799.00,0.0091
2798.00,0.0090
2797.00,0.0090
2796.00,0.0089
2795.00,0.0089
2794.00,0.0089
2793.00,0.0088
2792.00,0.0088
2791.00,0.0088
2790.00,0.0087
2789.00,0.0087
2788.00,0.0086
2787.00,0.0086
2786.00,0.0086
2785.00,0.0086
2784.00,0.0085
2783.00,0.0085
2782.00,0.0085
2781.00,0.0084
2780.00,0.0084
2779.00,0.0084
2778.00,0.0083
2777.00,0.0083
2776.00,0.0083
2775.00,0.0082
2774.00,0.0082
2773.00,0.0081
2772.00,0.0081
2771.00,0.0081
2770.00,0.0081
2769.00,0.0081
2768.00,0.0081
2767.00,0.0081
2766.00,0.0081
2765.00,0.0081
2764.00,0.0081
2763.00,0.0081
2762.00,0.0081
2761.00,0.0080
2760.00,0.0080
2759.00,0.0080
2758.00,0.0080
2757.00,0.0080
