Created as New Dataset,Sample 899 By YargerLab Date Wednesday, July 23 2025
cm-1,A
4000.00,0.0018
3999.00,0.0018
3998.00,0.0018
3997.00,0.0018
3996.00,0.0018
3995.00,0.0018
3994.00,0.0018
3993.00,0.0018
3992.00,0.0018
3991.00,0.0018
3990.00,0.0018
3989.00,0.0018
3988.00,0.0018
3987.00,0.0019
3986.00,0.0019
3985.00,0.0019
3984.00,0.0019
3983.00,0.0019
3982.00,0.0018
3981.00,0.0018
3980.00,0.0018
3979.00,0.0018
3978.00,0.0018
3977.00,0.0018
3976.00,0.0018
3975.00,0.0018
3974.00,0.0018
3973.00,0.0018
3972.00,0.0018
3971.00,0.0018
3970.00,0.0018
3969.00,0.0019
3968.00,0.0019
3967.00,0.0019
3966.00,0.0019
3965.00,0.0019
3964.00,0.0019
3963.00,0.0019
3962.00,0.0019
3961.00,0.0019
3960.00,0.0019
3959.00,0.0019
3958.00,0.0019
3957.00,0.0019
3956.00,0.0019
3955.00,0.0019
3954.00,0.0019
3953.00,0.0019
3952.00,0.0018
3951.00,0.0018
3950.00,0.0018
3949.00,0.0018
3948.00,0.0018
3947.00,0.0018
3946.00,0.0018
3945.00,0.0017
3944.00,0.0018
3943.00,0.0018
3942.00,0.0018
3941.00,0.0019
3940.00,0.0019
3939.00,0.0018
3938.00,0.0018
3937.00,0.0018
3936.00,0.0018
3935.00,0.0018
3934.00,0.0017
3933.00,0.0017
3932.00,0.0017
3931.00,0.0017
3930.00,0.0017
3929.00,0.0018
3928.00,0.0018
3927.00,0.0018
3926.00,0.0018
3925.00,0.0018
3924.00,0.0018
3923.00,0.0018
3922.00,0.0017
3921.00,0.0017
3920.00,0.0017
3919.00,0.0017
3918.00,0.0017
3917.00,0.0017
3916.00,0.0017
3915.00,0.0018
3914.00,0.0018
3913.00,0.0018
3912.00,0.0018
3911.00,0.0018
3910.00,0.0018
3909.00,0.0018
3908.00,0.0018
3907.00,0.0018
3906.00,0.0017
3905.00,0.0017
3904.00,0.0016
3903.00,0.0015
3902.00,0.0015
3901.00,0.0014
3900.00,0.0015
3899.00,0.0015
3898.00,0.0016
3897.00,0.0016
3896.00,0.0016
3895.00,0.0017
3894.00,0.0017
3893.00,0.0017
3892.00,0.0017
3891.00,0.0017
3890.00,0.0017
3889.00,0.0016
3888.00,0.0016
3887.00,0.0015
3886.00,0.0015
3885.00,0.0015
3884.00,0.0016
3883.00,0.0016
3882.00,0.0016
3881.00,0.0016
3880.00,0.0016
3879.00,0.0017
3878.00,0.0017
3877.00,0.0016
3876.00,0.0016
3875.00,0.0016
3874.00,0.0016
3873.00,0.0017
3872.00,0.0016
3871.00,0.0015
3870.00,0.0014
3869.00,0.0014
3868.00,0.0015
3867.00,0.0015
3866.00,0.0014
3865.00,0.0014
3864.00,0.0015
3863.00,0.0016
3862.00,0.0015
3861.00,0.0015
3860.00,0.0015
3859.00,0.0015
3858.00,0.0016
3857.00,0.0017
3856.00,0.0017
3855.00,0.0017
3854.00,0.0016
3853.00,0.0016
3852.00,0.0015
3851.00,0.0015
3850.00,0.0015
3849.00,0.0015
3848.00,0.0015
3847.00,0.0015
3846.00,0.0015
3845.00,0.0015
3844.00,0.0015
3843.00,0.0015
3842.00,0.0015
3841.00,0.0015
3840.00,0.0015
3839.00,0.0015
3838.00,0.0015
3837.00,0.0015
3836.00,0.0015
3835.00,0.0015
3834.00,0.0015
3833.00,0.0015
3832.00,0.0015
3831.00,0.0016
3830.00,0.0016
3829.00,0.0016
3828.00,0.0016
3827.00,0.0016
3826.00,0.0016
3825.00,0.0016
3824.00,0.0016
3823.00,0.0015
3822.00,0.0014
3821.00,0.0015
3820.00,0.0016
3819.00,0.0016
3818.00,0.0015
3817.00,0.0015
3816.00,0.0015
3815.00,0.0016
3814.00,0.0016
3813.00,0.0016
3812.00,0.0016
3811.00,0.0017
3810.00,0.0017
3809.00,0.0017
3808.00,0.0016
3807.00,0.0016
3806.00,0.0015
3805.00,0.0015
3804.00,0.0015
3803.00,0.0014
3802.00,0.0014
3801.00,0.0015
3800.00,0.0015
3799.00,0.0015
3798.00,0.0015
3797.00,0.0015
3796.00,0.0015
3795.00,0.0016
3794.00,0.0016
3793.00,0.0017
3792.00,0.0017
3791.00,0.0017
3790.00,0.0018
3789.00,0.0018
3788.00,0.0018
3787.00,0.0018
3786.00,0.0018
3785.00,0.0018
3784.00,0.0018
3783.00,0.0017
3782.00,0.0017
3781.00,0.0017
3780.00,0.0017
3779.00,0.0017
3778.00,0.0018
3777.00,0.0018
3776.00,0.0017
3775.00,0.0017
3774.00,0.0017
3773.00,0.0017
3772.00,0.0017
3771.00,0.0017
3770.00,0.0017
3769.00,0.0017
3768.00,0.0017
3767.00,0.0016
3766.00,0.0016
3765.00,0.0016
3764.00,0.0016
3763.00,0.0016
3762.00,0.0016
3761.00,0.0015
3760.00,0.0015
3759.00,0.0016
3758.00,0.0015
3757.00,0.0015
3756.00,0.0015
3755.00,0.0015
3754.00,0.0014
3753.00,0.0014
3752.00,0.0014
3751.00,0.0013
3750.00,0.0013
3749.00,0.0012
3748.00,0.0013
3747.00,0.0013
3746.00,0.0013
3745.00,0.0012
3744.00,0.0012
3743.00,0.0013
3742.00,0.0013
3741.00,0.0012
3740.00,0.0012
3739.00,0.0011
3738.00,0.0011
3737.00,0.0010
3736.00,0.0011
3735.00,0.0011
3734.00,0.0012
3733.00,0.0012
3732.00,0.0012
3731.00,0.0013
3730.00,0.0013
3729.00,0.0013
3728.00,0.0013
3727.00,0.0014
3726.00,0.0014
3725.00,0.0014
3724.00,0.0015
3723.00,0.0015
3722.00,0.0015
3721.00,0.0015
3720.00,0.0015
3719.00,0.0015
3718.00,0.0015
3717.00,0.0015
3716.00,0.0015
3715.00,0.0015
3714.00,0.0015
3713.00,0.0014
3712.00,0.0014
3711.00,0.0014
3710.00,0.0014
3709.00,0.0014
3708.00,0.0014
3707.00,0.0014
3706.00,0.0015
3705.00,0.0016
3704.00,0.0016
3703.00,0.0016
3702.00,0.0016
3701.00,0.0017
3700.00,0.0016
3699.00,0.0016
3698.00,0.0016
3697.00,0.0016
3696.00,0.0017
3695.00,0.0017
3694.00,0.0017
3693.00,0.0016
3692.00,0.0016
3691.00,0.0016
3690.00,0.0016
3689.00,0.0015
3688.00,0.0015
3687.00,0.0015
3686.00,0.0015
3685.00,0.0015
3684.00,0.0016
3683.00,0.0016
3682.00,0.0016
3681.00,0.0016
3680.00,0.0016
3679.00,0.0016
3678.00,0.0015
3677.00,0.0014
3676.00,0.0013
3675.00,0.0013
3674.00,0.0013
3673.00,0.0013
3672.00,0.0013
3671.00,0.0013
3670.00,0.0014
3669.00,0.0015
3668.00,0.0015
3667.00,0.0016
3666.00,0.0016
3665.00,0.0016
3664.00,0.0017
3663.00,0.0017
3662.00,0.0017
3661.00,0.0017
3660.00,0.0018
3659.00,0.0018
3658.00,0.0018
3657.00,0.0018
3656.00,0.0018
3655.00,0.0018
3654.00,0.0017
3653.00,0.0017
3652.00,0.0016
3651.00,0.0015
3650.00,0.0015
3649.00,0.0015
3648.00,0.0015
3647.00,0.0016
3646.00,0.0016
3645.00,0.0017
3644.00,0.0018
3643.00,0.0019
3642.00,0.0020
3641.00,0.0021
3640.00,0.0021
3639.00,0.0022
3638.00,0.0022
3637.00,0.0022
3636.00,0.0022
3635.00,0.0022
3634.00,0.0023
3633.00,0.0024
3632.00,0.0024
3631.00,0.0023
3630.00,0.0023
3629.00,0.0022
3628.00,0.0022
3627.00,0.0022
3626.00,0.0022
3625.00,0.0022
3624.00,0.0023
3623.00,0.0024
3622.00,0.0025
3621.00,0.0026
3620.00,0.0026
3619.00,0.0026
3618.00,0.0026
3617.00,0.0026
3616.00,0.0025
3615.00,0.0025
3614.00,0.0025
3613.00,0.0026
3612.00,0.0026
3611.00,0.0026
3610.00,0.0026
3609.00,0.0026
3608.00,0.0027
3607.00,0.0027
3606.00,0.0028
3605.00,0.0029
3604.00,0.0030
3603.00,0.0030
3602.00,0.0031
3601.00,0.0031
3600.00,0.0032
3599.00,0.0032
3598.00,0.0032
3597.00,0.0032
3596.00,0.0032
3595.00,0.0033
3594.00,0.0033
3593.00,0.0033
3592.00,0.0033
3591.00,0.0034
3590.00,0.0034
3589.00,0.0034
3588.00,0.0035
3587.00,0.0036
3586.00,0.0036
3585.00,0.0036
3584.00,0.0037
3583.00,0.0037
3582.00,0.0038
3581.00,0.0039
3580.00,0.0039
3579.00,0.0040
3578.00,0.0040
3577.00,0.0040
3576.00,0.0041
3575.00,0.0041
3574.00,0.0041
3573.00,0.0042
3572.00,0.0042
3571.00,0.0042
3570.00,0.0042
3569.00,0.0042
3568.00,0.0042
3567.00,0.0043
3566.00,0.0043
3565.00,0.0043
3564.00,0.0044
3563.00,0.0044
3562.00,0.0045
3561.00,0.0046
3560.00,0.0047
3559.00,0.0048
3558.00,0.0048
3557.00,0.0049
3556.00,0.0049
3555.00,0.0050
3554.00,0.0050
3553.00,0.0050
3552.00,0.0050
3551.00,0.0051
3550.00,0.0051
3549.00,0.0051
3548.00,0.0051
3547.00,0.0052
3546.00,0.0052
3545.00,0.0053
3544.00,0.0053
3543.00,0.0054
3542.00,0.0055
3541.00,0.0055
3540.00,0.0056
3539.00,0.0057
3538.00,0.0057
3537.00,0.0058
3536.00,0.0058
3535.00,0.0058
3534.00,0.0059
3533.00,0.0059
3532.00,0.0059
3531.00,0.0059
3530.00,0.0060
3529.00,0.0060
3528.00,0.0060
3527.00,0.0061
3526.00,0.0061
3525.00,0.0062
3524.00,0.0063
3523.00,0.0063
3522.00,0.0064
3521.00,0.0064
3520.00,0.0065
3519.00,0.0066
3518.00,0.0067
3517.00,0.0067
3516.00,0.0068
3515.00,0.0069
3514.00,0.0069
3513.00,0.0070
3512.00,0.0070
3511.00,0.0071
3510.00,0.0071
3509.00,0.0072
3508.00,0.0073
3507.00,0.0073
3506.00,0.0074
3505.00,0.0075
3504.00,0.0075
3503.00,0.0076
3502.00,0.0076
3501.00,0.0077
3500.00,0.0078
3499.00,0.0078
3498.00,0.0079
3497.00,0.0080
3496.00,0.0081
3495.00,0.0082
3494.00,0.0082
3493.00,0.0083
3492.00,0.0084
3491.00,0.0084
3490.00,0.0085
3489.00,0.0085
3488.00,0.0086
3487.00,0.0087
3486.00,0.0087
3485.00,0.0088
3484.00,0.0089
3483.00,0.0090
3482.00,0.0090
3481.00,0.0091
3480.00,0.0092
3479.00,0.0092
3478.00,0.0093
3477.00,0.0094
3476.00,0.0094
3475.00,0.0095
3474.00,0.0096
3473.00,0.0096
3472.00,0.0097
3471.00,0.0098
3470.00,0.0098
3469.00,0.0099
3468.00,0.0099
3467.00,0.0099
3466.00,0.0100
3465.00,0.0100
3464.00,0.0101
3463.00,0.0101
3462.00,0.0102
3461.00,0.0102
3460.00,0.0103
3459.00,0.0103
3458.00,0.0104
3457.00,0.0105
3456.00,0.0105
3455.00,0.0106
3454.00,0.0106
3453.00,0.0106
3452.00,0.0106
3451.00,0.0107
3450.00,0.0107
3449.00,0.0108
3448.00,0.0108
3447.00,0.0109
3446.00,0.0109
3445.00,0.0110
3444.00,0.0110
3443.00,0.0111
3442.00,0.0111
3441.00,0.0112
3440.00,0.0112
3439.00,0.0113
3438.00,0.0113
3437.00,0.0114
3436.00,0.0114
3435.00,0.0114
3434.00,0.0115
3433.00,0.0115
3432.00,0.0115
3431.00,0.0116
3430.00,0.0116
3429.00,0.0117
3428.00,0.0117
3427.00,0.0117
3426.00,0.0118
3425.00,0.0118
3424.00,0.0119
3423.00,0.0120
3422.00,0.0120
3421.00,0.0120
3420.00,0.0121
3419.00,0.0121
3418.00,0.0122
3417.00,0.0122
3416.00,0.0123
3415.00,0.0123
3414.00,0.0123
3413.00,0.0123
3412.00,0.0124
3411.00,0.0124
3410.00,0.0124
3409.00,0.0125
3408.00,0.0125
3407.00,0.0126
3406.00,0.0126
3405.00,0.0127
3404.00,0.0127
3403.00,0.0127
3402.00,0.0128
3401.00,0.0128
3400.00,0.0129
3399.00,0.0129
3398.00,0.0130
3397.00,0.0130
3396.00,0.0130
3395.00,0.0131
3394.00,0.0131
3393.00,0.0132
3392.00,0.0132
3391.00,0.0133
3390.00,0.0133
3389.00,0.0134
3388.00,0.0135
3387.00,0.0136
3386.00,0.0136
3385.00,0.0137
3384.00,0.0137
3383.00,0.0138
3382.00,0.0139
3381.00,0.0139
3380.00,0.0140
3379.00,0.0141
3378.00,0.0142
3377.00,0.0142
3376.00,0.0143
3375.00,0.0143
3374.00,0.0144
3373.00,0.0145
3372.00,0.0145
3371.00,0.0146
3370.00,0.0146
3369.00,0.0147
3368.00,0.0148
3367.00,0.0148
3366.00,0.0149
3365.00,0.0150
3364.00,0.0151
3363.00,0.0152
3362.00,0.0153
3361.00,0.0154
3360.00,0.0154
3359.00,0.0155
3358.00,0.0156
3357.00,0.0157
3356.00,0.0158
3355.00,0.0158
3354.00,0.0159
3353.00,0.0160
3352.00,0.0160
3351.00,0.0161
3350.00,0.0162
3349.00,0.0163
3348.00,0.0163
3347.00,0.0164
3346.00,0.0164
3345.00,0.0165
3344.00,0.0165
3343.00,0.0166
3342.00,0.0167
3341.00,0.0167
3340.00,0.0168
3339.00,0.0169
3338.00,0.0169
3337.00,0.0170
3336.00,0.0171
3335.00,0.0172
3334.00,0.0172
3333.00,0.0173
3332.00,0.0174
3331.00,0.0174
3330.00,0.0175
3329.00,0.0175
3328.00,0.0175
3327.00,0.0176
3326.00,0.0176
3325.00,0.0177
3324.00,0.0177
3323.00,0.0178
3322.00,0.0179
3321.00,0.0180
3320.00,0.0180
3319.00,0.0181
3318.00,0.0182
3317.00,0.0182
3316.00,0.0183
3315.00,0.0184
3314.00,0.0185
3313.00,0.0185
3312.00,0.0185
3311.00,0.0186
3310.00,0.0186
3309.00,0.0186
3308.00,0.0187
3307.00,0.0188
3306.00,0.0188
3305.00,0.0189
3304.00,0.0190
3303.00,0.0191
3302.00,0.0192
3301.00,0.0193
3300.00,0.0194
3299.00,0.0194
3298.00,0.0195
3297.00,0.0195
3296.00,0.0195
3295.00,0.0195
3294.00,0.0196
3293.00,0.0197
3292.00,0.0197
3291.00,0.0198
3290.00,0.0199
3289.00,0.0200
3288.00,0.0200
3287.00,0.0200
3286.00,0.0201
3285.00,0.0201
3284.00,0.0201
3283.00,0.0201
3282.00,0.0202
3281.00,0.0202
3280.00,0.0202
3279.00,0.0202
3278.00,0.0202
3277.00,0.0203
3276.00,0.0202
3275.00,0.0202
3274.00,0.0201
3273.00,0.0201
3272.00,0.0200
3271.00,0.0200
3270.00,0.0200
3269.00,0.0200
3268.00,0.0200
3267.00,0.0200
3266.00,0.0200
3265.00,0.0200
3264.00,0.0199
3263.00,0.0198
3262.00,0.0198
3261.00,0.0197
3260.00,0.0196
3259.00,0.0196
3258.00,0.0195
3257.00,0.0194
3256.00,0.0193
3255.00,0.0192
3254.00,0.0191
3253.00,0.0191
3252.00,0.0190
3251.00,0.0190
3250.00,0.0189
3249.00,0.0188
3248.00,0.0187
3247.00,0.0186
3246.00,0.0185
3245.00,0.0185
3244.00,0.0184
3243.00,0.0184
3242.00,0.0183
3241.00,0.0183
3240.00,0.0182
3239.00,0.0182
3238.00,0.0181
3237.00,0.0180
3236.00,0.0180
3235.00,0.0179
3234.00,0.0178
3233.00,0.0178
3232.00,0.0178
3231.00,0.0177
3230.00,0.0177
3229.00,0.0177
3228.00,0.0177
3227.00,0.0177
3226.00,0.0176
3225.00,0.0176
3224.00,0.0175
3223.00,0.0175
3222.00,0.0175
3221.00,0.0174
3220.00,0.0174
3219.00,0.0174
3218.00,0.0173
3217.00,0.0173
3216.00,0.0173
3215.00,0.0173
3214.00,0.0172
3213.00,0.0172
3212.00,0.0171
3211.00,0.0171
3210.00,0.0171
3209.00,0.0171
3208.00,0.0170
3207.00,0.0170
3206.00,0.0170
3205.00,0.0170
3204.00,0.0170
3203.00,0.0170
3202.00,0.0169
3201.00,0.0168
3200.00,0.0168
3199.00,0.0167
3198.00,0.0167
3197.00,0.0166
3196.00,0.0166
3195.00,0.0166
3194.00,0.0166
3193.00,0.0165
3192.00,0.0164
3191.00,0.0164
3190.00,0.0163
3189.00,0.0163
3188.00,0.0162
3187.00,0.0162
3186.00,0.0161
3185.00,0.0160
3184.00,0.0159
3183.00,0.0159
3182.00,0.0158
3181.00,0.0158
3180.00,0.0157
3179.00,0.0156
3178.00,0.0156
3177.00,0.0155
3176.00,0.0154
3175.00,0.0154
3174.00,0.0153
3173.00,0.0153
3172.00,0.0152
3171.00,0.0152
3170.00,0.0151
3169.00,0.0151
3168.00,0.0150
3167.00,0.0149
3166.00,0.0149
3165.00,0.0148
3164.00,0.0147
3163.00,0.0147
3162.00,0.0146
3161.00,0.0145
3160.00,0.0145
3159.00,0.0144
3158.00,0.0143
3157.00,0.0143
3156.00,0.0142
3155.00,0.0141
3154.00,0.0140
3153.00,0.0139
3152.00,0.0139
3151.00,0.0138
3150.00,0.0137
3149.00,0.0137
3148.00,0.0137
3147.00,0.0136
3146.00,0.0136
3145.00,0.0135
3144.00,0.0135
3143.00,0.0134
3142.00,0.0134
3141.00,0.0133
3140.00,0.0133
3139.00,0.0132
3138.00,0.0131
3137.00,0.0131
3136.00,0.0131
3135.00,0.0130
3134.00,0.0130
3133.00,0.0129
3132.00,0.0129
3131.00,0.0129
3130.00,0.0128
3129.00,0.0128
3128.00,0.0127
3127.00,0.0127
3126.00,0.0126
3125.00,0.0126
3124.00,0.0126
3123.00,0.0125
3122.00,0.0125
3121.00,0.0125
3120.00,0.0124
3119.00,0.0124
3118.00,0.0123
3117.00,0.0123
3116.00,0.0123
3115.00,0.0123
3114.00,0.0123
3113.00,0.0123
3112.00,0.0123
3111.00,0.0123
3110.00,0.0123
3109.00,0.0123
3108.00,0.0123
3107.00,0.0123
3106.00,0.0123
3105.00,0.0123
3104.00,0.0122
3103.00,0.0122
3102.00,0.0122
3101.00,0.0121
3100.00,0.0122
3099.00,0.0122
3098.00,0.0122
3097.00,0.0122
3096.00,0.0122
3095.00,0.0122
3094.00,0.0122
3093.00,0.0122
3092.00,0.0122
3091.00,0.0122
3090.00,0.0122
3089.00,0.0122
3088.00,0.0122
3087.00,0.0122
3086.00,0.0122
3085.00,0.0122
3084.00,0.0121
3083.00,0.0121
3082.00,0.0121
3081.00,0.0121
3080.00,0.0121
3079.00,0.0121
3078.00,0.0121
3077.00,0.0121
3076.00,0.0122
3075.00,0.0122
3074.00,0.0122
3073.00,0.0122
3072.00,0.0122
3071.00,0.0122
3070.00,0.0121
3069.00,0.0121
3068.00,0.0121
3067.00,0.0121
3066.00,0.0121
3065.00,0.0121
3064.00,0.0121
3063.00,0.0121
3062.00,0.0121
3061.00,0.0121
3060.00,0.0121
3059.00,0.0121
3058.00,0.0120
3057.00,0.0119
3056.00,0.0119
3055.00,0.0118
3054.00,0.0118
3053.00,0.0118
3052.00,0.0117
3051.00,0.0117
3050.00,0.0116
3049.00,0.0116
3048.00,0.0115
3047.00,0.0115
3046.00,0.0114
3045.00,0.0114
3044.00,0.0113
3043.00,0.0113
3042.00,0.0112
3041.00,0.0112
3040.00,0.0111
3039.00,0.0111
3038.00,0.0111
3037.00,0.0111
3036.00,0.0111
3035.00,0.0110
3034.00,0.0109
3033.00,0.0109
3032.00,0.0108
3031.00,0.0108
3030.00,0.0108
3029.00,0.0108
3028.00,0.0108
3027.00,0.0107
3026.00,0.0106
3025.00,0.0106
3024.00,0.0105
3023.00,0.0105
3022.00,0.0105
3021.00,0.0104
3020.00,0.0103
3019.00,0.0103
3018.00,0.0102
3017.00,0.0101
3016.00,0.0101
3015.00,0.0100
3014.00,0.0099
3013.00,0.0099
3012.00,0.0098
3011.00,0.0098
3010.00,0.0098
3009.00,0.0097
3008.00,0.0097
3007.00,0.0097
3006.00,0.0097
3005.00,0.0096
3004.00,0.0096
3003.00,0.0096
3002.00,0.0095
3001.00,0.0095
3000.00,0.0095
2999.00,0.0094
2998.00,0.0094
2997.00,0.0094
2996.00,0.0094
2995.00,0.0094
2994.00,0.0094
2993.00,0.0094
2992.00,0.0095
2991.00,0.0095
2990.00,0.0096
2989.00,0.0097
2988.00,0.0097
2987.00,0.0098
2986.00,0.0098
2985.00,0.0098
2984.00,0.0098
2983.00,0.0098
2982.00,0.0098
2981.00,0.0099
2980.00,0.0100
2979.00,0.0102
2978.00,0.0104
2977.00,0.0106
2976.00,0.0107
2975.00,0.0109
2974.00,0.0110
2973.00,0.0111
2972.00,0.0113
2971.00,0.0114
2970.00,0.0115
2969.00,0.0117
2968.00,0.0118
2967.00,0.0120
2966.00,0.0121
2965.00,0.0122
2964.00,0.0123
2963.00,0.0123
2962.00,0.0124
2961.00,0.0124
2960.00,0.0124
2959.00,0.0124
2958.00,0.0124
2957.00,0.0124
2956.00,0.0124
2955.00,0.0123
2954.00,0.0123
2953.00,0.0123
2952.00,0.0122
2951.00,0.0122
2950.00,0.0122
2949.00,0.0122
2948.00,0.0121
2947.00,0.0121
2946.00,0.0121
2945.00,0.0121
2944.00,0.0121
2943.00,0.0122
2942.00,0.0122
2941.00,0.0123
2940.00,0.0124
2939.00,0.0125
2938.00,0.0125
2937.00,0.0126
2936.00,0.0126
2935.00,0.0126
2934.00,0.0126
2933.00,0.0127
2932.00,0.0127
2931.00,0.0127
2930.00,0.0127
2929.00,0.0128
2928.00,0.0128
2927.00,0.0128
2926.00,0.0128
2925.00,0.0128
2924.00,0.0128
2923.00,0.0128
2922.00,0.0127
2921.00,0.0127
2920.00,0.0127
2919.00,0.0127
2918.00,0.0126
2917.00,0.0125
2916.00,0.0124
2915.00,0.0123
2914.00,0.0121
2913.00,0.0120
2912.00,0.0118
2911.00,0.0117
2910.00,0.0116
2909.00,0.0115
2908.00,0.0114
2907.00,0.0113
2906.00,0.0112
2905.00,0.0111
2904.00,0.0111
2903.00,0.0110
2902.00,0.0109
2901.00,0.0108
2900.00,0.0108
2899.00,0.0107
2898.00,0.0107
2897.00,0.0106
2896.00,0.0106
2895.00,0.0105
2894.00,0.0105
2893.00,0.0104
2892.00,0.0104
2891.00,0.0104
2890.00,0.0103
2889.00,0.0103
2888.00,0.0103
2887.00,0.0103
2886.00,0.0103
2885.00,0.0103
2884.00,0.0103
2883.00,0.0104
2882.00,0.0104
2881.00,0.0104
2880.00,0.0105
2879.00,0.0105
2878.00,0.0106
2877.00,0.0106
2876.00,0.0106
2875.00,0.0106
2874.00,0.0106
2873.00,0.0105
2872.00,0.0105
2871.00,0.0105
2870.00,0.0104
2869.00,0.0104
2868.00,0.0103
2867.00,0.0102
2866.00,0.0102
2865.00,0.0101
2864.00,0.0100
2863.00,0.0099
2862.00,0.0099
2861.00,0.0098
2860.00,0.0098
2859.00,0.0097
2858.00,0.0097
2857.00,0.0097
2856.00,0.0097
2855.00,0.0097
2854.00,0.0097
2853.00,0.0096
2852.00,0.0096
2851.00,0.0096
2850.00,0.0095
2849.00,0.0095
2848.00,0.0094
2847.00,0.0093
2846.00,0.0092
2845.00,0.0091
2844.00,0.0089
2843.00,0.0088
2842.00,0.0087
2841.00,0.0086
2840.00,0.0086
2839.00,0.0085
2838.00,0.0084
2837.00,0.0084
2836.00,0.0083
2835.00,0.0083
2834.00,0.0082
2833.00,0.0082
2832.00,0.0082
2831.00,0.0081
2830.00,0.0081
2829.00,0.0081
2828.00,0.0081
2827.00,0.0080
2826.00,0.0080
2825.00,0.0080
2824.00,0.0079
2823.00,0.0079
2822.00,0.0079
2821.00,0.0079
2820.00,0.0079
2819.00,0.0078
2818.00,0.0078
2817.00,0.0078
2816.00,0.0078
2815.00,0.0078
2814.00,0.0077
2813.00,0.0077
2812.00,0.0077
2811.00,0.0076
2810.00,0.0076
2809.00,0.0076
2808.00,0.0076
2807.00,0.0075
2806.00,0.0075
2805.00,0.0075
2804.00,0.0075
2803.00,0.0075
2802.00,0.0075
2801.00,0.0074
2800.00,0.0074
2799.00,0.0074
2798.00,0.0073
2797.00,0.0073
2796.00,0.0073
2795.00,0.0073
2794.00,0.0073
2793.00,0.0073
2792.00,0.0073
2791.00,0.0073
2790.00,0.0072
2789.00,0.0072
2788.00,0.0072
2787.00,0.0072
2786.00,0.0072
2785.00,0.0072
2784.00,0.0071
2783.00,0.0071
2782.00,0.0071
2781.00,0.0071
2780.00,0.0070
2779.00,0.0070
2778.00,0.0070
2777.00,0.0069
2776.00,0.0069
2775.00,0.0069
2774.00,0.0069
2773.00,0.0069
2772.00,0.0069
2771.00,0.0069
2770.00,0.0069
2769.00,0.0068
2768.00,0.0068
2767.00,0.0068
2766.00,0.0068
2765.00,0.0067
2764.00,0.0067
2763.00,0.0067
2762.00,0.0067
2761.00,0.0067
2760.00,0.0067
2759.00,0.0067
2758.00,0.0066
2757.00,0.0066
