Created as New Dataset,Sample 1059 By YargerLab Date Monday, August 04 2025
cm-1,A
4000.00,0.0018
3999.00,0.0018
3998.00,0.0019
3997.00,0.0018
3996.00,0.0018
3995.00,0.0018
3994.00,0.0018
3993.00,0.0018
3992.00,0.0018
3991.00,0.0018
3990.00,0.0018
3989.00,0.0018
3988.00,0.0018
3987.00,0.0018
3986.00,0.0018
3985.00,0.0018
3984.00,0.0018
3983.00,0.0018
3982.00,0.0018
3981.00,0.0018
3980.00,0.0018
3979.00,0.0018
3978.00,0.0018
3977.00,0.0018
3976.00,0.0018
3975.00,0.0018
3974.00,0.0018
3973.00,0.0018
3972.00,0.0018
3971.00,0.0017
3970.00,0.0017
3969.00,0.0017
3968.00,0.0018
3967.00,0.0018
3966.00,0.0018
3965.00,0.0018
3964.00,0.0018
3963.00,0.0018
3962.00,0.0018
3961.00,0.0018
3960.00,0.0018
3959.00,0.0018
3958.00,0.0018
3957.00,0.0018
3956.00,0.0018
3955.00,0.0018
3954.00,0.0018
3953.00,0.0018
3952.00,0.0018
3951.00,0.0018
3950.00,0.0018
3949.00,0.0018
3948.00,0.0018
3947.00,0.0018
3946.00,0.0018
3945.00,0.0017
3944.00,0.0017
3943.00,0.0017
3942.00,0.0017
3941.00,0.0017
3940.00,0.0017
3939.00,0.0017
3938.00,0.0017
3937.00,0.0017
3936.00,0.0017
3935.00,0.0017
3934.00,0.0017
3933.00,0.0017
3932.00,0.0018
3931.00,0.0017
3930.00,0.0017
3929.00,0.0017
3928.00,0.0017
3927.00,0.0017
3926.00,0.0017
3925.00,0.0017
3924.00,0.0017
3923.00,0.0018
3922.00,0.0018
3921.00,0.0017
3920.00,0.0017
3919.00,0.0017
3918.00,0.0017
3917.00,0.0017
3916.00,0.0017
3915.00,0.0017
3914.00,0.0017
3913.00,0.0017
3912.00,0.0017
3911.00,0.0017
3910.00,0.0017
3909.00,0.0017
3908.00,0.0018
3907.00,0.0018
3906.00,0.0018
3905.00,0.0018
3904.00,0.0018
3903.00,0.0018
3902.00,0.0018
3901.00,0.0018
3900.00,0.0017
3899.00,0.0017
3898.00,0.0017
3897.00,0.0017
3896.00,0.0017
3895.00,0.0017
3894.00,0.0018
3893.00,0.0018
3892.00,0.0018
3891.00,0.0018
3890.00,0.0018
3889.00,0.0018
3888.00,0.0018
3887.00,0.0018
3886.00,0.0017
3885.00,0.0017
3884.00,0.0017
3883.00,0.0017
3882.00,0.0017
3881.00,0.0017
3880.00,0.0017
3879.00,0.0017
3878.00,0.0017
3877.00,0.0017
3876.00,0.0017
3875.00,0.0017
3874.00,0.0018
3873.00,0.0018
3872.00,0.0018
3871.00,0.0018
3870.00,0.0018
3869.00,0.0018
3868.00,0.0018
3867.00,0.0018
3866.00,0.0017
3865.00,0.0017
3864.00,0.0017
3863.00,0.0018
3862.00,0.0018
3861.00,0.0018
3860.00,0.0018
3859.00,0.0018
3858.00,0.0018
3857.00,0.0018
3856.00,0.0018
3855.00,0.0017
3854.00,0.0017
3853.00,0.0017
3852.00,0.0017
3851.00,0.0017
3850.00,0.0017
3849.00,0.0017
3848.00,0.0018
3847.00,0.0018
3846.00,0.0018
3845.00,0.0019
3844.00,0.0019
3843.00,0.0019
3842.00,0.0019
3841.00,0.0019
3840.00,0.0019
3839.00,0.0019
3838.00,0.0019
3837.00,0.0019
3836.00,0.0018
3835.00,0.0018
3834.00,0.0018
3833.00,0.0018
3832.00,0.0018
3831.00,0.0018
3830.00,0.0018
3829.00,0.0018
3828.00,0.0018
3827.00,0.0019
3826.00,0.0019
3825.00,0.0019
3824.00,0.0020
3823.00,0.0020
3822.00,0.0019
3821.00,0.0019
3820.00,0.0019
3819.00,0.0019
3818.00,0.0018
3817.00,0.0018
3816.00,0.0018
3815.00,0.0018
3814.00,0.0018
3813.00,0.0017
3812.00,0.0017
3811.00,0.0018
3810.00,0.0018
3809.00,0.0018
3808.00,0.0018
3807.00,0.0019
3806.00,0.0019
3805.00,0.0019
3804.00,0.0019
3803.00,0.0019
3802.00,0.0019
3801.00,0.0019
3800.00,0.0018
3799.00,0.0018
3798.00,0.0018
3797.00,0.0017
3796.00,0.0017
3795.00,0.0017
3794.00,0.0017
3793.00,0.0017
3792.00,0.0017
3791.00,0.0017
3790.00,0.0017
3789.00,0.0018
3788.00,0.0018
3787.00,0.0018
3786.00,0.0018
3785.00,0.0018
3784.00,0.0018
3783.00,0.0018
3782.00,0.0018
3781.00,0.0018
3780.00,0.0019
3779.00,0.0019
3778.00,0.0018
3777.00,0.0018
3776.00,0.0018
3775.00,0.0018
3774.00,0.0018
3773.00,0.0018
3772.00,0.0018
3771.00,0.0018
3770.00,0.0018
3769.00,0.0018
3768.00,0.0018
3767.00,0.0018
3766.00,0.0018
3765.00,0.0018
3764.00,0.0018
3763.00,0.0019
3762.00,0.0019
3761.00,0.0019
3760.00,0.0019
3759.00,0.0019
3758.00,0.0019
3757.00,0.0019
3756.00,0.0020
3755.00,0.0020
3754.00,0.0020
3753.00,0.0020
3752.00,0.0020
3751.00,0.0019
3750.00,0.0019
3749.00,0.0019
3748.00,0.0019
3747.00,0.0019
3746.00,0.0018
3745.00,0.0018
3744.00,0.0019
3743.00,0.0019
3742.00,0.0019
3741.00,0.0019
3740.00,0.0019
3739.00,0.0019
3738.00,0.0020
3737.00,0.0020
3736.00,0.0019
3735.00,0.0019
3734.00,0.0018
3733.00,0.0018
3732.00,0.0017
3731.00,0.0017
3730.00,0.0018
3729.00,0.0018
3728.00,0.0018
3727.00,0.0018
3726.00,0.0018
3725.00,0.0018
3724.00,0.0018
3723.00,0.0018
3722.00,0.0018
3721.00,0.0018
3720.00,0.0018
3719.00,0.0018
3718.00,0.0018
3717.00,0.0018
3716.00,0.0018
3715.00,0.0019
3714.00,0.0019
3713.00,0.0019
3712.00,0.0020
3711.00,0.0020
3710.00,0.0019
3709.00,0.0019
3708.00,0.0019
3707.00,0.0018
3706.00,0.0018
3705.00,0.0019
3704.00,0.0019
3703.00,0.0018
3702.00,0.0018
3701.00,0.0018
3700.00,0.0019
3699.00,0.0019
3698.00,0.0019
3697.00,0.0020
3696.00,0.0020
3695.00,0.0021
3694.00,0.0021
3693.00,0.0022
3692.00,0.0022
3691.00,0.0022
3690.00,0.0022
3689.00,0.0023
3688.00,0.0023
3687.00,0.0024
3686.00,0.0024
3685.00,0.0025
3684.00,0.0026
3683.00,0.0027
3682.00,0.0028
3681.00,0.0028
3680.00,0.0029
3679.00,0.0030
3678.00,0.0031
3677.00,0.0031
3676.00,0.0030
3675.00,0.0030
3674.00,0.0031
3673.00,0.0031
3672.00,0.0031
3671.00,0.0031
3670.00,0.0032
3669.00,0.0032
3668.00,0.0033
3667.00,0.0033
3666.00,0.0033
3665.00,0.0033
3664.00,0.0034
3663.00,0.0034
3662.00,0.0035
3661.00,0.0036
3660.00,0.0037
3659.00,0.0037
3658.00,0.0037
3657.00,0.0038
3656.00,0.0039
3655.00,0.0040
3654.00,0.0041
3653.00,0.0042
3652.00,0.0042
3651.00,0.0043
3650.00,0.0044
3649.00,0.0045
3648.00,0.0045
3647.00,0.0045
3646.00,0.0046
3645.00,0.0046
3644.00,0.0047
3643.00,0.0048
3642.00,0.0049
3641.00,0.0049
3640.00,0.0050
3639.00,0.0051
3638.00,0.0052
3637.00,0.0053
3636.00,0.0053
3635.00,0.0054
3634.00,0.0055
3633.00,0.0056
3632.00,0.0056
3631.00,0.0057
3630.00,0.0058
3629.00,0.0059
3628.00,0.0060
3627.00,0.0061
3626.00,0.0062
3625.00,0.0062
3624.00,0.0063
3623.00,0.0063
3622.00,0.0064
3621.00,0.0065
3620.00,0.0066
3619.00,0.0067
3618.00,0.0069
3617.00,0.0071
3616.00,0.0072
3615.00,0.0073
3614.00,0.0074
3613.00,0.0075
3612.00,0.0076
3611.00,0.0077
3610.00,0.0078
3609.00,0.0078
3608.00,0.0080
3607.00,0.0081
3606.00,0.0082
3605.00,0.0084
3604.00,0.0085
3603.00,0.0086
3602.00,0.0087
3601.00,0.0088
3600.00,0.0090
3599.00,0.0091
3598.00,0.0092
3597.00,0.0093
3596.00,0.0095
3595.00,0.0096
3594.00,0.0097
3593.00,0.0099
3592.00,0.0100
3591.00,0.0101
3590.00,0.0102
3589.00,0.0104
3588.00,0.0106
3587.00,0.0108
3586.00,0.0110
3585.00,0.0112
3584.00,0.0113
3583.00,0.0114
3582.00,0.0115
3581.00,0.0116
3580.00,0.0118
3579.00,0.0119
3578.00,0.0121
3577.00,0.0123
3576.00,0.0125
3575.00,0.0126
3574.00,0.0128
3573.00,0.0130
3572.00,0.0132
3571.00,0.0133
3570.00,0.0134
3569.00,0.0135
3568.00,0.0137
3567.00,0.0139
3566.00,0.0141
3565.00,0.0143
3564.00,0.0145
3563.00,0.0146
3562.00,0.0147
3561.00,0.0149
3560.00,0.0150
3559.00,0.0152
3558.00,0.0153
3557.00,0.0155
3556.00,0.0156
3555.00,0.0157
3554.00,0.0159
3553.00,0.0161
3552.00,0.0163
3551.00,0.0164
3550.00,0.0166
3549.00,0.0167
3548.00,0.0168
3547.00,0.0169
3546.00,0.0171
3545.00,0.0173
3544.00,0.0174
3543.00,0.0176
3542.00,0.0177
3541.00,0.0178
3540.00,0.0179
3539.00,0.0180
3538.00,0.0182
3537.00,0.0183
3536.00,0.0184
3535.00,0.0185
3534.00,0.0186
3533.00,0.0187
3532.00,0.0188
3531.00,0.0189
3530.00,0.0190
3529.00,0.0191
3528.00,0.0193
3527.00,0.0194
3526.00,0.0195
3525.00,0.0197
3524.00,0.0198
3523.00,0.0199
3522.00,0.0200
3521.00,0.0200
3520.00,0.0201
3519.00,0.0203
3518.00,0.0204
3517.00,0.0205
3516.00,0.0206
3515.00,0.0207
3514.00,0.0207
3513.00,0.0208
3512.00,0.0209
3511.00,0.0210
3510.00,0.0211
3509.00,0.0212
3508.00,0.0214
3507.00,0.0215
3506.00,0.0215
3505.00,0.0216
3504.00,0.0217
3503.00,0.0218
3502.00,0.0219
3501.00,0.0220
3500.00,0.0221
3499.00,0.0222
3498.00,0.0222
3497.00,0.0223
3496.00,0.0224
3495.00,0.0225
3494.00,0.0226
3493.00,0.0227
3492.00,0.0227
3491.00,0.0227
3490.00,0.0228
3489.00,0.0229
3488.00,0.0229
3487.00,0.0230
3486.00,0.0231
3485.00,0.0232
3484.00,0.0232
3483.00,0.0233
3482.00,0.0234
3481.00,0.0235
3480.00,0.0236
3479.00,0.0237
3478.00,0.0237
3477.00,0.0237
3476.00,0.0238
3475.00,0.0239
3474.00,0.0239
3473.00,0.0240
3472.00,0.0241
3471.00,0.0242
3470.00,0.0242
3469.00,0.0243
3468.00,0.0244
3467.00,0.0244
3466.00,0.0244
3465.00,0.0245
3464.00,0.0245
3463.00,0.0246
3462.00,0.0246
3461.00,0.0246
3460.00,0.0247
3459.00,0.0247
3458.00,0.0248
3457.00,0.0248
3456.00,0.0249
3455.00,0.0249
3454.00,0.0250
3453.00,0.0250
3452.00,0.0251
3451.00,0.0251
3450.00,0.0251
3449.00,0.0251
3448.00,0.0251
3447.00,0.0252
3446.00,0.0252
3445.00,0.0252
3444.00,0.0253
3443.00,0.0253
3442.00,0.0254
3441.00,0.0254
3440.00,0.0255
3439.00,0.0255
3438.00,0.0256
3437.00,0.0256
3436.00,0.0256
3435.00,0.0256
3434.00,0.0256
3433.00,0.0256
3432.00,0.0257
3431.00,0.0257
3430.00,0.0257
3429.00,0.0257
3428.00,0.0257
3427.00,0.0257
3426.00,0.0257
3425.00,0.0257
3424.00,0.0257
3423.00,0.0257
3422.00,0.0257
3421.00,0.0257
3420.00,0.0257
3419.00,0.0257
3418.00,0.0257
3417.00,0.0257
3416.00,0.0257
3415.00,0.0257
3414.00,0.0257
3413.00,0.0257
3412.00,0.0257
3411.00,0.0257
3410.00,0.0257
3409.00,0.0257
3408.00,0.0257
3407.00,0.0257
3406.00,0.0257
3405.00,0.0257
3404.00,0.0257
3403.00,0.0257
3402.00,0.0257
3401.00,0.0257
3400.00,0.0256
3399.00,0.0256
3398.00,0.0255
3397.00,0.0255
3396.00,0.0255
3395.00,0.0255
3394.00,0.0255
3393.00,0.0255
3392.00,0.0255
3391.00,0.0254
3390.00,0.0254
3389.00,0.0254
3388.00,0.0254
3387.00,0.0253
3386.00,0.0252
3385.00,0.0252
3384.00,0.0251
3383.00,0.0251
3382.00,0.0251
3381.00,0.0250
3380.00,0.0250
3379.00,0.0250
3378.00,0.0249
3377.00,0.0249
3376.00,0.0248
3375.00,0.0248
3374.00,0.0248
3373.00,0.0247
3372.00,0.0246
3371.00,0.0245
3370.00,0.0244
3369.00,0.0243
3368.00,0.0243
3367.00,0.0243
3366.00,0.0243
3365.00,0.0243
3364.00,0.0243
3363.00,0.0243
3362.00,0.0242
3361.00,0.0242
3360.00,0.0242
3359.00,0.0241
3358.00,0.0241
3357.00,0.0241
3356.00,0.0241
3355.00,0.0240
3354.00,0.0239
3353.00,0.0238
3352.00,0.0237
3351.00,0.0237
3350.00,0.0237
3349.00,0.0237
3348.00,0.0237
3347.00,0.0237
3346.00,0.0236
3345.00,0.0236
3344.00,0.0235
3343.00,0.0235
3342.00,0.0234
3341.00,0.0233
3340.00,0.0233
3339.00,0.0232
3338.00,0.0232
3337.00,0.0232
3336.00,0.0232
3335.00,0.0233
3334.00,0.0233
3333.00,0.0233
3332.00,0.0233
3331.00,0.0232
3330.00,0.0232
3329.00,0.0231
3328.00,0.0230
3327.00,0.0230
3326.00,0.0229
3325.00,0.0229
3324.00,0.0230
3323.00,0.0230
3322.00,0.0231
3321.00,0.0231
3320.00,0.0231
3319.00,0.0231
3318.00,0.0231
3317.00,0.0231
3316.00,0.0230
3315.00,0.0230
3314.00,0.0229
3313.00,0.0229
3312.00,0.0228
3311.00,0.0227
3310.00,0.0226
3309.00,0.0225
3308.00,0.0224
3307.00,0.0223
3306.00,0.0224
3305.00,0.0225
3304.00,0.0226
3303.00,0.0227
3302.00,0.0228
3301.00,0.0228
3300.00,0.0228
3299.00,0.0228
3298.00,0.0227
3297.00,0.0226
3296.00,0.0226
3295.00,0.0225
3294.00,0.0225
3293.00,0.0225
3292.00,0.0225
3291.00,0.0226
3290.00,0.0227
3289.00,0.0228
3288.00,0.0228
3287.00,0.0228
3286.00,0.0228
3285.00,0.0227
3284.00,0.0227
3283.00,0.0227
3282.00,0.0226
3281.00,0.0226
3280.00,0.0226
3279.00,0.0225
3278.00,0.0224
3277.00,0.0224
3276.00,0.0223
3275.00,0.0223
3274.00,0.0222
3273.00,0.0221
3272.00,0.0221
3271.00,0.0221
3270.00,0.0221
3269.00,0.0221
3268.00,0.0221
3267.00,0.0221
3266.00,0.0221
3265.00,0.0221
3264.00,0.0221
3263.00,0.0221
3262.00,0.0220
3261.00,0.0219
3260.00,0.0219
3259.00,0.0218
3258.00,0.0218
3257.00,0.0217
3256.00,0.0217
3255.00,0.0216
3254.00,0.0216
3253.00,0.0216
3252.00,0.0215
3251.00,0.0215
3250.00,0.0214
3249.00,0.0214
3248.00,0.0213
3247.00,0.0213
3246.00,0.0213
3245.00,0.0212
3244.00,0.0212
3243.00,0.0212
3242.00,0.0212
3241.00,0.0211
3240.00,0.0211
3239.00,0.0211
3238.00,0.0210
3237.00,0.0209
3236.00,0.0209
3235.00,0.0208
3234.00,0.0207
3233.00,0.0206
3232.00,0.0206
3231.00,0.0205
3230.00,0.0205
3229.00,0.0205
3228.00,0.0204
3227.00,0.0204
3226.00,0.0203
3225.00,0.0203
3224.00,0.0203
3223.00,0.0202
3222.00,0.0202
3221.00,0.0201
3220.00,0.0200
3219.00,0.0200
3218.00,0.0199
3217.00,0.0199
3216.00,0.0198
3215.00,0.0197
3214.00,0.0197
3213.00,0.0196
3212.00,0.0196
3211.00,0.0195
3210.00,0.0195
3209.00,0.0194
3208.00,0.0193
3207.00,0.0193
3206.00,0.0192
3205.00,0.0191
3204.00,0.0190
3203.00,0.0189
3202.00,0.0188
3201.00,0.0188
3200.00,0.0188
3199.00,0.0187
3198.00,0.0187
3197.00,0.0186
3196.00,0.0185
3195.00,0.0185
3194.00,0.0184
3193.00,0.0184
3192.00,0.0183
3191.00,0.0183
3190.00,0.0182
3189.00,0.0182
3188.00,0.0181
3187.00,0.0180
3186.00,0.0180
3185.00,0.0179
3184.00,0.0179
3183.00,0.0178
3182.00,0.0177
3181.00,0.0176
3180.00,0.0176
3179.00,0.0176
3178.00,0.0175
3177.00,0.0175
3176.00,0.0174
3175.00,0.0174
3174.00,0.0173
3173.00,0.0173
3172.00,0.0172
3171.00,0.0172
3170.00,0.0171
3169.00,0.0171
3168.00,0.0170
3167.00,0.0170
3166.00,0.0169
3165.00,0.0168
3164.00,0.0168
3163.00,0.0167
3162.00,0.0167
3161.00,0.0166
3160.00,0.0166
3159.00,0.0165
3158.00,0.0164
3157.00,0.0164
3156.00,0.0163
3155.00,0.0162
3154.00,0.0162
3153.00,0.0161
3152.00,0.0161
3151.00,0.0161
3150.00,0.0160
3149.00,0.0160
3148.00,0.0159
3147.00,0.0159
3146.00,0.0158
3145.00,0.0157
3144.00,0.0157
3143.00,0.0156
3142.00,0.0156
3141.00,0.0156
3140.00,0.0155
3139.00,0.0154
3138.00,0.0154
3137.00,0.0153
3136.00,0.0153
3135.00,0.0152
3134.00,0.0152
3133.00,0.0151
3132.00,0.0151
3131.00,0.0151
3130.00,0.0150
3129.00,0.0150
3128.00,0.0150
3127.00,0.0150
3126.00,0.0149
3125.00,0.0149
3124.00,0.0149
3123.00,0.0149
3122.00,0.0148
3121.00,0.0148
3120.00,0.0147
3119.00,0.0147
3118.00,0.0147
3117.00,0.0146
3116.00,0.0146
3115.00,0.0146
3114.00,0.0145
3113.00,0.0145
3112.00,0.0144
3111.00,0.0144
3110.00,0.0143
3109.00,0.0143
3108.00,0.0142
3107.00,0.0141
3106.00,0.0141
3105.00,0.0140
3104.00,0.0140
3103.00,0.0139
3102.00,0.0139
3101.00,0.0138
3100.00,0.0138
3099.00,0.0138
3098.00,0.0138
3097.00,0.0137
3096.00,0.0137
3095.00,0.0137
3094.00,0.0137
3093.00,0.0136
3092.00,0.0136
3091.00,0.0136
3090.00,0.0136
3089.00,0.0136
3088.00,0.0136
3087.00,0.0136
3086.00,0.0136
3085.00,0.0136
3084.00,0.0136
3083.00,0.0136
3082.00,0.0135
3081.00,0.0135
3080.00,0.0135
3079.00,0.0135
3078.00,0.0135
3077.00,0.0135
3076.00,0.0134
3075.00,0.0134
3074.00,0.0134
3073.00,0.0133
3072.00,0.0133
3071.00,0.0132
3070.00,0.0131
3069.00,0.0131
3068.00,0.0130
3067.00,0.0130
3066.00,0.0130
3065.00,0.0129
3064.00,0.0129
3063.00,0.0128
3062.00,0.0127
3061.00,0.0127
3060.00,0.0127
3059.00,0.0126
3058.00,0.0126
3057.00,0.0126
3056.00,0.0125
3055.00,0.0125
3054.00,0.0125
3053.00,0.0125
3052.00,0.0125
3051.00,0.0124
3050.00,0.0124
3049.00,0.0124
3048.00,0.0123
3047.00,0.0123
3046.00,0.0123
3045.00,0.0122
3044.00,0.0122
3043.00,0.0122
3042.00,0.0121
3041.00,0.0121
3040.00,0.0121
3039.00,0.0121
3038.00,0.0120
3037.00,0.0120
3036.00,0.0120
3035.00,0.0120
3034.00,0.0120
3033.00,0.0120
3032.00,0.0120
3031.00,0.0120
3030.00,0.0119
3029.00,0.0119
3028.00,0.0119
3027.00,0.0118
3026.00,0.0118
3025.00,0.0118
3024.00,0.0117
3023.00,0.0117
3022.00,0.0117
3021.00,0.0117
3020.00,0.0118
3019.00,0.0118
3018.00,0.0119
3017.00,0.0120
3016.00,0.0120
3015.00,0.0121
3014.00,0.0122
3013.00,0.0123
3012.00,0.0124
3011.00,0.0126
3010.00,0.0127
3009.00,0.0129
3008.00,0.0132
3007.00,0.0134
3006.00,0.0137
3005.00,0.0140
3004.00,0.0144
3003.00,0.0148
3002.00,0.0152
3001.00,0.0156
3000.00,0.0160
2999.00,0.0165
2998.00,0.0171
2997.00,0.0176
2996.00,0.0182
2995.00,0.0187
2994.00,0.0193
2993.00,0.0199
2992.00,0.0206
2991.00,0.0212
2990.00,0.0219
2989.00,0.0225
2988.00,0.0231
2987.00,0.0237
2986.00,0.0243
2985.00,0.0249
2984.00,0.0255
2983.00,0.0261
2982.00,0.0266
2981.00,0.0270
2980.00,0.0274
2979.00,0.0277
2978.00,0.0279
2977.00,0.0282
2976.00,0.0284
2975.00,0.0287
2974.00,0.0289
2973.00,0.0292
2972.00,0.0296
2971.00,0.0299
2970.00,0.0302
2969.00,0.0306
2968.00,0.0310
2967.00,0.0314
2966.00,0.0318
2965.00,0.0323
2964.00,0.0327
2963.00,0.0332
2962.00,0.0336
2961.00,0.0340
2960.00,0.0344
2959.00,0.0348
2958.00,0.0351
2957.00,0.0354
2956.00,0.0357
2955.00,0.0359
2954.00,0.0360
2953.00,0.0361
2952.00,0.0360
2951.00,0.0359
2950.00,0.0358
2949.00,0.0356
2948.00,0.0354
2947.00,0.0352
2946.00,0.0350
2945.00,0.0349
2944.00,0.0348
2943.00,0.0347
2942.00,0.0347
2941.00,0.0348
2940.00,0.0349
2939.00,0.0351
2938.00,0.0353
2937.00,0.0356
2936.00,0.0358
2935.00,0.0361
2934.00,0.0365
2933.00,0.0369
2932.00,0.0372
2931.00,0.0375
2930.00,0.0378
2929.00,0.0380
2928.00,0.0381
2927.00,0.0381
2926.00,0.0381
2925.00,0.0381
2924.00,0.0379
2923.00,0.0377
2922.00,0.0374
2921.00,0.0371
2920.00,0.0367
2919.00,0.0362
2918.00,0.0356
2917.00,0.0351
2916.00,0.0345
2915.00,0.0338
2914.00,0.0332
2913.00,0.0326
2912.00,0.0320
2911.00,0.0314
2910.00,0.0309
2909.00,0.0303
2908.00,0.0298
2907.00,0.0293
2906.00,0.0289
2905.00,0.0285
2904.00,0.0282
2903.00,0.0280
2902.00,0.0278
2901.00,0.0277
2900.00,0.0276
2899.00,0.0275
2898.00,0.0275
2897.00,0.0274
2896.00,0.0274
2895.00,0.0274
2894.00,0.0274
2893.00,0.0273
2892.00,0.0273
2891.00,0.0273
2890.00,0.0272
2889.00,0.0272
2888.00,0.0271
2887.00,0.0270
2886.00,0.0270
2885.00,0.0270
2884.00,0.0270
2883.00,0.0270
2882.00,0.0270
2881.00,0.0270
2880.00,0.0270
2879.00,0.0271
2878.00,0.0272
2877.00,0.0273
2876.00,0.0274
2875.00,0.0275
2874.00,0.0276
2873.00,0.0277
2872.00,0.0277
2871.00,0.0278
2870.00,0.0277
2869.00,0.0276
2868.00,0.0275
2867.00,0.0274
2866.00,0.0273
2865.00,0.0273
2864.00,0.0272
2863.00,0.0272
2862.00,0.0272
2861.00,0.0272
2860.00,0.0272
2859.00,0.0272
2858.00,0.0271
2857.00,0.0268
2856.00,0.0264
2855.00,0.0259
2854.00,0.0253
2853.00,0.0246
2852.00,0.0239
2851.00,0.0231
2850.00,0.0223
2849.00,0.0215
2848.00,0.0207
2847.00,0.0200
2846.00,0.0194
2845.00,0.0187
2844.00,0.0181
2843.00,0.0175
2842.00,0.0169
2841.00,0.0164
2840.00,0.0158
2839.00,0.0154
2838.00,0.0149
2837.00,0.0146
2836.00,0.0142
2835.00,0.0139
2834.00,0.0136
2833.00,0.0133
2832.00,0.0130
2831.00,0.0127
2830.00,0.0124
2829.00,0.0122
2828.00,0.0119
2827.00,0.0117
2826.00,0.0115
2825.00,0.0112
2824.00,0.0110
2823.00,0.0108
2822.00,0.0106
2821.00,0.0104
2820.00,0.0102
2819.00,0.0100
2818.00,0.0099
2817.00,0.0097
2816.00,0.0096
2815.00,0.0095
2814.00,0.0094
2813.00,0.0092
2812.00,0.0091
2811.00,0.0090
2810.00,0.0089
2809.00,0.0088
2808.00,0.0088
2807.00,0.0087
2806.00,0.0086
2805.00,0.0086
2804.00,0.0085
2803.00,0.0085
2802.00,0.0084
2801.00,0.0083
2800.00,0.0082
2799.00,0.0082
2798.00,0.0081
2797.00,0.0081
2796.00,0.0080
2795.00,0.0080
2794.00,0.0080
2793.00,0.0079
2792.00,0.0079
2791.00,0.0078
2790.00,0.0078
2789.00,0.0077
2788.00,0.0077
2787.00,0.0077
2786.00,0.0076
2785.00,0.0076
2784.00,0.0076
2783.00,0.0075
2782.00,0.0075
2781.00,0.0075
2780.00,0.0075
2779.00,0.0074
2778.00,0.0074
2777.00,0.0073
2776.00,0.0073
2775.00,0.0073
2774.00,0.0072
2773.00,0.0072
2772.00,0.0072
2771.00,0.0072
2770.00,0.0071
2769.00,0.0071
2768.00,0.0071
2767.00,0.0071
2766.00,0.0070
2765.00,0.0070
2764.00,0.0070
2763.00,0.0070
2762.00,0.0070
2761.00,0.0070
2760.00,0.0070
2759.00,0.0070
2758.00,0.0070
2757.00,0.0070
