Created as New Dataset,Sample 862 By YargerLab Date Monday, July 21 2025
cm-1,A
4000.00,0.0029
3999.00,0.0029
3998.00,0.0029
3997.00,0.0029
3996.00,0.0029
3995.00,0.0029
3994.00,0.0030
3993.00,0.0029
3992.00,0.0029
3991.00,0.0029
3990.00,0.0030
3989.00,0.0030
3988.00,0.0030
3987.00,0.0030
3986.00,0.0029
3985.00,0.0029
3984.00,0.0029
3983.00,0.0029
3982.00,0.0029
3981.00,0.0029
3980.00,0.0029
3979.00,0.0029
3978.00,0.0029
3977.00,0.0029
3976.00,0.0029
3975.00,0.0029
3974.00,0.0029
3973.00,0.0029
3972.00,0.0029
3971.00,0.0029
3970.00,0.0029
3969.00,0.0029
3968.00,0.0029
3967.00,0.0029
3966.00,0.0029
3965.00,0.0029
3964.00,0.0029
3963.00,0.0029
3962.00,0.0029
3961.00,0.0029
3960.00,0.0029
3959.00,0.0029
3958.00,0.0029
3957.00,0.0029
3956.00,0.0029
3955.00,0.0029
3954.00,0.0029
3953.00,0.0029
3952.00,0.0029
3951.00,0.0028
3950.00,0.0028
3949.00,0.0028
3948.00,0.0028
3947.00,0.0028
3946.00,0.0029
3945.00,0.0029
3944.00,0.0029
3943.00,0.0029
3942.00,0.0029
3941.00,0.0029
3940.00,0.0029
3939.00,0.0029
3938.00,0.0029
3937.00,0.0029
3936.00,0.0029
3935.00,0.0029
3934.00,0.0029
3933.00,0.0029
3932.00,0.0029
3931.00,0.0029
3930.00,0.0028
3929.00,0.0028
3928.00,0.0028
3927.00,0.0028
3926.00,0.0028
3925.00,0.0028
3924.00,0.0028
3923.00,0.0029
3922.00,0.0029
3921.00,0.0029
3920.00,0.0029
3919.00,0.0029
3918.00,0.0029
3917.00,0.0029
3916.00,0.0029
3915.00,0.0029
3914.00,0.0029
3913.00,0.0029
3912.00,0.0029
3911.00,0.0029
3910.00,0.0029
3909.00,0.0029
3908.00,0.0029
3907.00,0.0029
3906.00,0.0028
3905.00,0.0028
3904.00,0.0028
3903.00,0.0028
3902.00,0.0027
3901.00,0.0028
3900.00,0.0028
3899.00,0.0028
3898.00,0.0028
3897.00,0.0028
3896.00,0.0028
3895.00,0.0028
3894.00,0.0028
3893.00,0.0028
3892.00,0.0028
3891.00,0.0029
3890.00,0.0029
3889.00,0.0029
3888.00,0.0029
3887.00,0.0029
3886.00,0.0029
3885.00,0.0028
3884.00,0.0028
3883.00,0.0027
3882.00,0.0027
3881.00,0.0027
3880.00,0.0028
3879.00,0.0028
3878.00,0.0029
3877.00,0.0029
3876.00,0.0028
3875.00,0.0028
3874.00,0.0028
3873.00,0.0028
3872.00,0.0028
3871.00,0.0027
3870.00,0.0027
3869.00,0.0028
3868.00,0.0028
3867.00,0.0028
3866.00,0.0028
3865.00,0.0027
3864.00,0.0027
3863.00,0.0027
3862.00,0.0027
3861.00,0.0028
3860.00,0.0028
3859.00,0.0028
3858.00,0.0028
3857.00,0.0029
3856.00,0.0029
3855.00,0.0028
3854.00,0.0028
3853.00,0.0027
3852.00,0.0027
3851.00,0.0027
3850.00,0.0027
3849.00,0.0027
3848.00,0.0028
3847.00,0.0028
3846.00,0.0028
3845.00,0.0028
3844.00,0.0028
3843.00,0.0028
3842.00,0.0028
3841.00,0.0028
3840.00,0.0028
3839.00,0.0028
3838.00,0.0028
3837.00,0.0028
3836.00,0.0028
3835.00,0.0028
3834.00,0.0028
3833.00,0.0028
3832.00,0.0028
3831.00,0.0028
3830.00,0.0029
3829.00,0.0029
3828.00,0.0029
3827.00,0.0029
3826.00,0.0028
3825.00,0.0028
3824.00,0.0028
3823.00,0.0027
3822.00,0.0027
3821.00,0.0027
3820.00,0.0027
3819.00,0.0028
3818.00,0.0027
3817.00,0.0027
3816.00,0.0028
3815.00,0.0028
3814.00,0.0028
3813.00,0.0028
3812.00,0.0028
3811.00,0.0028
3810.00,0.0028
3809.00,0.0029
3808.00,0.0029
3807.00,0.0028
3806.00,0.0028
3805.00,0.0028
3804.00,0.0028
3803.00,0.0028
3802.00,0.0028
3801.00,0.0028
3800.00,0.0028
3799.00,0.0027
3798.00,0.0027
3797.00,0.0027
3796.00,0.0027
3795.00,0.0028
3794.00,0.0028
3793.00,0.0028
3792.00,0.0028
3791.00,0.0029
3790.00,0.0029
3789.00,0.0029
3788.00,0.0029
3787.00,0.0028
3786.00,0.0028
3785.00,0.0028
3784.00,0.0028
3783.00,0.0029
3782.00,0.0029
3781.00,0.0029
3780.00,0.0028
3779.00,0.0028
3778.00,0.0029
3777.00,0.0029
3776.00,0.0029
3775.00,0.0029
3774.00,0.0029
3773.00,0.0029
3772.00,0.0029
3771.00,0.0029
3770.00,0.0029
3769.00,0.0029
3768.00,0.0029
3767.00,0.0029
3766.00,0.0028
3765.00,0.0028
3764.00,0.0028
3763.00,0.0028
3762.00,0.0028
3761.00,0.0029
3760.00,0.0029
3759.00,0.0029
3758.00,0.0028
3757.00,0.0028
3756.00,0.0028
3755.00,0.0028
3754.00,0.0028
3753.00,0.0027
3752.00,0.0027
3751.00,0.0027
3750.00,0.0027
3749.00,0.0026
3748.00,0.0026
3747.00,0.0026
3746.00,0.0027
3745.00,0.0027
3744.00,0.0027
3743.00,0.0027
3742.00,0.0027
3741.00,0.0027
3740.00,0.0027
3739.00,0.0027
3738.00,0.0027
3737.00,0.0026
3736.00,0.0026
3735.00,0.0025
3734.00,0.0025
3733.00,0.0026
3732.00,0.0026
3731.00,0.0026
3730.00,0.0027
3729.00,0.0027
3728.00,0.0027
3727.00,0.0027
3726.00,0.0027
3725.00,0.0027
3724.00,0.0027
3723.00,0.0027
3722.00,0.0027
3721.00,0.0027
3720.00,0.0027
3719.00,0.0027
3718.00,0.0027
3717.00,0.0028
3716.00,0.0028
3715.00,0.0028
3714.00,0.0028
3713.00,0.0028
3712.00,0.0027
3711.00,0.0027
3710.00,0.0027
3709.00,0.0027
3708.00,0.0027
3707.00,0.0027
3706.00,0.0027
3705.00,0.0027
3704.00,0.0027
3703.00,0.0027
3702.00,0.0027
3701.00,0.0027
3700.00,0.0028
3699.00,0.0028
3698.00,0.0028
3697.00,0.0028
3696.00,0.0028
3695.00,0.0028
3694.00,0.0028
3693.00,0.0028
3692.00,0.0028
3691.00,0.0028
3690.00,0.0028
3689.00,0.0028
3688.00,0.0028
3687.00,0.0028
3686.00,0.0028
3685.00,0.0028
3684.00,0.0029
3683.00,0.0029
3682.00,0.0029
3681.00,0.0030
3680.00,0.0030
3679.00,0.0030
3678.00,0.0030
3677.00,0.0030
3676.00,0.0030
3675.00,0.0029
3674.00,0.0029
3673.00,0.0029
3672.00,0.0029
3671.00,0.0028
3670.00,0.0028
3669.00,0.0029
3668.00,0.0029
3667.00,0.0030
3666.00,0.0030
3665.00,0.0030
3664.00,0.0030
3663.00,0.0031
3662.00,0.0031
3661.00,0.0031
3660.00,0.0031
3659.00,0.0032
3658.00,0.0032
3657.00,0.0032
3656.00,0.0032
3655.00,0.0032
3654.00,0.0032
3653.00,0.0032
3652.00,0.0032
3651.00,0.0032
3650.00,0.0032
3649.00,0.0032
3648.00,0.0032
3647.00,0.0033
3646.00,0.0033
3645.00,0.0033
3644.00,0.0034
3643.00,0.0035
3642.00,0.0035
3641.00,0.0036
3640.00,0.0036
3639.00,0.0037
3638.00,0.0037
3637.00,0.0037
3636.00,0.0038
3635.00,0.0038
3634.00,0.0038
3633.00,0.0039
3632.00,0.0039
3631.00,0.0039
3630.00,0.0040
3629.00,0.0040
3628.00,0.0041
3627.00,0.0042
3626.00,0.0042
3625.00,0.0042
3624.00,0.0042
3623.00,0.0042
3622.00,0.0043
3621.00,0.0043
3620.00,0.0043
3619.00,0.0043
3618.00,0.0044
3617.00,0.0044
3616.00,0.0044
3615.00,0.0044
3614.00,0.0045
3613.00,0.0045
3612.00,0.0046
3611.00,0.0047
3610.00,0.0047
3609.00,0.0048
3608.00,0.0049
3607.00,0.0049
3606.00,0.0050
3605.00,0.0050
3604.00,0.0051
3603.00,0.0051
3602.00,0.0052
3601.00,0.0052
3600.00,0.0053
3599.00,0.0053
3598.00,0.0054
3597.00,0.0054
3596.00,0.0054
3595.00,0.0055
3594.00,0.0055
3593.00,0.0056
3592.00,0.0056
3591.00,0.0056
3590.00,0.0056
3589.00,0.0057
3588.00,0.0057
3587.00,0.0058
3586.00,0.0059
3585.00,0.0059
3584.00,0.0060
3583.00,0.0060
3582.00,0.0061
3581.00,0.0062
3580.00,0.0063
3579.00,0.0064
3578.00,0.0065
3577.00,0.0065
3576.00,0.0066
3575.00,0.0067
3574.00,0.0067
3573.00,0.0067
3572.00,0.0067
3571.00,0.0067
3570.00,0.0067
3569.00,0.0067
3568.00,0.0068
3567.00,0.0069
3566.00,0.0070
3565.00,0.0071
3564.00,0.0072
3563.00,0.0073
3562.00,0.0073
3561.00,0.0074
3560.00,0.0075
3559.00,0.0075
3558.00,0.0076
3557.00,0.0076
3556.00,0.0077
3555.00,0.0077
3554.00,0.0077
3553.00,0.0078
3552.00,0.0079
3551.00,0.0079
3550.00,0.0080
3549.00,0.0081
3548.00,0.0081
3547.00,0.0082
3546.00,0.0082
3545.00,0.0083
3544.00,0.0083
3543.00,0.0084
3542.00,0.0085
3541.00,0.0085
3540.00,0.0086
3539.00,0.0086
3538.00,0.0087
3537.00,0.0087
3536.00,0.0087
3535.00,0.0087
3534.00,0.0088
3533.00,0.0088
3532.00,0.0088
3531.00,0.0089
3530.00,0.0089
3529.00,0.0090
3528.00,0.0090
3527.00,0.0091
3526.00,0.0091
3525.00,0.0091
3524.00,0.0092
3523.00,0.0092
3522.00,0.0093
3521.00,0.0093
3520.00,0.0094
3519.00,0.0095
3518.00,0.0095
3517.00,0.0096
3516.00,0.0096
3515.00,0.0096
3514.00,0.0096
3513.00,0.0096
3512.00,0.0096
3511.00,0.0097
3510.00,0.0097
3509.00,0.0098
3508.00,0.0098
3507.00,0.0099
3506.00,0.0099
3505.00,0.0100
3504.00,0.0100
3503.00,0.0101
3502.00,0.0101
3501.00,0.0101
3500.00,0.0101
3499.00,0.0102
3498.00,0.0102
3497.00,0.0102
3496.00,0.0103
3495.00,0.0104
3494.00,0.0104
3493.00,0.0105
3492.00,0.0105
3491.00,0.0105
3490.00,0.0105
3489.00,0.0106
3488.00,0.0106
3487.00,0.0107
3486.00,0.0107
3485.00,0.0108
3484.00,0.0108
3483.00,0.0109
3482.00,0.0109
3481.00,0.0110
3480.00,0.0110
3479.00,0.0110
3478.00,0.0110
3477.00,0.0110
3476.00,0.0111
3475.00,0.0111
3474.00,0.0111
3473.00,0.0112
3472.00,0.0112
3471.00,0.0112
3470.00,0.0113
3469.00,0.0113
3468.00,0.0114
3467.00,0.0114
3466.00,0.0114
3465.00,0.0115
3464.00,0.0115
3463.00,0.0115
3462.00,0.0116
3461.00,0.0116
3460.00,0.0116
3459.00,0.0117
3458.00,0.0117
3457.00,0.0117
3456.00,0.0117
3455.00,0.0118
3454.00,0.0118
3453.00,0.0118
3452.00,0.0118
3451.00,0.0118
3450.00,0.0118
3449.00,0.0118
3448.00,0.0119
3447.00,0.0119
3446.00,0.0119
3445.00,0.0119
3444.00,0.0120
3443.00,0.0120
3442.00,0.0120
3441.00,0.0121
3440.00,0.0121
3439.00,0.0121
3438.00,0.0122
3437.00,0.0122
3436.00,0.0122
3435.00,0.0122
3434.00,0.0122
3433.00,0.0122
3432.00,0.0122
3431.00,0.0122
3430.00,0.0122
3429.00,0.0122
3428.00,0.0122
3427.00,0.0122
3426.00,0.0123
3425.00,0.0123
3424.00,0.0123
3423.00,0.0123
3422.00,0.0123
3421.00,0.0123
3420.00,0.0124
3419.00,0.0124
3418.00,0.0124
3417.00,0.0124
3416.00,0.0124
3415.00,0.0124
3414.00,0.0124
3413.00,0.0124
3412.00,0.0124
3411.00,0.0124
3410.00,0.0125
3409.00,0.0125
3408.00,0.0125
3407.00,0.0125
3406.00,0.0125
3405.00,0.0125
3404.00,0.0125
3403.00,0.0124
3402.00,0.0124
3401.00,0.0124
3400.00,0.0124
3399.00,0.0124
3398.00,0.0125
3397.00,0.0125
3396.00,0.0125
3395.00,0.0125
3394.00,0.0125
3393.00,0.0125
3392.00,0.0125
3391.00,0.0125
3390.00,0.0125
3389.00,0.0126
3388.00,0.0126
3387.00,0.0127
3386.00,0.0127
3385.00,0.0127
3384.00,0.0126
3383.00,0.0126
3382.00,0.0126
3381.00,0.0127
3380.00,0.0127
3379.00,0.0127
3378.00,0.0127
3377.00,0.0127
3376.00,0.0127
3375.00,0.0128
3374.00,0.0127
3373.00,0.0127
3372.00,0.0126
3371.00,0.0126
3370.00,0.0125
3369.00,0.0125
3368.00,0.0125
3367.00,0.0126
3366.00,0.0127
3365.00,0.0128
3364.00,0.0128
3363.00,0.0128
3362.00,0.0128
3361.00,0.0129
3360.00,0.0129
3359.00,0.0130
3358.00,0.0130
3357.00,0.0130
3356.00,0.0130
3355.00,0.0130
3354.00,0.0129
3353.00,0.0128
3352.00,0.0128
3351.00,0.0128
3350.00,0.0128
3349.00,0.0130
3348.00,0.0131
3347.00,0.0131
3346.00,0.0131
3345.00,0.0131
3344.00,0.0130
3343.00,0.0130
3342.00,0.0130
3341.00,0.0129
3340.00,0.0129
3339.00,0.0128
3338.00,0.0129
3337.00,0.0129
3336.00,0.0130
3335.00,0.0131
3334.00,0.0132
3333.00,0.0132
3332.00,0.0133
3331.00,0.0133
3330.00,0.0133
3329.00,0.0132
3328.00,0.0131
3327.00,0.0131
3326.00,0.0130
3325.00,0.0131
3324.00,0.0131
3323.00,0.0132
3322.00,0.0133
3321.00,0.0134
3320.00,0.0134
3319.00,0.0135
3318.00,0.0135
3317.00,0.0135
3316.00,0.0134
3315.00,0.0134
3314.00,0.0134
3313.00,0.0133
3312.00,0.0133
3311.00,0.0131
3310.00,0.0130
3309.00,0.0129
3308.00,0.0128
3307.00,0.0128
3306.00,0.0128
3305.00,0.0129
3304.00,0.0131
3303.00,0.0133
3302.00,0.0134
3301.00,0.0135
3300.00,0.0135
3299.00,0.0134
3298.00,0.0133
3297.00,0.0132
3296.00,0.0132
3295.00,0.0131
3294.00,0.0131
3293.00,0.0131
3292.00,0.0132
3291.00,0.0133
3290.00,0.0134
3289.00,0.0135
3288.00,0.0135
3287.00,0.0136
3286.00,0.0135
3285.00,0.0135
3284.00,0.0135
3283.00,0.0135
3282.00,0.0135
3281.00,0.0135
3280.00,0.0135
3279.00,0.0135
3278.00,0.0134
3277.00,0.0134
3276.00,0.0133
3275.00,0.0132
3274.00,0.0132
3273.00,0.0131
3272.00,0.0131
3271.00,0.0131
3270.00,0.0131
3269.00,0.0132
3268.00,0.0133
3267.00,0.0133
3266.00,0.0133
3265.00,0.0133
3264.00,0.0133
3263.00,0.0133
3262.00,0.0133
3261.00,0.0133
3260.00,0.0133
3259.00,0.0132
3258.00,0.0132
3257.00,0.0131
3256.00,0.0131
3255.00,0.0131
3254.00,0.0131
3253.00,0.0131
3252.00,0.0131
3251.00,0.0131
3250.00,0.0131
3249.00,0.0130
3248.00,0.0130
3247.00,0.0129
3246.00,0.0130
3245.00,0.0130
3244.00,0.0130
3243.00,0.0130
3242.00,0.0130
3241.00,0.0130
3240.00,0.0130
3239.00,0.0130
3238.00,0.0129
3237.00,0.0129
3236.00,0.0128
3235.00,0.0128
3234.00,0.0127
3233.00,0.0127
3232.00,0.0127
3231.00,0.0128
3230.00,0.0128
3229.00,0.0128
3228.00,0.0128
3227.00,0.0128
3226.00,0.0128
3225.00,0.0127
3224.00,0.0127
3223.00,0.0126
3222.00,0.0126
3221.00,0.0125
3220.00,0.0125
3219.00,0.0125
3218.00,0.0125
3217.00,0.0125
3216.00,0.0124
3215.00,0.0124
3214.00,0.0124
3213.00,0.0124
3212.00,0.0124
3211.00,0.0124
3210.00,0.0123
3209.00,0.0123
3208.00,0.0123
3207.00,0.0123
3206.00,0.0123
3205.00,0.0123
3204.00,0.0123
3203.00,0.0122
3202.00,0.0122
3201.00,0.0122
3200.00,0.0122
3199.00,0.0122
3198.00,0.0122
3197.00,0.0122
3196.00,0.0121
3195.00,0.0121
3194.00,0.0121
3193.00,0.0121
3192.00,0.0121
3191.00,0.0120
3190.00,0.0120
3189.00,0.0120
3188.00,0.0120
3187.00,0.0120
3186.00,0.0120
3185.00,0.0119
3184.00,0.0119
3183.00,0.0119
3182.00,0.0118
3181.00,0.0118
3180.00,0.0117
3179.00,0.0117
3178.00,0.0117
3177.00,0.0117
3176.00,0.0116
3175.00,0.0116
3174.00,0.0116
3173.00,0.0115
3172.00,0.0115
3171.00,0.0115
3170.00,0.0115
3169.00,0.0114
3168.00,0.0114
3167.00,0.0114
3166.00,0.0113
3165.00,0.0113
3164.00,0.0113
3163.00,0.0112
3162.00,0.0112
3161.00,0.0111
3160.00,0.0111
3159.00,0.0110
3158.00,0.0110
3157.00,0.0110
3156.00,0.0109
3155.00,0.0109
3154.00,0.0108
3153.00,0.0108
3152.00,0.0107
3151.00,0.0107
3150.00,0.0107
3149.00,0.0106
3148.00,0.0106
3147.00,0.0106
3146.00,0.0105
3145.00,0.0105
3144.00,0.0105
3143.00,0.0105
3142.00,0.0104
3141.00,0.0104
3140.00,0.0103
3139.00,0.0103
3138.00,0.0102
3137.00,0.0102
3136.00,0.0102
3135.00,0.0102
3134.00,0.0102
3133.00,0.0101
3132.00,0.0101
3131.00,0.0101
3130.00,0.0100
3129.00,0.0100
3128.00,0.0100
3127.00,0.0100
3126.00,0.0100
3125.00,0.0100
3124.00,0.0100
3123.00,0.0099
3122.00,0.0099
3121.00,0.0099
3120.00,0.0098
3119.00,0.0098
3118.00,0.0097
3117.00,0.0097
3116.00,0.0097
3115.00,0.0096
3114.00,0.0096
3113.00,0.0096
3112.00,0.0096
3111.00,0.0096
3110.00,0.0095
3109.00,0.0095
3108.00,0.0095
3107.00,0.0094
3106.00,0.0094
3105.00,0.0094
3104.00,0.0093
3103.00,0.0093
3102.00,0.0092
3101.00,0.0092
3100.00,0.0092
3099.00,0.0091
3098.00,0.0091
3097.00,0.0091
3096.00,0.0091
3095.00,0.0090
3094.00,0.0090
3093.00,0.0090
3092.00,0.0089
3091.00,0.0089
3090.00,0.0089
3089.00,0.0089
3088.00,0.0089
3087.00,0.0089
3086.00,0.0089
3085.00,0.0088
3084.00,0.0088
3083.00,0.0088
3082.00,0.0087
3081.00,0.0087
3080.00,0.0087
3079.00,0.0087
3078.00,0.0087
3077.00,0.0087
3076.00,0.0087
3075.00,0.0087
3074.00,0.0087
3073.00,0.0087
3072.00,0.0087
3071.00,0.0087
3070.00,0.0086
3069.00,0.0086
3068.00,0.0085
3067.00,0.0085
3066.00,0.0084
3065.00,0.0084
3064.00,0.0083
3063.00,0.0083
3062.00,0.0082
3061.00,0.0082
3060.00,0.0081
3059.00,0.0081
3058.00,0.0081
3057.00,0.0080
3056.00,0.0080
3055.00,0.0079
3054.00,0.0079
3053.00,0.0079
3052.00,0.0079
3051.00,0.0078
3050.00,0.0078
3049.00,0.0078
3048.00,0.0078
3047.00,0.0078
3046.00,0.0078
3045.00,0.0077
3044.00,0.0077
3043.00,0.0077
3042.00,0.0076
3041.00,0.0076
3040.00,0.0076
3039.00,0.0076
3038.00,0.0076
3037.00,0.0075
3036.00,0.0075
3035.00,0.0075
3034.00,0.0075
3033.00,0.0075
3032.00,0.0075
3031.00,0.0075
3030.00,0.0075
3029.00,0.0075
3028.00,0.0074
3027.00,0.0074
3026.00,0.0074
3025.00,0.0074
3024.00,0.0075
3023.00,0.0075
3022.00,0.0075
3021.00,0.0075
3020.00,0.0075
3019.00,0.0075
3018.00,0.0076
3017.00,0.0076
3016.00,0.0076
3015.00,0.0077
3014.00,0.0077
3013.00,0.0078
3012.00,0.0078
3011.00,0.0079
3010.00,0.0079
3009.00,0.0080
3008.00,0.0081
3007.00,0.0081
3006.00,0.0082
3005.00,0.0083
3004.00,0.0084
3003.00,0.0085
3002.00,0.0086
3001.00,0.0087
3000.00,0.0088
2999.00,0.0090
2998.00,0.0091
2997.00,0.0093
2996.00,0.0095
2995.00,0.0097
2994.00,0.0099
2993.00,0.0101
2992.00,0.0103
2991.00,0.0106
2990.00,0.0109
2989.00,0.0111
2988.00,0.0113
2987.00,0.0116
2986.00,0.0117
2985.00,0.0119
2984.00,0.0119
2983.00,0.0120
2982.00,0.0120
2981.00,0.0122
2980.00,0.0124
2979.00,0.0127
2978.00,0.0130
2977.00,0.0133
2976.00,0.0136
2975.00,0.0139
2974.00,0.0141
2973.00,0.0143
2972.00,0.0146
2971.00,0.0148
2970.00,0.0152
2969.00,0.0155
2968.00,0.0159
2967.00,0.0163
2966.00,0.0166
2965.00,0.0170
2964.00,0.0174
2963.00,0.0178
2962.00,0.0181
2961.00,0.0185
2960.00,0.0188
2959.00,0.0190
2958.00,0.0193
2957.00,0.0195
2956.00,0.0197
2955.00,0.0199
2954.00,0.0200
2953.00,0.0201
2952.00,0.0202
2951.00,0.0202
2950.00,0.0202
2949.00,0.0202
2948.00,0.0202
2947.00,0.0201
2946.00,0.0201
2945.00,0.0201
2944.00,0.0201
2943.00,0.0202
2942.00,0.0202
2941.00,0.0203
2940.00,0.0204
2939.00,0.0205
2938.00,0.0207
2937.00,0.0208
2936.00,0.0211
2935.00,0.0213
2934.00,0.0215
2933.00,0.0218
2932.00,0.0220
2931.00,0.0222
2930.00,0.0224
2929.00,0.0226
2928.00,0.0229
2927.00,0.0231
2926.00,0.0233
2925.00,0.0234
2924.00,0.0236
2923.00,0.0236
2922.00,0.0236
2921.00,0.0236
2920.00,0.0235
2919.00,0.0234
2918.00,0.0232
2917.00,0.0230
2916.00,0.0228
2915.00,0.0226
2914.00,0.0223
2913.00,0.0220
2912.00,0.0218
2911.00,0.0215
2910.00,0.0212
2909.00,0.0209
2908.00,0.0206
2907.00,0.0203
2906.00,0.0200
2905.00,0.0198
2904.00,0.0195
2903.00,0.0194
2902.00,0.0192
2901.00,0.0191
2900.00,0.0190
2899.00,0.0189
2898.00,0.0188
2897.00,0.0187
2896.00,0.0187
2895.00,0.0186
2894.00,0.0186
2893.00,0.0185
2892.00,0.0184
2891.00,0.0184
2890.00,0.0183
2889.00,0.0182
2888.00,0.0182
2887.00,0.0182
2886.00,0.0181
2885.00,0.0181
2884.00,0.0181
2883.00,0.0180
2882.00,0.0180
2881.00,0.0181
2880.00,0.0181
2879.00,0.0181
2878.00,0.0181
2877.00,0.0181
2876.00,0.0181
2875.00,0.0181
2874.00,0.0180
2873.00,0.0180
2872.00,0.0180
2871.00,0.0180
2870.00,0.0180
2869.00,0.0180
2868.00,0.0179
2867.00,0.0178
2866.00,0.0177
2865.00,0.0177
2864.00,0.0177
2863.00,0.0177
2862.00,0.0178
2861.00,0.0178
2860.00,0.0178
2859.00,0.0179
2858.00,0.0179
2857.00,0.0179
2856.00,0.0178
2855.00,0.0177
2854.00,0.0175
2853.00,0.0173
2852.00,0.0169
2851.00,0.0166
2850.00,0.0162
2849.00,0.0157
2848.00,0.0153
2847.00,0.0149
2846.00,0.0145
2845.00,0.0141
2844.00,0.0137
2843.00,0.0134
2842.00,0.0130
2841.00,0.0127
2840.00,0.0123
2839.00,0.0121
2838.00,0.0119
2837.00,0.0118
2836.00,0.0117
2835.00,0.0116
2834.00,0.0115
2833.00,0.0114
2832.00,0.0113
2831.00,0.0112
2830.00,0.0110
2829.00,0.0109
2828.00,0.0107
2827.00,0.0105
2826.00,0.0103
2825.00,0.0100
2824.00,0.0098
2823.00,0.0095
2822.00,0.0093
2821.00,0.0091
2820.00,0.0089
2819.00,0.0087
2818.00,0.0085
2817.00,0.0084
2816.00,0.0082
2815.00,0.0081
2814.00,0.0079
2813.00,0.0078
2812.00,0.0077
2811.00,0.0077
2810.00,0.0076
2809.00,0.0075
2808.00,0.0074
2807.00,0.0074
2806.00,0.0073
2805.00,0.0072
2804.00,0.0072
2803.00,0.0071
2802.00,0.0071
2801.00,0.0070
2800.00,0.0070
2799.00,0.0069
2798.00,0.0069
2797.00,0.0069
2796.00,0.0068
2795.00,0.0068
2794.00,0.0068
2793.00,0.0067
2792.00,0.0067
2791.00,0.0067
2790.00,0.0067
2789.00,0.0066
2788.00,0.0066
2787.00,0.0066
2786.00,0.0066
2785.00,0.0066
2784.00,0.0065
2783.00,0.0065
2782.00,0.0065
2781.00,0.0065
2780.00,0.0065
2779.00,0.0064
2778.00,0.0064
2777.00,0.0064
2776.00,0.0063
2775.00,0.0063
2774.00,0.0063
2773.00,0.0062
2772.00,0.0062
2771.00,0.0062
2770.00,0.0062
2769.00,0.0062
2768.00,0.0062
2767.00,0.0062
2766.00,0.0062
2765.00,0.0062
2764.00,0.0061
2763.00,0.0061
2762.00,0.0061
2761.00,0.0061
2760.00,0.0061
2759.00,0.0061
2758.00,0.0061
2757.00,0.0061
