Created as New Dataset,Sample 016 By YargerLab Date Thursday, August 07 2025
cm-1,A
4000.00,0.0105
3999.00,0.0105
3998.00,0.0105
3997.00,0.0105
3996.00,0.0105
3995.00,0.0105
3994.00,0.0105
3993.00,0.0105
3992.00,0.0105
3991.00,0.0105
3990.00,0.0105
3989.00,0.0105
3988.00,0.0105
3987.00,0.0105
3986.00,0.0105
3985.00,0.0105
3984.00,0.0105
3983.00,0.0105
3982.00,0.0105
3981.00,0.0105
3980.00,0.0105
3979.00,0.0105
3978.00,0.0105
3977.00,0.0105
3976.00,0.0105
3975.00,0.0105
3974.00,0.0105
3973.00,0.0105
3972.00,0.0105
3971.00,0.0105
3970.00,0.0105
3969.00,0.0105
3968.00,0.0105
3967.00,0.0106
3966.00,0.0106
3965.00,0.0106
3964.00,0.0106
3963.00,0.0105
3962.00,0.0105
3961.00,0.0105
3960.00,0.0105
3959.00,0.0105
3958.00,0.0105
3957.00,0.0105
3956.00,0.0105
3955.00,0.0105
3954.00,0.0105
3953.00,0.0105
3952.00,0.0104
3951.00,0.0104
3950.00,0.0105
3949.00,0.0105
3948.00,0.0105
3947.00,0.0105
3946.00,0.0105
3945.00,0.0105
3944.00,0.0105
3943.00,0.0105
3942.00,0.0105
3941.00,0.0105
3940.00,0.0105
3939.00,0.0105
3938.00,0.0105
3937.00,0.0105
3936.00,0.0105
3935.00,0.0105
3934.00,0.0105
3933.00,0.0105
3932.00,0.0105
3931.00,0.0105
3930.00,0.0105
3929.00,0.0105
3928.00,0.0105
3927.00,0.0105
3926.00,0.0105
3925.00,0.0105
3924.00,0.0105
3923.00,0.0105
3922.00,0.0104
3921.00,0.0104
3920.00,0.0104
3919.00,0.0104
3918.00,0.0104
3917.00,0.0105
3916.00,0.0105
3915.00,0.0105
3914.00,0.0105
3913.00,0.0105
3912.00,0.0105
3911.00,0.0105
3910.00,0.0105
3909.00,0.0105
3908.00,0.0105
3907.00,0.0105
3906.00,0.0105
3905.00,0.0104
3904.00,0.0104
3903.00,0.0104
3902.00,0.0104
3901.00,0.0105
3900.00,0.0105
3899.00,0.0105
3898.00,0.0105
3897.00,0.0105
3896.00,0.0105
3895.00,0.0105
3894.00,0.0105
3893.00,0.0105
3892.00,0.0104
3891.00,0.0104
3890.00,0.0104
3889.00,0.0104
3888.00,0.0105
3887.00,0.0105
3886.00,0.0105
3885.00,0.0105
3884.00,0.0104
3883.00,0.0104
3882.00,0.0104
3881.00,0.0104
3880.00,0.0104
3879.00,0.0104
3878.00,0.0104
3877.00,0.0104
3876.00,0.0104
3875.00,0.0104
3874.00,0.0104
3873.00,0.0104
3872.00,0.0104
3871.00,0.0104
3870.00,0.0105
3869.00,0.0105
3868.00,0.0105
3867.00,0.0104
3866.00,0.0104
3865.00,0.0104
3864.00,0.0104
3863.00,0.0104
3862.00,0.0104
3861.00,0.0104
3860.00,0.0104
3859.00,0.0104
3858.00,0.0104
3857.00,0.0104
3856.00,0.0104
3855.00,0.0104
3854.00,0.0104
3853.00,0.0104
3852.00,0.0104
3851.00,0.0104
3850.00,0.0104
3849.00,0.0104
3848.00,0.0104
3847.00,0.0104
3846.00,0.0104
3845.00,0.0104
3844.00,0.0104
3843.00,0.0104
3842.00,0.0104
3841.00,0.0104
3840.00,0.0104
3839.00,0.0104
3838.00,0.0104
3837.00,0.0104
3836.00,0.0104
3835.00,0.0104
3834.00,0.0104
3833.00,0.0104
3832.00,0.0104
3831.00,0.0104
3830.00,0.0104
3829.00,0.0104
3828.00,0.0104
3827.00,0.0104
3826.00,0.0104
3825.00,0.0104
3824.00,0.0104
3823.00,0.0104
3822.00,0.0104
3821.00,0.0104
3820.00,0.0104
3819.00,0.0104
3818.00,0.0104
3817.00,0.0104
3816.00,0.0104
3815.00,0.0104
3814.00,0.0104
3813.00,0.0104
3812.00,0.0104
3811.00,0.0104
3810.00,0.0104
3809.00,0.0104
3808.00,0.0104
3807.00,0.0104
3806.00,0.0104
3805.00,0.0104
3804.00,0.0104
3803.00,0.0104
3802.00,0.0104
3801.00,0.0104
3800.00,0.0104
3799.00,0.0104
3798.00,0.0104
3797.00,0.0104
3796.00,0.0104
3795.00,0.0104
3794.00,0.0104
3793.00,0.0104
3792.00,0.0104
3791.00,0.0104
3790.00,0.0104
3789.00,0.0104
3788.00,0.0104
3787.00,0.0104
3786.00,0.0104
3785.00,0.0104
3784.00,0.0104
3783.00,0.0104
3782.00,0.0104
3781.00,0.0104
3780.00,0.0104
3779.00,0.0104
3778.00,0.0104
3777.00,0.0104
3776.00,0.0104
3775.00,0.0104
3774.00,0.0104
3773.00,0.0104
3772.00,0.0104
3771.00,0.0104
3770.00,0.0104
3769.00,0.0104
3768.00,0.0104
3767.00,0.0104
3766.00,0.0104
3765.00,0.0104
3764.00,0.0104
3763.00,0.0104
3762.00,0.0104
3761.00,0.0104
3760.00,0.0104
3759.00,0.0104
3758.00,0.0104
3757.00,0.0104
3756.00,0.0104
3755.00,0.0104
3754.00,0.0103
3753.00,0.0103
3752.00,0.0103
3751.00,0.0103
3750.00,0.0103
3749.00,0.0103
3748.00,0.0102
3747.00,0.0102
3746.00,0.0102
3745.00,0.0103
3744.00,0.0103
3743.00,0.0103
3742.00,0.0103
3741.00,0.0103
3740.00,0.0103
3739.00,0.0103
3738.00,0.0103
3737.00,0.0103
3736.00,0.0103
3735.00,0.0102
3734.00,0.0102
3733.00,0.0102
3732.00,0.0103
3731.00,0.0103
3730.00,0.0103
3729.00,0.0103
3728.00,0.0103
3727.00,0.0103
3726.00,0.0103
3725.00,0.0103
3724.00,0.0103
3723.00,0.0102
3722.00,0.0102
3721.00,0.0102
3720.00,0.0102
3719.00,0.0102
3718.00,0.0102
3717.00,0.0102
3716.00,0.0102
3715.00,0.0102
3714.00,0.0102
3713.00,0.0102
3712.00,0.0101
3711.00,0.0101
3710.00,0.0101
3709.00,0.0101
3708.00,0.0101
3707.00,0.0101
3706.00,0.0102
3705.00,0.0102
3704.00,0.0102
3703.00,0.0102
3702.00,0.0102
3701.00,0.0102
3700.00,0.0102
3699.00,0.0102
3698.00,0.0102
3697.00,0.0102
3696.00,0.0102
3695.00,0.0102
3694.00,0.0102
3693.00,0.0102
3692.00,0.0103
3691.00,0.0103
3690.00,0.0103
3689.00,0.0103
3688.00,0.0103
3687.00,0.0103
3686.00,0.0104
3685.00,0.0104
3684.00,0.0105
3683.00,0.0105
3682.00,0.0105
3681.00,0.0106
3680.00,0.0106
3679.00,0.0106
3678.00,0.0106
3677.00,0.0106
3676.00,0.0106
3675.00,0.0106
3674.00,0.0106
3673.00,0.0106
3672.00,0.0106
3671.00,0.0106
3670.00,0.0107
3669.00,0.0107
3668.00,0.0107
3667.00,0.0107
3666.00,0.0107
3665.00,0.0107
3664.00,0.0107
3663.00,0.0107
3662.00,0.0107
3661.00,0.0107
3660.00,0.0108
3659.00,0.0108
3658.00,0.0108
3657.00,0.0108
3656.00,0.0108
3655.00,0.0108
3654.00,0.0108
3653.00,0.0108
3652.00,0.0108
3651.00,0.0109
3650.00,0.0109
3649.00,0.0110
3648.00,0.0110
3647.00,0.0111
3646.00,0.0111
3645.00,0.0111
3644.00,0.0112
3643.00,0.0112
3642.00,0.0113
3641.00,0.0113
3640.00,0.0113
3639.00,0.0113
3638.00,0.0113
3637.00,0.0113
3636.00,0.0114
3635.00,0.0114
3634.00,0.0114
3633.00,0.0114
3632.00,0.0115
3631.00,0.0115
3630.00,0.0115
3629.00,0.0116
3628.00,0.0116
3627.00,0.0117
3626.00,0.0117
3625.00,0.0117
3624.00,0.0118
3623.00,0.0118
3622.00,0.0118
3621.00,0.0118
3620.00,0.0119
3619.00,0.0120
3618.00,0.0120
3617.00,0.0121
3616.00,0.0122
3615.00,0.0122
3614.00,0.0123
3613.00,0.0124
3612.00,0.0124
3611.00,0.0125
3610.00,0.0125
3609.00,0.0125
3608.00,0.0126
3607.00,0.0126
3606.00,0.0126
3605.00,0.0127
3604.00,0.0127
3603.00,0.0127
3602.00,0.0128
3601.00,0.0129
3600.00,0.0130
3599.00,0.0131
3598.00,0.0131
3597.00,0.0131
3596.00,0.0132
3595.00,0.0133
3594.00,0.0134
3593.00,0.0134
3592.00,0.0135
3591.00,0.0135
3590.00,0.0136
3589.00,0.0136
3588.00,0.0137
3587.00,0.0139
3586.00,0.0140
3585.00,0.0141
3584.00,0.0141
3583.00,0.0142
3582.00,0.0142
3581.00,0.0143
3580.00,0.0144
3579.00,0.0145
3578.00,0.0145
3577.00,0.0146
3576.00,0.0147
3575.00,0.0147
3574.00,0.0148
3573.00,0.0149
3572.00,0.0149
3571.00,0.0150
3570.00,0.0151
3569.00,0.0152
3568.00,0.0153
3567.00,0.0155
3566.00,0.0156
3565.00,0.0156
3564.00,0.0157
3563.00,0.0157
3562.00,0.0158
3561.00,0.0158
3560.00,0.0159
3559.00,0.0160
3558.00,0.0160
3557.00,0.0161
3556.00,0.0162
3555.00,0.0162
3554.00,0.0163
3553.00,0.0163
3552.00,0.0164
3551.00,0.0165
3550.00,0.0165
3549.00,0.0166
3548.00,0.0166
3547.00,0.0167
3546.00,0.0168
3545.00,0.0168
3544.00,0.0169
3543.00,0.0170
3542.00,0.0170
3541.00,0.0170
3540.00,0.0170
3539.00,0.0171
3538.00,0.0172
3537.00,0.0173
3536.00,0.0173
3535.00,0.0174
3534.00,0.0174
3533.00,0.0174
3532.00,0.0175
3531.00,0.0175
3530.00,0.0175
3529.00,0.0175
3528.00,0.0176
3527.00,0.0177
3526.00,0.0177
3525.00,0.0178
3524.00,0.0178
3523.00,0.0178
3522.00,0.0179
3521.00,0.0179
3520.00,0.0179
3519.00,0.0180
3518.00,0.0180
3517.00,0.0180
3516.00,0.0181
3515.00,0.0181
3514.00,0.0182
3513.00,0.0182
3512.00,0.0183
3511.00,0.0183
3510.00,0.0184
3509.00,0.0184
3508.00,0.0184
3507.00,0.0185
3506.00,0.0185
3505.00,0.0185
3504.00,0.0186
3503.00,0.0186
3502.00,0.0187
3501.00,0.0187
3500.00,0.0188
3499.00,0.0188
3498.00,0.0188
3497.00,0.0189
3496.00,0.0189
3495.00,0.0190
3494.00,0.0190
3493.00,0.0191
3492.00,0.0191
3491.00,0.0191
3490.00,0.0191
3489.00,0.0192
3488.00,0.0192
3487.00,0.0193
3486.00,0.0193
3485.00,0.0194
3484.00,0.0194
3483.00,0.0194
3482.00,0.0195
3481.00,0.0195
3480.00,0.0196
3479.00,0.0196
3478.00,0.0197
3477.00,0.0197
3476.00,0.0198
3475.00,0.0198
3474.00,0.0198
3473.00,0.0199
3472.00,0.0199
3471.00,0.0199
3470.00,0.0199
3469.00,0.0200
3468.00,0.0200
3467.00,0.0200
3466.00,0.0201
3465.00,0.0201
3464.00,0.0201
3463.00,0.0202
3462.00,0.0202
3461.00,0.0202
3460.00,0.0202
3459.00,0.0203
3458.00,0.0203
3457.00,0.0203
3456.00,0.0203
3455.00,0.0203
3454.00,0.0203
3453.00,0.0203
3452.00,0.0204
3451.00,0.0204
3450.00,0.0204
3449.00,0.0204
3448.00,0.0204
3447.00,0.0205
3446.00,0.0205
3445.00,0.0205
3444.00,0.0205
3443.00,0.0205
3442.00,0.0205
3441.00,0.0205
3440.00,0.0205
3439.00,0.0205
3438.00,0.0205
3437.00,0.0205
3436.00,0.0205
3435.00,0.0205
3434.00,0.0205
3433.00,0.0206
3432.00,0.0206
3431.00,0.0206
3430.00,0.0206
3429.00,0.0206
3428.00,0.0206
3427.00,0.0206
3426.00,0.0206
3425.00,0.0205
3424.00,0.0205
3423.00,0.0205
3422.00,0.0205
3421.00,0.0206
3420.00,0.0206
3419.00,0.0205
3418.00,0.0205
3417.00,0.0205
3416.00,0.0205
3415.00,0.0205
3414.00,0.0205
3413.00,0.0205
3412.00,0.0205
3411.00,0.0205
3410.00,0.0204
3409.00,0.0204
3408.00,0.0204
3407.00,0.0204
3406.00,0.0204
3405.00,0.0204
3404.00,0.0204
3403.00,0.0204
3402.00,0.0204
3401.00,0.0204
3400.00,0.0204
3399.00,0.0204
3398.00,0.0204
3397.00,0.0204
3396.00,0.0204
3395.00,0.0204
3394.00,0.0204
3393.00,0.0204
3392.00,0.0204
3391.00,0.0204
3390.00,0.0204
3389.00,0.0205
3388.00,0.0205
3387.00,0.0205
3386.00,0.0205
3385.00,0.0205
3384.00,0.0205
3383.00,0.0205
3382.00,0.0205
3381.00,0.0205
3380.00,0.0205
3379.00,0.0205
3378.00,0.0205
3377.00,0.0205
3376.00,0.0205
3375.00,0.0205
3374.00,0.0205
3373.00,0.0205
3372.00,0.0204
3371.00,0.0203
3370.00,0.0202
3369.00,0.0202
3368.00,0.0202
3367.00,0.0203
3366.00,0.0204
3365.00,0.0205
3364.00,0.0205
3363.00,0.0206
3362.00,0.0206
3361.00,0.0206
3360.00,0.0207
3359.00,0.0207
3358.00,0.0207
3357.00,0.0208
3356.00,0.0207
3355.00,0.0207
3354.00,0.0206
3353.00,0.0205
3352.00,0.0205
3351.00,0.0205
3350.00,0.0205
3349.00,0.0206
3348.00,0.0206
3347.00,0.0207
3346.00,0.0207
3345.00,0.0206
3344.00,0.0206
3343.00,0.0206
3342.00,0.0205
3341.00,0.0205
3340.00,0.0204
3339.00,0.0204
3338.00,0.0204
3337.00,0.0205
3336.00,0.0206
3335.00,0.0206
3334.00,0.0207
3333.00,0.0207
3332.00,0.0207
3331.00,0.0206
3330.00,0.0206
3329.00,0.0205
3328.00,0.0204
3327.00,0.0204
3326.00,0.0203
3325.00,0.0203
3324.00,0.0204
3323.00,0.0204
3322.00,0.0205
3321.00,0.0205
3320.00,0.0206
3319.00,0.0206
3318.00,0.0206
3317.00,0.0205
3316.00,0.0205
3315.00,0.0205
3314.00,0.0205
3313.00,0.0205
3312.00,0.0204
3311.00,0.0202
3310.00,0.0201
3309.00,0.0199
3308.00,0.0198
3307.00,0.0198
3306.00,0.0199
3305.00,0.0200
3304.00,0.0201
3303.00,0.0203
3302.00,0.0203
3301.00,0.0204
3300.00,0.0204
3299.00,0.0203
3298.00,0.0202
3297.00,0.0202
3296.00,0.0201
3295.00,0.0200
3294.00,0.0200
3293.00,0.0200
3292.00,0.0201
3291.00,0.0201
3290.00,0.0202
3289.00,0.0203
3288.00,0.0203
3287.00,0.0203
3286.00,0.0203
3285.00,0.0203
3284.00,0.0203
3283.00,0.0203
3282.00,0.0203
3281.00,0.0203
3280.00,0.0202
3279.00,0.0202
3278.00,0.0201
3277.00,0.0201
3276.00,0.0201
3275.00,0.0201
3274.00,0.0200
3273.00,0.0200
3272.00,0.0199
3271.00,0.0199
3270.00,0.0200
3269.00,0.0200
3268.00,0.0201
3267.00,0.0201
3266.00,0.0201
3265.00,0.0201
3264.00,0.0201
3263.00,0.0201
3262.00,0.0201
3261.00,0.0201
3260.00,0.0201
3259.00,0.0201
3258.00,0.0200
3257.00,0.0200
3256.00,0.0200
3255.00,0.0200
3254.00,0.0200
3253.00,0.0200
3252.00,0.0200
3251.00,0.0200
3250.00,0.0199
3249.00,0.0199
3248.00,0.0198
3247.00,0.0198
3246.00,0.0199
3245.00,0.0199
3244.00,0.0200
3243.00,0.0200
3242.00,0.0200
3241.00,0.0200
3240.00,0.0200
3239.00,0.0200
3238.00,0.0200
3237.00,0.0200
3236.00,0.0199
3235.00,0.0198
3234.00,0.0198
3233.00,0.0198
3232.00,0.0198
3231.00,0.0199
3230.00,0.0199
3229.00,0.0199
3228.00,0.0199
3227.00,0.0199
3226.00,0.0199
3225.00,0.0199
3224.00,0.0199
3223.00,0.0199
3222.00,0.0199
3221.00,0.0199
3220.00,0.0199
3219.00,0.0199
3218.00,0.0199
3217.00,0.0198
3216.00,0.0198
3215.00,0.0198
3214.00,0.0198
3213.00,0.0198
3212.00,0.0198
3211.00,0.0198
3210.00,0.0198
3209.00,0.0197
3208.00,0.0197
3207.00,0.0196
3206.00,0.0196
3205.00,0.0196
3204.00,0.0196
3203.00,0.0196
3202.00,0.0196
3201.00,0.0196
3200.00,0.0196
3199.00,0.0196
3198.00,0.0196
3197.00,0.0196
3196.00,0.0196
3195.00,0.0195
3194.00,0.0195
3193.00,0.0195
3192.00,0.0195
3191.00,0.0195
3190.00,0.0195
3189.00,0.0195
3188.00,0.0195
3187.00,0.0195
3186.00,0.0195
3185.00,0.0195
3184.00,0.0195
3183.00,0.0195
3182.00,0.0195
3181.00,0.0195
3180.00,0.0195
3179.00,0.0195
3178.00,0.0195
3177.00,0.0195
3176.00,0.0195
3175.00,0.0195
3174.00,0.0195
3173.00,0.0195
3172.00,0.0195
3171.00,0.0195
3170.00,0.0194
3169.00,0.0194
3168.00,0.0194
3167.00,0.0194
3166.00,0.0194
3165.00,0.0194
3164.00,0.0193
3163.00,0.0193
3162.00,0.0193
3161.00,0.0193
3160.00,0.0193
3159.00,0.0193
3158.00,0.0192
3157.00,0.0192
3156.00,0.0192
3155.00,0.0192
3154.00,0.0191
3153.00,0.0191
3152.00,0.0191
3151.00,0.0191
3150.00,0.0191
3149.00,0.0191
3148.00,0.0191
3147.00,0.0191
3146.00,0.0190
3145.00,0.0190
3144.00,0.0190
3143.00,0.0189
3142.00,0.0189
3141.00,0.0189
3140.00,0.0189
3139.00,0.0189
3138.00,0.0189
3137.00,0.0189
3136.00,0.0189
3135.00,0.0189
3134.00,0.0189
3133.00,0.0188
3132.00,0.0188
3131.00,0.0188
3130.00,0.0188
3129.00,0.0188
3128.00,0.0188
3127.00,0.0188
3126.00,0.0188
3125.00,0.0188
3124.00,0.0188
3123.00,0.0188
3122.00,0.0188
3121.00,0.0188
3120.00,0.0188
3119.00,0.0188
3118.00,0.0187
3117.00,0.0187
3116.00,0.0187
3115.00,0.0187
3114.00,0.0187
3113.00,0.0186
3112.00,0.0186
3111.00,0.0186
3110.00,0.0185
3109.00,0.0185
3108.00,0.0185
3107.00,0.0185
3106.00,0.0185
3105.00,0.0185
3104.00,0.0185
3103.00,0.0184
3102.00,0.0184
3101.00,0.0183
3100.00,0.0183
3099.00,0.0183
3098.00,0.0183
3097.00,0.0183
3096.00,0.0183
3095.00,0.0183
3094.00,0.0183
3093.00,0.0183
3092.00,0.0183
3091.00,0.0183
3090.00,0.0183
3089.00,0.0183
3088.00,0.0183
3087.00,0.0183
3086.00,0.0183
3085.00,0.0183
3084.00,0.0184
3083.00,0.0184
3082.00,0.0184
3081.00,0.0184
3080.00,0.0184
3079.00,0.0184
3078.00,0.0184
3077.00,0.0184
3076.00,0.0184
3075.00,0.0184
3074.00,0.0184
3073.00,0.0183
3072.00,0.0183
3071.00,0.0183
3070.00,0.0182
3069.00,0.0182
3068.00,0.0182
3067.00,0.0181
3066.00,0.0181
3065.00,0.0181
3064.00,0.0181
3063.00,0.0180
3062.00,0.0180
3061.00,0.0180
3060.00,0.0180
3059.00,0.0179
3058.00,0.0179
3057.00,0.0179
3056.00,0.0179
3055.00,0.0179
3054.00,0.0179
3053.00,0.0178
3052.00,0.0178
3051.00,0.0178
3050.00,0.0178
3049.00,0.0178
3048.00,0.0178
3047.00,0.0178
3046.00,0.0177
3045.00,0.0177
3044.00,0.0177
3043.00,0.0177
3042.00,0.0176
3041.00,0.0176
3040.00,0.0176
3039.00,0.0176
3038.00,0.0176
3037.00,0.0176
3036.00,0.0176
3035.00,0.0176
3034.00,0.0176
3033.00,0.0176
3032.00,0.0176
3031.00,0.0176
3030.00,0.0176
3029.00,0.0175
3028.00,0.0175
3027.00,0.0175
3026.00,0.0175
3025.00,0.0175
3024.00,0.0174
3023.00,0.0174
3022.00,0.0174
3021.00,0.0174
3020.00,0.0175
3019.00,0.0175
3018.00,0.0175
3017.00,0.0175
3016.00,0.0176
3015.00,0.0176
3014.00,0.0177
3013.00,0.0178
3012.00,0.0179
3011.00,0.0181
3010.00,0.0182
3009.00,0.0184
3008.00,0.0185
3007.00,0.0187
3006.00,0.0189
3005.00,0.0192
3004.00,0.0194
3003.00,0.0197
3002.00,0.0201
3001.00,0.0204
3000.00,0.0208
2999.00,0.0212
2998.00,0.0217
2997.00,0.0221
2996.00,0.0226
2995.00,0.0231
2994.00,0.0237
2993.00,0.0243
2992.00,0.0249
2991.00,0.0255
2990.00,0.0262
2989.00,0.0268
2988.00,0.0274
2987.00,0.0281
2986.00,0.0287
2985.00,0.0293
2984.00,0.0299
2983.00,0.0305
2982.00,0.0310
2981.00,0.0315
2980.00,0.0320
2979.00,0.0325
2978.00,0.0329
2977.00,0.0332
2976.00,0.0335
2975.00,0.0339
2974.00,0.0341
2973.00,0.0344
2972.00,0.0348
2971.00,0.0351
2970.00,0.0354
2969.00,0.0357
2968.00,0.0360
2967.00,0.0363
2966.00,0.0366
2965.00,0.0369
2964.00,0.0373
2963.00,0.0376
2962.00,0.0380
2961.00,0.0384
2960.00,0.0387
2959.00,0.0390
2958.00,0.0393
2957.00,0.0396
2956.00,0.0398
2955.00,0.0400
2954.00,0.0401
2953.00,0.0402
2952.00,0.0402
2951.00,0.0402
2950.00,0.0401
2949.00,0.0400
2948.00,0.0399
2947.00,0.0398
2946.00,0.0397
2945.00,0.0397
2944.00,0.0396
2943.00,0.0395
2942.00,0.0395
2941.00,0.0395
2940.00,0.0396
2939.00,0.0396
2938.00,0.0397
2937.00,0.0399
2936.00,0.0401
2935.00,0.0403
2934.00,0.0405
2933.00,0.0407
2932.00,0.0410
2931.00,0.0412
2930.00,0.0415
2929.00,0.0417
2928.00,0.0419
2927.00,0.0421
2926.00,0.0422
2925.00,0.0423
2924.00,0.0423
2923.00,0.0423
2922.00,0.0422
2921.00,0.0420
2920.00,0.0418
2919.00,0.0416
2918.00,0.0413
2917.00,0.0409
2916.00,0.0405
2915.00,0.0401
2914.00,0.0396
2913.00,0.0391
2912.00,0.0386
2911.00,0.0381
2910.00,0.0376
2909.00,0.0371
2908.00,0.0366
2907.00,0.0362
2906.00,0.0357
2905.00,0.0353
2904.00,0.0350
2903.00,0.0347
2902.00,0.0345
2901.00,0.0343
2900.00,0.0342
2899.00,0.0341
2898.00,0.0340
2897.00,0.0340
2896.00,0.0340
2895.00,0.0340
2894.00,0.0340
2893.00,0.0340
2892.00,0.0340
2891.00,0.0340
2890.00,0.0340
2889.00,0.0339
2888.00,0.0339
2887.00,0.0339
2886.00,0.0339
2885.00,0.0339
2884.00,0.0340
2883.00,0.0340
2882.00,0.0340
2881.00,0.0341
2880.00,0.0342
2879.00,0.0343
2878.00,0.0344
2877.00,0.0345
2876.00,0.0346
2875.00,0.0347
2874.00,0.0348
2873.00,0.0349
2872.00,0.0350
2871.00,0.0350
2870.00,0.0350
2869.00,0.0349
2868.00,0.0348
2867.00,0.0347
2866.00,0.0346
2865.00,0.0345
2864.00,0.0344
2863.00,0.0343
2862.00,0.0343
2861.00,0.0342
2860.00,0.0341
2859.00,0.0341
2858.00,0.0339
2857.00,0.0337
2856.00,0.0334
2855.00,0.0330
2854.00,0.0326
2853.00,0.0321
2852.00,0.0316
2851.00,0.0311
2850.00,0.0305
2849.00,0.0300
2848.00,0.0294
2847.00,0.0289
2846.00,0.0284
2845.00,0.0279
2844.00,0.0274
2843.00,0.0269
2842.00,0.0264
2841.00,0.0260
2840.00,0.0255
2839.00,0.0251
2838.00,0.0248
2837.00,0.0245
2836.00,0.0242
2835.00,0.0239
2834.00,0.0236
2833.00,0.0233
2832.00,0.0230
2831.00,0.0227
2830.00,0.0224
2829.00,0.0221
2828.00,0.0219
2827.00,0.0216
2826.00,0.0213
2825.00,0.0211
2824.00,0.0209
2823.00,0.0207
2822.00,0.0204
2821.00,0.0203
2820.00,0.0201
2819.00,0.0199
2818.00,0.0198
2817.00,0.0196
2816.00,0.0195
2815.00,0.0193
2814.00,0.0192
2813.00,0.0190
2812.00,0.0189
2811.00,0.0188
2810.00,0.0186
2809.00,0.0185
2808.00,0.0185
2807.00,0.0184
2806.00,0.0183
2805.00,0.0182
2804.00,0.0181
2803.00,0.0180
2802.00,0.0180
2801.00,0.0179
2800.00,0.0178
2799.00,0.0177
2798.00,0.0176
2797.00,0.0176
2796.00,0.0175
2795.00,0.0175
2794.00,0.0174
2793.00,0.0173
2792.00,0.0173
2791.00,0.0172
2790.00,0.0172
2789.00,0.0171
2788.00,0.0171
2787.00,0.0171
2786.00,0.0170
2785.00,0.0170
2784.00,0.0169
2783.00,0.0169
2782.00,0.0168
2781.00,0.0168
2780.00,0.0167
2779.00,0.0167
2778.00,0.0166
2777.00,0.0166
2776.00,0.0165
2775.00,0.0165
2774.00,0.0165
2773.00,0.0165
2772.00,0.0164
2771.00,0.0164
2770.00,0.0164
2769.00,0.0163
2768.00,0.0163
2767.00,0.0162
2766.00,0.0162
2765.00,0.0162
2764.00,0.0161
2763.00,0.0161
2762.00,0.0161
2761.00,0.0161
2760.00,0.0161
2759.00,0.0161
2758.00,0.0161
2757.00,0.0161
