Created as New Dataset,Sample 935 By YargerLab Date Monday, July 28 2025
cm-1,A
4000.00,0.0068
3999.00,0.0068
3998.00,0.0068
3997.00,0.0068
3996.00,0.0068
3995.00,0.0068
3994.00,0.0068
3993.00,0.0068
3992.00,0.0068
3991.00,0.0068
3990.00,0.0068
3989.00,0.0068
3988.00,0.0068
3987.00,0.0068
3986.00,0.0068
3985.00,0.0068
3984.00,0.0068
3983.00,0.0068
3982.00,0.0068
3981.00,0.0068
3980.00,0.0068
3979.00,0.0068
3978.00,0.0068
3977.00,0.0068
3976.00,0.0068
3975.00,0.0068
3974.00,0.0068
3973.00,0.0068
3972.00,0.0068
3971.00,0.0068
3970.00,0.0068
3969.00,0.0068
3968.00,0.0068
3967.00,0.0068
3966.00,0.0068
3965.00,0.0068
3964.00,0.0068
3963.00,0.0068
3962.00,0.0068
3961.00,0.0068
3960.00,0.0068
3959.00,0.0068
3958.00,0.0068
3957.00,0.0068
3956.00,0.0068
3955.00,0.0067
3954.00,0.0067
3953.00,0.0067
3952.00,0.0067
3951.00,0.0067
3950.00,0.0067
3949.00,0.0067
3948.00,0.0067
3947.00,0.0068
3946.00,0.0068
3945.00,0.0068
3944.00,0.0068
3943.00,0.0068
3942.00,0.0068
3941.00,0.0068
3940.00,0.0068
3939.00,0.0068
3938.00,0.0067
3937.00,0.0067
3936.00,0.0067
3935.00,0.0067
3934.00,0.0067
3933.00,0.0067
3932.00,0.0067
3931.00,0.0067
3930.00,0.0068
3929.00,0.0068
3928.00,0.0067
3927.00,0.0067
3926.00,0.0067
3925.00,0.0067
3924.00,0.0067
3923.00,0.0067
3922.00,0.0067
3921.00,0.0067
3920.00,0.0067
3919.00,0.0068
3918.00,0.0068
3917.00,0.0068
3916.00,0.0068
3915.00,0.0068
3914.00,0.0068
3913.00,0.0068
3912.00,0.0068
3911.00,0.0068
3910.00,0.0068
3909.00,0.0068
3908.00,0.0068
3907.00,0.0067
3906.00,0.0067
3905.00,0.0067
3904.00,0.0067
3903.00,0.0067
3902.00,0.0067
3901.00,0.0067
3900.00,0.0067
3899.00,0.0067
3898.00,0.0067
3897.00,0.0067
3896.00,0.0067
3895.00,0.0067
3894.00,0.0067
3893.00,0.0067
3892.00,0.0067
3891.00,0.0067
3890.00,0.0067
3889.00,0.0067
3888.00,0.0067
3887.00,0.0066
3886.00,0.0066
3885.00,0.0066
3884.00,0.0066
3883.00,0.0066
3882.00,0.0066
3881.00,0.0067
3880.00,0.0067
3879.00,0.0067
3878.00,0.0067
3877.00,0.0067
3876.00,0.0067
3875.00,0.0067
3874.00,0.0067
3873.00,0.0067
3872.00,0.0067
3871.00,0.0067
3870.00,0.0067
3869.00,0.0067
3868.00,0.0067
3867.00,0.0067
3866.00,0.0066
3865.00,0.0067
3864.00,0.0067
3863.00,0.0067
3862.00,0.0067
3861.00,0.0067
3860.00,0.0067
3859.00,0.0067
3858.00,0.0067
3857.00,0.0068
3856.00,0.0068
3855.00,0.0068
3854.00,0.0067
3853.00,0.0067
3852.00,0.0066
3851.00,0.0066
3850.00,0.0066
3849.00,0.0066
3848.00,0.0067
3847.00,0.0067
3846.00,0.0067
3845.00,0.0067
3844.00,0.0067
3843.00,0.0067
3842.00,0.0067
3841.00,0.0067
3840.00,0.0067
3839.00,0.0067
3838.00,0.0067
3837.00,0.0067
3836.00,0.0067
3835.00,0.0067
3834.00,0.0067
3833.00,0.0067
3832.00,0.0067
3831.00,0.0067
3830.00,0.0067
3829.00,0.0067
3828.00,0.0068
3827.00,0.0068
3826.00,0.0067
3825.00,0.0067
3824.00,0.0067
3823.00,0.0067
3822.00,0.0067
3821.00,0.0067
3820.00,0.0067
3819.00,0.0067
3818.00,0.0067
3817.00,0.0067
3816.00,0.0067
3815.00,0.0067
3814.00,0.0067
3813.00,0.0067
3812.00,0.0067
3811.00,0.0068
3810.00,0.0068
3809.00,0.0068
3808.00,0.0067
3807.00,0.0067
3806.00,0.0066
3805.00,0.0066
3804.00,0.0066
3803.00,0.0066
3802.00,0.0066
3801.00,0.0067
3800.00,0.0067
3799.00,0.0067
3798.00,0.0067
3797.00,0.0067
3796.00,0.0067
3795.00,0.0067
3794.00,0.0068
3793.00,0.0068
3792.00,0.0068
3791.00,0.0068
3790.00,0.0068
3789.00,0.0068
3788.00,0.0068
3787.00,0.0068
3786.00,0.0068
3785.00,0.0068
3784.00,0.0068
3783.00,0.0068
3782.00,0.0067
3781.00,0.0067
3780.00,0.0067
3779.00,0.0067
3778.00,0.0067
3777.00,0.0067
3776.00,0.0067
3775.00,0.0067
3774.00,0.0067
3773.00,0.0067
3772.00,0.0067
3771.00,0.0067
3770.00,0.0067
3769.00,0.0067
3768.00,0.0067
3767.00,0.0067
3766.00,0.0066
3765.00,0.0067
3764.00,0.0067
3763.00,0.0067
3762.00,0.0067
3761.00,0.0067
3760.00,0.0067
3759.00,0.0067
3758.00,0.0067
3757.00,0.0067
3756.00,0.0066
3755.00,0.0066
3754.00,0.0066
3753.00,0.0066
3752.00,0.0066
3751.00,0.0065
3750.00,0.0065
3749.00,0.0065
3748.00,0.0065
3747.00,0.0065
3746.00,0.0065
3745.00,0.0065
3744.00,0.0066
3743.00,0.0065
3742.00,0.0065
3741.00,0.0065
3740.00,0.0065
3739.00,0.0065
3738.00,0.0064
3737.00,0.0064
3736.00,0.0064
3735.00,0.0064
3734.00,0.0064
3733.00,0.0065
3732.00,0.0065
3731.00,0.0065
3730.00,0.0064
3729.00,0.0064
3728.00,0.0064
3727.00,0.0065
3726.00,0.0065
3725.00,0.0065
3724.00,0.0065
3723.00,0.0065
3722.00,0.0065
3721.00,0.0065
3720.00,0.0066
3719.00,0.0066
3718.00,0.0066
3717.00,0.0066
3716.00,0.0066
3715.00,0.0066
3714.00,0.0066
3713.00,0.0065
3712.00,0.0065
3711.00,0.0065
3710.00,0.0065
3709.00,0.0065
3708.00,0.0065
3707.00,0.0064
3706.00,0.0064
3705.00,0.0064
3704.00,0.0064
3703.00,0.0065
3702.00,0.0065
3701.00,0.0066
3700.00,0.0066
3699.00,0.0066
3698.00,0.0065
3697.00,0.0065
3696.00,0.0065
3695.00,0.0065
3694.00,0.0065
3693.00,0.0065
3692.00,0.0065
3691.00,0.0065
3690.00,0.0065
3689.00,0.0065
3688.00,0.0065
3687.00,0.0065
3686.00,0.0066
3685.00,0.0066
3684.00,0.0066
3683.00,0.0067
3682.00,0.0067
3681.00,0.0067
3680.00,0.0067
3679.00,0.0067
3678.00,0.0067
3677.00,0.0066
3676.00,0.0066
3675.00,0.0067
3674.00,0.0067
3673.00,0.0067
3672.00,0.0067
3671.00,0.0067
3670.00,0.0067
3669.00,0.0067
3668.00,0.0067
3667.00,0.0067
3666.00,0.0067
3665.00,0.0068
3664.00,0.0068
3663.00,0.0068
3662.00,0.0068
3661.00,0.0069
3660.00,0.0069
3659.00,0.0069
3658.00,0.0069
3657.00,0.0069
3656.00,0.0069
3655.00,0.0069
3654.00,0.0068
3653.00,0.0068
3652.00,0.0068
3651.00,0.0068
3650.00,0.0068
3649.00,0.0068
3648.00,0.0069
3647.00,0.0069
3646.00,0.0070
3645.00,0.0070
3644.00,0.0070
3643.00,0.0071
3642.00,0.0071
3641.00,0.0071
3640.00,0.0071
3639.00,0.0071
3638.00,0.0071
3637.00,0.0071
3636.00,0.0071
3635.00,0.0071
3634.00,0.0071
3633.00,0.0071
3632.00,0.0071
3631.00,0.0071
3630.00,0.0072
3629.00,0.0072
3628.00,0.0073
3627.00,0.0074
3626.00,0.0074
3625.00,0.0074
3624.00,0.0074
3623.00,0.0075
3622.00,0.0075
3621.00,0.0075
3620.00,0.0076
3619.00,0.0076
3618.00,0.0076
3617.00,0.0076
3616.00,0.0077
3615.00,0.0077
3614.00,0.0077
3613.00,0.0078
3612.00,0.0079
3611.00,0.0079
3610.00,0.0079
3609.00,0.0079
3608.00,0.0079
3607.00,0.0080
3606.00,0.0081
3605.00,0.0081
3604.00,0.0081
3603.00,0.0082
3602.00,0.0082
3601.00,0.0083
3600.00,0.0083
3599.00,0.0084
3598.00,0.0084
3597.00,0.0085
3596.00,0.0085
3595.00,0.0086
3594.00,0.0086
3593.00,0.0086
3592.00,0.0087
3591.00,0.0087
3590.00,0.0087
3589.00,0.0087
3588.00,0.0088
3587.00,0.0088
3586.00,0.0089
3585.00,0.0090
3584.00,0.0091
3583.00,0.0091
3582.00,0.0092
3581.00,0.0092
3580.00,0.0093
3579.00,0.0094
3578.00,0.0094
3577.00,0.0095
3576.00,0.0095
3575.00,0.0096
3574.00,0.0097
3573.00,0.0097
3572.00,0.0098
3571.00,0.0098
3570.00,0.0098
3569.00,0.0098
3568.00,0.0098
3567.00,0.0099
3566.00,0.0099
3565.00,0.0100
3564.00,0.0100
3563.00,0.0101
3562.00,0.0101
3561.00,0.0102
3560.00,0.0103
3559.00,0.0104
3558.00,0.0104
3557.00,0.0105
3556.00,0.0105
3555.00,0.0106
3554.00,0.0106
3553.00,0.0106
3552.00,0.0106
3551.00,0.0107
3550.00,0.0107
3549.00,0.0107
3548.00,0.0108
3547.00,0.0108
3546.00,0.0109
3545.00,0.0109
3544.00,0.0110
3543.00,0.0110
3542.00,0.0110
3541.00,0.0111
3540.00,0.0111
3539.00,0.0112
3538.00,0.0112
3537.00,0.0112
3536.00,0.0112
3535.00,0.0112
3534.00,0.0112
3533.00,0.0112
3532.00,0.0112
3531.00,0.0112
3530.00,0.0112
3529.00,0.0112
3528.00,0.0112
3527.00,0.0112
3526.00,0.0113
3525.00,0.0113
3524.00,0.0113
3523.00,0.0113
3522.00,0.0114
3521.00,0.0114
3520.00,0.0114
3519.00,0.0114
3518.00,0.0114
3517.00,0.0114
3516.00,0.0114
3515.00,0.0114
3514.00,0.0114
3513.00,0.0114
3512.00,0.0114
3511.00,0.0114
3510.00,0.0114
3509.00,0.0114
3508.00,0.0115
3507.00,0.0114
3506.00,0.0114
3505.00,0.0114
3504.00,0.0114
3503.00,0.0114
3502.00,0.0114
3501.00,0.0115
3500.00,0.0115
3499.00,0.0115
3498.00,0.0115
3497.00,0.0115
3496.00,0.0115
3495.00,0.0115
3494.00,0.0115
3493.00,0.0115
3492.00,0.0115
3491.00,0.0115
3490.00,0.0115
3489.00,0.0116
3488.00,0.0116
3487.00,0.0116
3486.00,0.0116
3485.00,0.0116
3484.00,0.0116
3483.00,0.0116
3482.00,0.0116
3481.00,0.0116
3480.00,0.0116
3479.00,0.0116
3478.00,0.0116
3477.00,0.0116
3476.00,0.0116
3475.00,0.0116
3474.00,0.0116
3473.00,0.0116
3472.00,0.0116
3471.00,0.0117
3470.00,0.0117
3469.00,0.0117
3468.00,0.0117
3467.00,0.0117
3466.00,0.0117
3465.00,0.0117
3464.00,0.0117
3463.00,0.0116
3462.00,0.0116
3461.00,0.0116
3460.00,0.0116
3459.00,0.0116
3458.00,0.0116
3457.00,0.0116
3456.00,0.0116
3455.00,0.0116
3454.00,0.0116
3453.00,0.0116
3452.00,0.0116
3451.00,0.0115
3450.00,0.0115
3449.00,0.0115
3448.00,0.0116
3447.00,0.0116
3446.00,0.0116
3445.00,0.0116
3444.00,0.0116
3443.00,0.0115
3442.00,0.0115
3441.00,0.0114
3440.00,0.0114
3439.00,0.0114
3438.00,0.0114
3437.00,0.0114
3436.00,0.0114
3435.00,0.0113
3434.00,0.0113
3433.00,0.0113
3432.00,0.0113
3431.00,0.0113
3430.00,0.0113
3429.00,0.0113
3428.00,0.0113
3427.00,0.0113
3426.00,0.0112
3425.00,0.0112
3424.00,0.0111
3423.00,0.0111
3422.00,0.0111
3421.00,0.0110
3420.00,0.0110
3419.00,0.0110
3418.00,0.0110
3417.00,0.0110
3416.00,0.0110
3415.00,0.0109
3414.00,0.0109
3413.00,0.0109
3412.00,0.0108
3411.00,0.0108
3410.00,0.0108
3409.00,0.0108
3408.00,0.0108
3407.00,0.0108
3406.00,0.0108
3405.00,0.0108
3404.00,0.0108
3403.00,0.0107
3402.00,0.0107
3401.00,0.0106
3400.00,0.0106
3399.00,0.0106
3398.00,0.0107
3397.00,0.0107
3396.00,0.0107
3395.00,0.0106
3394.00,0.0106
3393.00,0.0105
3392.00,0.0105
3391.00,0.0105
3390.00,0.0106
3389.00,0.0106
3388.00,0.0106
3387.00,0.0106
3386.00,0.0106
3385.00,0.0106
3384.00,0.0106
3383.00,0.0106
3382.00,0.0106
3381.00,0.0105
3380.00,0.0105
3379.00,0.0105
3378.00,0.0105
3377.00,0.0105
3376.00,0.0105
3375.00,0.0105
3374.00,0.0105
3373.00,0.0104
3372.00,0.0104
3371.00,0.0103
3370.00,0.0103
3369.00,0.0102
3368.00,0.0103
3367.00,0.0103
3366.00,0.0104
3365.00,0.0105
3364.00,0.0105
3363.00,0.0105
3362.00,0.0105
3361.00,0.0105
3360.00,0.0106
3359.00,0.0106
3358.00,0.0106
3357.00,0.0106
3356.00,0.0106
3355.00,0.0106
3354.00,0.0106
3353.00,0.0106
3352.00,0.0105
3351.00,0.0105
3350.00,0.0105
3349.00,0.0106
3348.00,0.0106
3347.00,0.0107
3346.00,0.0107
3345.00,0.0106
3344.00,0.0106
3343.00,0.0105
3342.00,0.0105
3341.00,0.0105
3340.00,0.0105
3339.00,0.0105
3338.00,0.0105
3337.00,0.0105
3336.00,0.0106
3335.00,0.0106
3334.00,0.0106
3333.00,0.0106
3332.00,0.0106
3331.00,0.0106
3330.00,0.0105
3329.00,0.0105
3328.00,0.0104
3327.00,0.0103
3326.00,0.0103
3325.00,0.0102
3324.00,0.0103
3323.00,0.0103
3322.00,0.0103
3321.00,0.0104
3320.00,0.0104
3319.00,0.0103
3318.00,0.0103
3317.00,0.0103
3316.00,0.0103
3315.00,0.0102
3314.00,0.0102
3313.00,0.0101
3312.00,0.0101
3311.00,0.0100
3310.00,0.0098
3309.00,0.0097
3308.00,0.0097
3307.00,0.0096
3306.00,0.0096
3305.00,0.0097
3304.00,0.0097
3303.00,0.0098
3302.00,0.0098
3301.00,0.0099
3300.00,0.0099
3299.00,0.0098
3298.00,0.0098
3297.00,0.0097
3296.00,0.0096
3295.00,0.0096
3294.00,0.0095
3293.00,0.0095
3292.00,0.0095
3291.00,0.0096
3290.00,0.0096
3289.00,0.0097
3288.00,0.0097
3287.00,0.0096
3286.00,0.0096
3285.00,0.0096
3284.00,0.0095
3283.00,0.0095
3282.00,0.0095
3281.00,0.0095
3280.00,0.0095
3279.00,0.0095
3278.00,0.0094
3277.00,0.0094
3276.00,0.0094
3275.00,0.0093
3274.00,0.0093
3273.00,0.0092
3272.00,0.0092
3271.00,0.0092
3270.00,0.0092
3269.00,0.0092
3268.00,0.0093
3267.00,0.0093
3266.00,0.0093
3265.00,0.0092
3264.00,0.0092
3263.00,0.0092
3262.00,0.0092
3261.00,0.0092
3260.00,0.0092
3259.00,0.0091
3258.00,0.0091
3257.00,0.0091
3256.00,0.0091
3255.00,0.0090
3254.00,0.0090
3253.00,0.0090
3252.00,0.0090
3251.00,0.0090
3250.00,0.0089
3249.00,0.0089
3248.00,0.0088
3247.00,0.0088
3246.00,0.0088
3245.00,0.0089
3244.00,0.0089
3243.00,0.0089
3242.00,0.0089
3241.00,0.0088
3240.00,0.0088
3239.00,0.0088
3238.00,0.0088
3237.00,0.0087
3236.00,0.0087
3235.00,0.0086
3234.00,0.0086
3233.00,0.0086
3232.00,0.0086
3231.00,0.0086
3230.00,0.0087
3229.00,0.0087
3228.00,0.0087
3227.00,0.0087
3226.00,0.0086
3225.00,0.0086
3224.00,0.0086
3223.00,0.0086
3222.00,0.0085
3221.00,0.0085
3220.00,0.0085
3219.00,0.0085
3218.00,0.0085
3217.00,0.0084
3216.00,0.0084
3215.00,0.0084
3214.00,0.0084
3213.00,0.0084
3212.00,0.0084
3211.00,0.0084
3210.00,0.0084
3209.00,0.0084
3208.00,0.0084
3207.00,0.0084
3206.00,0.0083
3205.00,0.0083
3204.00,0.0083
3203.00,0.0083
3202.00,0.0083
3201.00,0.0083
3200.00,0.0083
3199.00,0.0083
3198.00,0.0083
3197.00,0.0083
3196.00,0.0083
3195.00,0.0083
3194.00,0.0083
3193.00,0.0082
3192.00,0.0082
3191.00,0.0082
3190.00,0.0082
3189.00,0.0082
3188.00,0.0082
3187.00,0.0082
3186.00,0.0082
3185.00,0.0082
3184.00,0.0082
3183.00,0.0082
3182.00,0.0082
3181.00,0.0081
3180.00,0.0081
3179.00,0.0081
3178.00,0.0081
3177.00,0.0081
3176.00,0.0081
3175.00,0.0081
3174.00,0.0081
3173.00,0.0081
3172.00,0.0081
3171.00,0.0081
3170.00,0.0081
3169.00,0.0081
3168.00,0.0081
3167.00,0.0081
3166.00,0.0081
3165.00,0.0081
3164.00,0.0081
3163.00,0.0081
3162.00,0.0081
3161.00,0.0081
3160.00,0.0080
3159.00,0.0080
3158.00,0.0080
3157.00,0.0080
3156.00,0.0080
3155.00,0.0080
3154.00,0.0080
3153.00,0.0080
3152.00,0.0080
3151.00,0.0080
3150.00,0.0080
3149.00,0.0080
3148.00,0.0080
3147.00,0.0079
3146.00,0.0079
3145.00,0.0079
3144.00,0.0079
3143.00,0.0079
3142.00,0.0079
3141.00,0.0079
3140.00,0.0079
3139.00,0.0079
3138.00,0.0079
3137.00,0.0079
3136.00,0.0079
3135.00,0.0080
3134.00,0.0080
3133.00,0.0080
3132.00,0.0080
3131.00,0.0079
3130.00,0.0079
3129.00,0.0079
3128.00,0.0079
3127.00,0.0079
3126.00,0.0079
3125.00,0.0079
3124.00,0.0079
3123.00,0.0079
3122.00,0.0079
3121.00,0.0079
3120.00,0.0079
3119.00,0.0079
3118.00,0.0079
3117.00,0.0079
3116.00,0.0079
3115.00,0.0079
3114.00,0.0079
3113.00,0.0079
3112.00,0.0079
3111.00,0.0079
3110.00,0.0079
3109.00,0.0079
3108.00,0.0079
3107.00,0.0079
3106.00,0.0079
3105.00,0.0079
3104.00,0.0079
3103.00,0.0079
3102.00,0.0079
3101.00,0.0079
3100.00,0.0079
3099.00,0.0079
3098.00,0.0079
3097.00,0.0079
3096.00,0.0079
3095.00,0.0079
3094.00,0.0079
3093.00,0.0078
3092.00,0.0079
3091.00,0.0079
3090.00,0.0079
3089.00,0.0079
3088.00,0.0079
3087.00,0.0079
3086.00,0.0079
3085.00,0.0079
3084.00,0.0079
3083.00,0.0079
3082.00,0.0079
3081.00,0.0079
3080.00,0.0079
3079.00,0.0079
3078.00,0.0079
3077.00,0.0079
3076.00,0.0079
3075.00,0.0079
3074.00,0.0079
3073.00,0.0079
3072.00,0.0079
3071.00,0.0079
3070.00,0.0079
3069.00,0.0079
3068.00,0.0079
3067.00,0.0079
3066.00,0.0079
3065.00,0.0079
3064.00,0.0079
3063.00,0.0079
3062.00,0.0079
3061.00,0.0079
3060.00,0.0079
3059.00,0.0079
3058.00,0.0079
3057.00,0.0079
3056.00,0.0079
3055.00,0.0078
3054.00,0.0078
3053.00,0.0078
3052.00,0.0078
3051.00,0.0079
3050.00,0.0079
3049.00,0.0079
3048.00,0.0079
3047.00,0.0078
3046.00,0.0078
3045.00,0.0078
3044.00,0.0078
3043.00,0.0078
3042.00,0.0079
3041.00,0.0079
3040.00,0.0079
3039.00,0.0079
3038.00,0.0079
3037.00,0.0079
3036.00,0.0079
3035.00,0.0079
3034.00,0.0079
3033.00,0.0079
3032.00,0.0079
3031.00,0.0079
3030.00,0.0080
3029.00,0.0080
3028.00,0.0080
3027.00,0.0081
3026.00,0.0081
3025.00,0.0081
3024.00,0.0081
3023.00,0.0082
3022.00,0.0082
3021.00,0.0083
3020.00,0.0083
3019.00,0.0084
3018.00,0.0084
3017.00,0.0085
3016.00,0.0085
3015.00,0.0086
3014.00,0.0087
3013.00,0.0088
3012.00,0.0089
3011.00,0.0090
3010.00,0.0091
3009.00,0.0093
3008.00,0.0094
3007.00,0.0096
3006.00,0.0097
3005.00,0.0099
3004.00,0.0101
3003.00,0.0103
3002.00,0.0105
3001.00,0.0107
3000.00,0.0110
2999.00,0.0112
2998.00,0.0115
2997.00,0.0118
2996.00,0.0120
2995.00,0.0123
2994.00,0.0126
2993.00,0.0129
2992.00,0.0133
2991.00,0.0136
2990.00,0.0140
2989.00,0.0143
2988.00,0.0147
2987.00,0.0150
2986.00,0.0153
2985.00,0.0157
2984.00,0.0160
2983.00,0.0163
2982.00,0.0166
2981.00,0.0169
2980.00,0.0171
2979.00,0.0174
2978.00,0.0176
2977.00,0.0178
2976.00,0.0181
2975.00,0.0183
2974.00,0.0185
2973.00,0.0187
2972.00,0.0189
2971.00,0.0191
2970.00,0.0192
2969.00,0.0194
2968.00,0.0195
2967.00,0.0197
2966.00,0.0199
2965.00,0.0200
2964.00,0.0202
2963.00,0.0203
2962.00,0.0205
2961.00,0.0206
2960.00,0.0208
2959.00,0.0210
2958.00,0.0211
2957.00,0.0213
2956.00,0.0215
2955.00,0.0217
2954.00,0.0218
2953.00,0.0220
2952.00,0.0221
2951.00,0.0222
2950.00,0.0223
2949.00,0.0223
2948.00,0.0224
2947.00,0.0224
2946.00,0.0223
2945.00,0.0223
2944.00,0.0222
2943.00,0.0221
2942.00,0.0219
2941.00,0.0218
2940.00,0.0217
2939.00,0.0216
2938.00,0.0215
2937.00,0.0215
2936.00,0.0214
2935.00,0.0213
2934.00,0.0213
2933.00,0.0213
2932.00,0.0213
2931.00,0.0213
2930.00,0.0213
2929.00,0.0213
2928.00,0.0214
2927.00,0.0215
2926.00,0.0216
2925.00,0.0217
2924.00,0.0217
2923.00,0.0218
2922.00,0.0218
2921.00,0.0219
2920.00,0.0219
2919.00,0.0219
2918.00,0.0219
2917.00,0.0218
2916.00,0.0217
2915.00,0.0216
2914.00,0.0215
2913.00,0.0213
2912.00,0.0211
2911.00,0.0209
2910.00,0.0207
2909.00,0.0205
2908.00,0.0203
2907.00,0.0200
2906.00,0.0198
2905.00,0.0197
2904.00,0.0195
2903.00,0.0194
2902.00,0.0193
2901.00,0.0193
2900.00,0.0192
2899.00,0.0192
2898.00,0.0192
2897.00,0.0192
2896.00,0.0193
2895.00,0.0193
2894.00,0.0194
2893.00,0.0194
2892.00,0.0195
2891.00,0.0195
2890.00,0.0196
2889.00,0.0196
2888.00,0.0196
2887.00,0.0197
2886.00,0.0197
2885.00,0.0197
2884.00,0.0198
2883.00,0.0198
2882.00,0.0198
2881.00,0.0199
2880.00,0.0199
2879.00,0.0199
2878.00,0.0199
2877.00,0.0198
2876.00,0.0198
2875.00,0.0197
2874.00,0.0197
2873.00,0.0196
2872.00,0.0195
2871.00,0.0194
2870.00,0.0193
2869.00,0.0192
2868.00,0.0191
2867.00,0.0189
2866.00,0.0188
2865.00,0.0187
2864.00,0.0186
2863.00,0.0184
2862.00,0.0183
2861.00,0.0181
2860.00,0.0180
2859.00,0.0178
2858.00,0.0177
2857.00,0.0175
2856.00,0.0173
2855.00,0.0172
2854.00,0.0170
2853.00,0.0167
2852.00,0.0165
2851.00,0.0163
2850.00,0.0161
2849.00,0.0158
2848.00,0.0156
2847.00,0.0155
2846.00,0.0153
2845.00,0.0151
2844.00,0.0150
2843.00,0.0148
2842.00,0.0146
2841.00,0.0144
2840.00,0.0143
2839.00,0.0141
2838.00,0.0140
2837.00,0.0138
2836.00,0.0137
2835.00,0.0135
2834.00,0.0134
2833.00,0.0132
2832.00,0.0131
2831.00,0.0129
2830.00,0.0126
2829.00,0.0124
2828.00,0.0123
2827.00,0.0121
2826.00,0.0119
2825.00,0.0117
2824.00,0.0116
2823.00,0.0114
2822.00,0.0113
2821.00,0.0111
2820.00,0.0110
2819.00,0.0109
2818.00,0.0108
2817.00,0.0107
2816.00,0.0106
2815.00,0.0105
2814.00,0.0104
2813.00,0.0103
2812.00,0.0102
2811.00,0.0101
2810.00,0.0101
2809.00,0.0100
2808.00,0.0100
2807.00,0.0099
2806.00,0.0099
2805.00,0.0099
2804.00,0.0098
2803.00,0.0098
2802.00,0.0097
2801.00,0.0097
2800.00,0.0096
2799.00,0.0096
2798.00,0.0096
2797.00,0.0096
2796.00,0.0096
2795.00,0.0096
2794.00,0.0095
2793.00,0.0095
2792.00,0.0095
2791.00,0.0094
2790.00,0.0094
2789.00,0.0094
2788.00,0.0094
2787.00,0.0094
2786.00,0.0093
2785.00,0.0093
2784.00,0.0093
2783.00,0.0092
2782.00,0.0092
2781.00,0.0092
2780.00,0.0092
2779.00,0.0092
2778.00,0.0091
2777.00,0.0091
2776.00,0.0091
2775.00,0.0091
2774.00,0.0091
2773.00,0.0091
2772.00,0.0091
2771.00,0.0091
2770.00,0.0090
2769.00,0.0090
2768.00,0.0090
2767.00,0.0090
2766.00,0.0090
2765.00,0.0090
2764.00,0.0089
2763.00,0.0089
2762.00,0.0089
2761.00,0.0089
2760.00,0.0089
2759.00,0.0088
2758.00,0.0088
2757.00,0.0088
