Created as New Dataset,Sample 823 By YargerLab Date Tuesday, July 15 2025
cm-1,A
4000.00,0.0041
3999.00,0.0041
3998.00,0.0041
3997.00,0.0041
3996.00,0.0041
3995.00,0.0041
3994.00,0.0041
3993.00,0.0041
3992.00,0.0041
3991.00,0.0041
3990.00,0.0041
3989.00,0.0041
3988.00,0.0041
3987.00,0.0040
3986.00,0.0040
3985.00,0.0041
3984.00,0.0041
3983.00,0.0041
3982.00,0.0041
3981.00,0.0041
3980.00,0.0041
3979.00,0.0041
3978.00,0.0041
3977.00,0.0041
3976.00,0.0041
3975.00,0.0041
3974.00,0.0041
3973.00,0.0041
3972.00,0.0041
3971.00,0.0041
3970.00,0.0041
3969.00,0.0040
3968.00,0.0040
3967.00,0.0040
3966.00,0.0040
3965.00,0.0040
3964.00,0.0040
3963.00,0.0040
3962.00,0.0040
3961.00,0.0040
3960.00,0.0040
3959.00,0.0040
3958.00,0.0040
3957.00,0.0040
3956.00,0.0041
3955.00,0.0040
3954.00,0.0040
3953.00,0.0040
3952.00,0.0040
3951.00,0.0040
3950.00,0.0040
3949.00,0.0040
3948.00,0.0040
3947.00,0.0040
3946.00,0.0040
3945.00,0.0040
3944.00,0.0040
3943.00,0.0040
3942.00,0.0040
3941.00,0.0040
3940.00,0.0040
3939.00,0.0040
3938.00,0.0040
3937.00,0.0040
3936.00,0.0040
3935.00,0.0040
3934.00,0.0040
3933.00,0.0040
3932.00,0.0040
3931.00,0.0039
3930.00,0.0040
3929.00,0.0040
3928.00,0.0040
3927.00,0.0040
3926.00,0.0040
3925.00,0.0040
3924.00,0.0040
3923.00,0.0040
3922.00,0.0040
3921.00,0.0040
3920.00,0.0040
3919.00,0.0040
3918.00,0.0040
3917.00,0.0040
3916.00,0.0040
3915.00,0.0040
3914.00,0.0040
3913.00,0.0040
3912.00,0.0041
3911.00,0.0041
3910.00,0.0041
3909.00,0.0041
3908.00,0.0040
3907.00,0.0040
3906.00,0.0040
3905.00,0.0040
3904.00,0.0040
3903.00,0.0039
3902.00,0.0039
3901.00,0.0039
3900.00,0.0039
3899.00,0.0039
3898.00,0.0039
3897.00,0.0039
3896.00,0.0039
3895.00,0.0039
3894.00,0.0039
3893.00,0.0039
3892.00,0.0039
3891.00,0.0039
3890.00,0.0039
3889.00,0.0039
3888.00,0.0039
3887.00,0.0039
3886.00,0.0039
3885.00,0.0039
3884.00,0.0039
3883.00,0.0039
3882.00,0.0039
3881.00,0.0040
3880.00,0.0040
3879.00,0.0040
3878.00,0.0040
3877.00,0.0039
3876.00,0.0039
3875.00,0.0039
3874.00,0.0040
3873.00,0.0040
3872.00,0.0039
3871.00,0.0039
3870.00,0.0039
3869.00,0.0039
3868.00,0.0039
3867.00,0.0039
3866.00,0.0039
3865.00,0.0039
3864.00,0.0039
3863.00,0.0039
3862.00,0.0039
3861.00,0.0040
3860.00,0.0040
3859.00,0.0040
3858.00,0.0039
3857.00,0.0039
3856.00,0.0038
3855.00,0.0038
3854.00,0.0038
3853.00,0.0038
3852.00,0.0038
3851.00,0.0038
3850.00,0.0038
3849.00,0.0039
3848.00,0.0039
3847.00,0.0040
3846.00,0.0040
3845.00,0.0040
3844.00,0.0040
3843.00,0.0040
3842.00,0.0039
3841.00,0.0039
3840.00,0.0039
3839.00,0.0039
3838.00,0.0039
3837.00,0.0039
3836.00,0.0039
3835.00,0.0039
3834.00,0.0039
3833.00,0.0039
3832.00,0.0040
3831.00,0.0040
3830.00,0.0040
3829.00,0.0040
3828.00,0.0040
3827.00,0.0040
3826.00,0.0040
3825.00,0.0040
3824.00,0.0039
3823.00,0.0039
3822.00,0.0039
3821.00,0.0039
3820.00,0.0039
3819.00,0.0039
3818.00,0.0039
3817.00,0.0039
3816.00,0.0039
3815.00,0.0039
3814.00,0.0039
3813.00,0.0039
3812.00,0.0040
3811.00,0.0040
3810.00,0.0040
3809.00,0.0040
3808.00,0.0041
3807.00,0.0041
3806.00,0.0040
3805.00,0.0040
3804.00,0.0039
3803.00,0.0039
3802.00,0.0039
3801.00,0.0039
3800.00,0.0039
3799.00,0.0039
3798.00,0.0039
3797.00,0.0039
3796.00,0.0039
3795.00,0.0039
3794.00,0.0039
3793.00,0.0040
3792.00,0.0040
3791.00,0.0040
3790.00,0.0041
3789.00,0.0041
3788.00,0.0041
3787.00,0.0041
3786.00,0.0040
3785.00,0.0040
3784.00,0.0040
3783.00,0.0040
3782.00,0.0040
3781.00,0.0039
3780.00,0.0040
3779.00,0.0040
3778.00,0.0040
3777.00,0.0040
3776.00,0.0040
3775.00,0.0040
3774.00,0.0040
3773.00,0.0040
3772.00,0.0040
3771.00,0.0040
3770.00,0.0040
3769.00,0.0040
3768.00,0.0040
3767.00,0.0040
3766.00,0.0040
3765.00,0.0039
3764.00,0.0039
3763.00,0.0039
3762.00,0.0040
3761.00,0.0040
3760.00,0.0040
3759.00,0.0040
3758.00,0.0040
3757.00,0.0040
3756.00,0.0040
3755.00,0.0040
3754.00,0.0040
3753.00,0.0039
3752.00,0.0039
3751.00,0.0038
3750.00,0.0038
3749.00,0.0038
3748.00,0.0038
3747.00,0.0037
3746.00,0.0037
3745.00,0.0038
3744.00,0.0038
3743.00,0.0038
3742.00,0.0038
3741.00,0.0038
3740.00,0.0038
3739.00,0.0038
3738.00,0.0038
3737.00,0.0038
3736.00,0.0038
3735.00,0.0037
3734.00,0.0037
3733.00,0.0037
3732.00,0.0037
3731.00,0.0038
3730.00,0.0038
3729.00,0.0038
3728.00,0.0038
3727.00,0.0038
3726.00,0.0038
3725.00,0.0038
3724.00,0.0039
3723.00,0.0039
3722.00,0.0039
3721.00,0.0039
3720.00,0.0039
3719.00,0.0039
3718.00,0.0039
3717.00,0.0039
3716.00,0.0039
3715.00,0.0039
3714.00,0.0039
3713.00,0.0039
3712.00,0.0038
3711.00,0.0038
3710.00,0.0038
3709.00,0.0038
3708.00,0.0038
3707.00,0.0038
3706.00,0.0038
3705.00,0.0038
3704.00,0.0039
3703.00,0.0039
3702.00,0.0039
3701.00,0.0039
3700.00,0.0039
3699.00,0.0039
3698.00,0.0039
3697.00,0.0039
3696.00,0.0039
3695.00,0.0039
3694.00,0.0040
3693.00,0.0040
3692.00,0.0040
3691.00,0.0040
3690.00,0.0040
3689.00,0.0040
3688.00,0.0040
3687.00,0.0040
3686.00,0.0040
3685.00,0.0041
3684.00,0.0042
3683.00,0.0043
3682.00,0.0044
3681.00,0.0044
3680.00,0.0044
3679.00,0.0044
3678.00,0.0044
3677.00,0.0043
3676.00,0.0043
3675.00,0.0043
3674.00,0.0043
3673.00,0.0043
3672.00,0.0043
3671.00,0.0043
3670.00,0.0044
3669.00,0.0044
3668.00,0.0045
3667.00,0.0045
3666.00,0.0045
3665.00,0.0046
3664.00,0.0046
3663.00,0.0046
3662.00,0.0047
3661.00,0.0047
3660.00,0.0047
3659.00,0.0047
3658.00,0.0047
3657.00,0.0047
3656.00,0.0047
3655.00,0.0047
3654.00,0.0047
3653.00,0.0047
3652.00,0.0047
3651.00,0.0048
3650.00,0.0048
3649.00,0.0048
3648.00,0.0048
3647.00,0.0048
3646.00,0.0048
3645.00,0.0049
3644.00,0.0050
3643.00,0.0051
3642.00,0.0052
3641.00,0.0052
3640.00,0.0052
3639.00,0.0053
3638.00,0.0053
3637.00,0.0053
3636.00,0.0053
3635.00,0.0054
3634.00,0.0054
3633.00,0.0055
3632.00,0.0054
3631.00,0.0054
3630.00,0.0054
3629.00,0.0055
3628.00,0.0055
3627.00,0.0056
3626.00,0.0057
3625.00,0.0058
3624.00,0.0058
3623.00,0.0059
3622.00,0.0060
3621.00,0.0060
3620.00,0.0060
3619.00,0.0061
3618.00,0.0062
3617.00,0.0063
3616.00,0.0064
3615.00,0.0064
3614.00,0.0064
3613.00,0.0065
3612.00,0.0065
3611.00,0.0065
3610.00,0.0066
3609.00,0.0067
3608.00,0.0068
3607.00,0.0069
3606.00,0.0069
3605.00,0.0070
3604.00,0.0070
3603.00,0.0070
3602.00,0.0071
3601.00,0.0071
3600.00,0.0072
3599.00,0.0073
3598.00,0.0073
3597.00,0.0073
3596.00,0.0074
3595.00,0.0074
3594.00,0.0075
3593.00,0.0075
3592.00,0.0076
3591.00,0.0076
3590.00,0.0076
3589.00,0.0077
3588.00,0.0077
3587.00,0.0078
3586.00,0.0079
3585.00,0.0080
3584.00,0.0081
3583.00,0.0082
3582.00,0.0083
3581.00,0.0084
3580.00,0.0085
3579.00,0.0086
3578.00,0.0086
3577.00,0.0087
3576.00,0.0088
3575.00,0.0089
3574.00,0.0090
3573.00,0.0090
3572.00,0.0091
3571.00,0.0091
3570.00,0.0091
3569.00,0.0092
3568.00,0.0092
3567.00,0.0093
3566.00,0.0094
3565.00,0.0095
3564.00,0.0096
3563.00,0.0097
3562.00,0.0098
3561.00,0.0099
3560.00,0.0100
3559.00,0.0100
3558.00,0.0101
3557.00,0.0102
3556.00,0.0102
3555.00,0.0103
3554.00,0.0104
3553.00,0.0105
3552.00,0.0105
3551.00,0.0106
3550.00,0.0107
3549.00,0.0107
3548.00,0.0108
3547.00,0.0109
3546.00,0.0109
3545.00,0.0110
3544.00,0.0110
3543.00,0.0111
3542.00,0.0112
3541.00,0.0112
3540.00,0.0113
3539.00,0.0114
3538.00,0.0115
3537.00,0.0115
3536.00,0.0116
3535.00,0.0116
3534.00,0.0117
3533.00,0.0118
3532.00,0.0118
3531.00,0.0119
3530.00,0.0119
3529.00,0.0120
3528.00,0.0120
3527.00,0.0120
3526.00,0.0121
3525.00,0.0122
3524.00,0.0122
3523.00,0.0123
3522.00,0.0124
3521.00,0.0124
3520.00,0.0125
3519.00,0.0126
3518.00,0.0127
3517.00,0.0127
3516.00,0.0128
3515.00,0.0128
3514.00,0.0129
3513.00,0.0129
3512.00,0.0130
3511.00,0.0130
3510.00,0.0131
3509.00,0.0131
3508.00,0.0132
3507.00,0.0133
3506.00,0.0133
3505.00,0.0134
3504.00,0.0134
3503.00,0.0135
3502.00,0.0136
3501.00,0.0136
3500.00,0.0137
3499.00,0.0138
3498.00,0.0138
3497.00,0.0139
3496.00,0.0140
3495.00,0.0140
3494.00,0.0141
3493.00,0.0141
3492.00,0.0142
3491.00,0.0143
3490.00,0.0143
3489.00,0.0144
3488.00,0.0144
3487.00,0.0144
3486.00,0.0145
3485.00,0.0145
3484.00,0.0146
3483.00,0.0147
3482.00,0.0148
3481.00,0.0148
3480.00,0.0149
3479.00,0.0150
3478.00,0.0150
3477.00,0.0151
3476.00,0.0151
3475.00,0.0152
3474.00,0.0153
3473.00,0.0153
3472.00,0.0154
3471.00,0.0155
3470.00,0.0155
3469.00,0.0156
3468.00,0.0156
3467.00,0.0157
3466.00,0.0157
3465.00,0.0158
3464.00,0.0158
3463.00,0.0159
3462.00,0.0159
3461.00,0.0160
3460.00,0.0160
3459.00,0.0161
3458.00,0.0161
3457.00,0.0162
3456.00,0.0162
3455.00,0.0162
3454.00,0.0162
3453.00,0.0163
3452.00,0.0163
3451.00,0.0164
3450.00,0.0165
3449.00,0.0165
3448.00,0.0166
3447.00,0.0166
3446.00,0.0166
3445.00,0.0166
3444.00,0.0167
3443.00,0.0167
3442.00,0.0168
3441.00,0.0168
3440.00,0.0168
3439.00,0.0168
3438.00,0.0169
3437.00,0.0169
3436.00,0.0170
3435.00,0.0170
3434.00,0.0170
3433.00,0.0170
3432.00,0.0170
3431.00,0.0171
3430.00,0.0171
3429.00,0.0171
3428.00,0.0171
3427.00,0.0171
3426.00,0.0171
3425.00,0.0171
3424.00,0.0171
3423.00,0.0171
3422.00,0.0172
3421.00,0.0172
3420.00,0.0172
3419.00,0.0172
3418.00,0.0172
3417.00,0.0172
3416.00,0.0172
3415.00,0.0173
3414.00,0.0173
3413.00,0.0173
3412.00,0.0173
3411.00,0.0173
3410.00,0.0174
3409.00,0.0174
3408.00,0.0174
3407.00,0.0174
3406.00,0.0174
3405.00,0.0174
3404.00,0.0174
3403.00,0.0175
3402.00,0.0175
3401.00,0.0175
3400.00,0.0175
3399.00,0.0175
3398.00,0.0175
3397.00,0.0175
3396.00,0.0176
3395.00,0.0176
3394.00,0.0176
3393.00,0.0176
3392.00,0.0176
3391.00,0.0176
3390.00,0.0177
3389.00,0.0177
3388.00,0.0177
3387.00,0.0178
3386.00,0.0178
3385.00,0.0178
3384.00,0.0178
3383.00,0.0178
3382.00,0.0178
3381.00,0.0179
3380.00,0.0179
3379.00,0.0179
3378.00,0.0179
3377.00,0.0179
3376.00,0.0179
3375.00,0.0179
3374.00,0.0179
3373.00,0.0179
3372.00,0.0179
3371.00,0.0179
3370.00,0.0178
3369.00,0.0178
3368.00,0.0178
3367.00,0.0179
3366.00,0.0179
3365.00,0.0180
3364.00,0.0180
3363.00,0.0181
3362.00,0.0181
3361.00,0.0181
3360.00,0.0182
3359.00,0.0182
3358.00,0.0182
3357.00,0.0182
3356.00,0.0182
3355.00,0.0182
3354.00,0.0182
3353.00,0.0181
3352.00,0.0181
3351.00,0.0181
3350.00,0.0181
3349.00,0.0182
3348.00,0.0183
3347.00,0.0183
3346.00,0.0183
3345.00,0.0183
3344.00,0.0183
3343.00,0.0182
3342.00,0.0182
3341.00,0.0182
3340.00,0.0182
3339.00,0.0182
3338.00,0.0182
3337.00,0.0183
3336.00,0.0184
3335.00,0.0185
3334.00,0.0186
3333.00,0.0186
3332.00,0.0186
3331.00,0.0186
3330.00,0.0185
3329.00,0.0185
3328.00,0.0184
3327.00,0.0184
3326.00,0.0184
3325.00,0.0184
3324.00,0.0185
3323.00,0.0186
3322.00,0.0186
3321.00,0.0187
3320.00,0.0187
3319.00,0.0188
3318.00,0.0188
3317.00,0.0188
3316.00,0.0187
3315.00,0.0187
3314.00,0.0187
3313.00,0.0187
3312.00,0.0187
3311.00,0.0186
3310.00,0.0185
3309.00,0.0183
3308.00,0.0183
3307.00,0.0182
3306.00,0.0183
3305.00,0.0184
3304.00,0.0185
3303.00,0.0186
3302.00,0.0187
3301.00,0.0188
3300.00,0.0188
3299.00,0.0188
3298.00,0.0187
3297.00,0.0187
3296.00,0.0186
3295.00,0.0185
3294.00,0.0185
3293.00,0.0185
3292.00,0.0186
3291.00,0.0186
3290.00,0.0187
3289.00,0.0188
3288.00,0.0189
3287.00,0.0189
3286.00,0.0190
3285.00,0.0190
3284.00,0.0190
3283.00,0.0189
3282.00,0.0189
3281.00,0.0189
3280.00,0.0189
3279.00,0.0189
3278.00,0.0188
3277.00,0.0188
3276.00,0.0187
3275.00,0.0186
3274.00,0.0186
3273.00,0.0185
3272.00,0.0185
3271.00,0.0185
3270.00,0.0185
3269.00,0.0186
3268.00,0.0186
3267.00,0.0187
3266.00,0.0187
3265.00,0.0187
3264.00,0.0187
3263.00,0.0186
3262.00,0.0186
3261.00,0.0186
3260.00,0.0186
3259.00,0.0186
3258.00,0.0185
3257.00,0.0185
3256.00,0.0185
3255.00,0.0184
3254.00,0.0184
3253.00,0.0184
3252.00,0.0184
3251.00,0.0184
3250.00,0.0184
3249.00,0.0183
3248.00,0.0183
3247.00,0.0183
3246.00,0.0183
3245.00,0.0183
3244.00,0.0183
3243.00,0.0183
3242.00,0.0182
3241.00,0.0182
3240.00,0.0182
3239.00,0.0182
3238.00,0.0182
3237.00,0.0181
3236.00,0.0181
3235.00,0.0181
3234.00,0.0180
3233.00,0.0180
3232.00,0.0180
3231.00,0.0180
3230.00,0.0180
3229.00,0.0180
3228.00,0.0180
3227.00,0.0180
3226.00,0.0179
3225.00,0.0179
3224.00,0.0179
3223.00,0.0178
3222.00,0.0178
3221.00,0.0178
3220.00,0.0177
3219.00,0.0177
3218.00,0.0177
3217.00,0.0177
3216.00,0.0177
3215.00,0.0177
3214.00,0.0176
3213.00,0.0176
3212.00,0.0175
3211.00,0.0175
3210.00,0.0175
3209.00,0.0174
3208.00,0.0174
3207.00,0.0174
3206.00,0.0174
3205.00,0.0174
3204.00,0.0173
3203.00,0.0173
3202.00,0.0173
3201.00,0.0173
3200.00,0.0172
3199.00,0.0172
3198.00,0.0172
3197.00,0.0172
3196.00,0.0171
3195.00,0.0171
3194.00,0.0171
3193.00,0.0171
3192.00,0.0170
3191.00,0.0170
3190.00,0.0170
3189.00,0.0169
3188.00,0.0169
3187.00,0.0169
3186.00,0.0168
3185.00,0.0168
3184.00,0.0167
3183.00,0.0167
3182.00,0.0167
3181.00,0.0166
3180.00,0.0166
3179.00,0.0165
3178.00,0.0165
3177.00,0.0165
3176.00,0.0164
3175.00,0.0164
3174.00,0.0163
3173.00,0.0163
3172.00,0.0162
3171.00,0.0162
3170.00,0.0161
3169.00,0.0161
3168.00,0.0161
3167.00,0.0160
3166.00,0.0160
3165.00,0.0159
3164.00,0.0158
3163.00,0.0158
3162.00,0.0157
3161.00,0.0157
3160.00,0.0156
3159.00,0.0156
3158.00,0.0155
3157.00,0.0155
3156.00,0.0154
3155.00,0.0153
3154.00,0.0153
3153.00,0.0152
3152.00,0.0152
3151.00,0.0151
3150.00,0.0151
3149.00,0.0150
3148.00,0.0150
3147.00,0.0149
3146.00,0.0148
3145.00,0.0148
3144.00,0.0147
3143.00,0.0147
3142.00,0.0147
3141.00,0.0147
3140.00,0.0146
3139.00,0.0146
3138.00,0.0145
3137.00,0.0145
3136.00,0.0144
3135.00,0.0144
3134.00,0.0143
3133.00,0.0143
3132.00,0.0142
3131.00,0.0142
3130.00,0.0142
3129.00,0.0141
3128.00,0.0141
3127.00,0.0140
3126.00,0.0139
3125.00,0.0139
3124.00,0.0139
3123.00,0.0138
3122.00,0.0138
3121.00,0.0138
3120.00,0.0137
3119.00,0.0137
3118.00,0.0137
3117.00,0.0136
3116.00,0.0136
3115.00,0.0135
3114.00,0.0135
3113.00,0.0134
3112.00,0.0134
3111.00,0.0133
3110.00,0.0133
3109.00,0.0132
3108.00,0.0132
3107.00,0.0131
3106.00,0.0131
3105.00,0.0130
3104.00,0.0130
3103.00,0.0129
3102.00,0.0129
3101.00,0.0128
3100.00,0.0128
3099.00,0.0128
3098.00,0.0127
3097.00,0.0127
3096.00,0.0127
3095.00,0.0127
3094.00,0.0126
3093.00,0.0126
3092.00,0.0125
3091.00,0.0125
3090.00,0.0125
3089.00,0.0124
3088.00,0.0124
3087.00,0.0123
3086.00,0.0123
3085.00,0.0123
3084.00,0.0123
3083.00,0.0123
3082.00,0.0123
3081.00,0.0123
3080.00,0.0123
3079.00,0.0123
3078.00,0.0123
3077.00,0.0122
3076.00,0.0122
3075.00,0.0122
3074.00,0.0122
3073.00,0.0122
3072.00,0.0121
3071.00,0.0121
3070.00,0.0121
3069.00,0.0120
3068.00,0.0120
3067.00,0.0119
3066.00,0.0118
3065.00,0.0117
3064.00,0.0116
3063.00,0.0115
3062.00,0.0114
3061.00,0.0114
3060.00,0.0113
3059.00,0.0112
3058.00,0.0111
3057.00,0.0110
3056.00,0.0110
3055.00,0.0109
3054.00,0.0109
3053.00,0.0109
3052.00,0.0108
3051.00,0.0108
3050.00,0.0107
3049.00,0.0107
3048.00,0.0106
3047.00,0.0106
3046.00,0.0106
3045.00,0.0106
3044.00,0.0105
3043.00,0.0105
3042.00,0.0105
3041.00,0.0104
3040.00,0.0104
3039.00,0.0104
3038.00,0.0103
3037.00,0.0103
3036.00,0.0103
3035.00,0.0102
3034.00,0.0102
3033.00,0.0102
3032.00,0.0102
3031.00,0.0102
3030.00,0.0102
3029.00,0.0102
3028.00,0.0102
3027.00,0.0102
3026.00,0.0102
3025.00,0.0102
3024.00,0.0102
3023.00,0.0102
3022.00,0.0102
3021.00,0.0103
3020.00,0.0103
3019.00,0.0104
3018.00,0.0104
3017.00,0.0105
3016.00,0.0105
3015.00,0.0106
3014.00,0.0106
3013.00,0.0107
3012.00,0.0108
3011.00,0.0109
3010.00,0.0110
3009.00,0.0112
3008.00,0.0113
3007.00,0.0114
3006.00,0.0116
3005.00,0.0117
3004.00,0.0119
3003.00,0.0121
3002.00,0.0123
3001.00,0.0125
3000.00,0.0127
2999.00,0.0130
2998.00,0.0132
2997.00,0.0135
2996.00,0.0138
2995.00,0.0141
2994.00,0.0145
2993.00,0.0148
2992.00,0.0151
2991.00,0.0154
2990.00,0.0158
2989.00,0.0161
2988.00,0.0165
2987.00,0.0168
2986.00,0.0171
2985.00,0.0174
2984.00,0.0177
2983.00,0.0180
2982.00,0.0183
2981.00,0.0187
2980.00,0.0190
2979.00,0.0193
2978.00,0.0197
2977.00,0.0200
2976.00,0.0204
2975.00,0.0207
2974.00,0.0210
2973.00,0.0214
2972.00,0.0218
2971.00,0.0222
2970.00,0.0226
2969.00,0.0230
2968.00,0.0234
2967.00,0.0239
2966.00,0.0244
2965.00,0.0248
2964.00,0.0253
2963.00,0.0257
2962.00,0.0261
2961.00,0.0265
2960.00,0.0268
2959.00,0.0271
2958.00,0.0274
2957.00,0.0276
2956.00,0.0277
2955.00,0.0279
2954.00,0.0279
2953.00,0.0279
2952.00,0.0279
2951.00,0.0279
2950.00,0.0278
2949.00,0.0277
2948.00,0.0276
2947.00,0.0276
2946.00,0.0275
2945.00,0.0275
2944.00,0.0275
2943.00,0.0275
2942.00,0.0276
2941.00,0.0278
2940.00,0.0280
2939.00,0.0282
2938.00,0.0285
2937.00,0.0288
2936.00,0.0292
2935.00,0.0295
2934.00,0.0299
2933.00,0.0303
2932.00,0.0306
2931.00,0.0310
2930.00,0.0313
2929.00,0.0317
2928.00,0.0320
2927.00,0.0322
2926.00,0.0324
2925.00,0.0325
2924.00,0.0326
2923.00,0.0327
2922.00,0.0327
2921.00,0.0326
2920.00,0.0325
2919.00,0.0323
2918.00,0.0320
2917.00,0.0317
2916.00,0.0314
2915.00,0.0310
2914.00,0.0305
2913.00,0.0301
2912.00,0.0297
2911.00,0.0293
2910.00,0.0288
2909.00,0.0284
2908.00,0.0280
2907.00,0.0276
2906.00,0.0272
2905.00,0.0269
2904.00,0.0266
2903.00,0.0263
2902.00,0.0260
2901.00,0.0258
2900.00,0.0256
2899.00,0.0255
2898.00,0.0254
2897.00,0.0252
2896.00,0.0251
2895.00,0.0250
2894.00,0.0249
2893.00,0.0248
2892.00,0.0247
2891.00,0.0246
2890.00,0.0245
2889.00,0.0244
2888.00,0.0243
2887.00,0.0243
2886.00,0.0242
2885.00,0.0241
2884.00,0.0241
2883.00,0.0240
2882.00,0.0240
2881.00,0.0240
2880.00,0.0239
2879.00,0.0239
2878.00,0.0239
2877.00,0.0239
2876.00,0.0239
2875.00,0.0239
2874.00,0.0239
2873.00,0.0239
2872.00,0.0239
2871.00,0.0239
2870.00,0.0239
2869.00,0.0238
2868.00,0.0238
2867.00,0.0237
2866.00,0.0236
2865.00,0.0235
2864.00,0.0235
2863.00,0.0236
2862.00,0.0236
2861.00,0.0237
2860.00,0.0237
2859.00,0.0238
2858.00,0.0238
2857.00,0.0238
2856.00,0.0236
2855.00,0.0234
2854.00,0.0232
2853.00,0.0228
2852.00,0.0224
2851.00,0.0218
2850.00,0.0212
2849.00,0.0206
2848.00,0.0200
2847.00,0.0194
2846.00,0.0188
2845.00,0.0182
2844.00,0.0176
2843.00,0.0171
2842.00,0.0167
2841.00,0.0162
2840.00,0.0158
2839.00,0.0155
2838.00,0.0153
2837.00,0.0151
2836.00,0.0149
2835.00,0.0148
2834.00,0.0147
2833.00,0.0145
2832.00,0.0144
2831.00,0.0142
2830.00,0.0141
2829.00,0.0138
2828.00,0.0136
2827.00,0.0133
2826.00,0.0130
2825.00,0.0127
2824.00,0.0124
2823.00,0.0120
2822.00,0.0117
2821.00,0.0115
2820.00,0.0112
2819.00,0.0109
2818.00,0.0107
2817.00,0.0105
2816.00,0.0103
2815.00,0.0101
2814.00,0.0100
2813.00,0.0098
2812.00,0.0097
2811.00,0.0095
2810.00,0.0094
2809.00,0.0094
2808.00,0.0093
2807.00,0.0092
2806.00,0.0091
2805.00,0.0091
2804.00,0.0090
2803.00,0.0090
2802.00,0.0089
2801.00,0.0088
2800.00,0.0087
2799.00,0.0087
2798.00,0.0087
2797.00,0.0086
2796.00,0.0086
2795.00,0.0086
2794.00,0.0085
2793.00,0.0085
2792.00,0.0084
2791.00,0.0084
2790.00,0.0083
2789.00,0.0083
2788.00,0.0083
2787.00,0.0083
2786.00,0.0083
2785.00,0.0082
2784.00,0.0082
2783.00,0.0081
2782.00,0.0081
2781.00,0.0081
2780.00,0.0081
2779.00,0.0081
2778.00,0.0080
2777.00,0.0080
2776.00,0.0080
2775.00,0.0079
2774.00,0.0079
2773.00,0.0079
2772.00,0.0079
2771.00,0.0078
2770.00,0.0078
2769.00,0.0078
2768.00,0.0077
2767.00,0.0077
2766.00,0.0077
2765.00,0.0077
2764.00,0.0077
2763.00,0.0077
2762.00,0.0077
2761.00,0.0077
2760.00,0.0077
2759.00,0.0077
2758.00,0.0077
2757.00,0.0077
