Created as New Dataset,Sample 049 By YargerLab Date Tuesday, August 12 2025
cm-1,A
4000.00,0.0048
3999.00,0.0048
3998.00,0.0048
3997.00,0.0048
3996.00,0.0048
3995.00,0.0048
3994.00,0.0048
3993.00,0.0048
3992.00,0.0048
3991.00,0.0048
3990.00,0.0048
3989.00,0.0048
3988.00,0.0048
3987.00,0.0048
3986.00,0.0048
3985.00,0.0048
3984.00,0.0048
3983.00,0.0047
3982.00,0.0047
3981.00,0.0047
3980.00,0.0047
3979.00,0.0047
3978.00,0.0047
3977.00,0.0047
3976.00,0.0047
3975.00,0.0047
3974.00,0.0047
3973.00,0.0047
3972.00,0.0047
3971.00,0.0047
3970.00,0.0047
3969.00,0.0047
3968.00,0.0047
3967.00,0.0047
3966.00,0.0047
3965.00,0.0047
3964.00,0.0047
3963.00,0.0047
3962.00,0.0048
3961.00,0.0048
3960.00,0.0048
3959.00,0.0048
3958.00,0.0048
3957.00,0.0048
3956.00,0.0048
3955.00,0.0047
3954.00,0.0047
3953.00,0.0047
3952.00,0.0047
3951.00,0.0047
3950.00,0.0047
3949.00,0.0047
3948.00,0.0047
3947.00,0.0047
3946.00,0.0047
3945.00,0.0047
3944.00,0.0047
3943.00,0.0047
3942.00,0.0047
3941.00,0.0047
3940.00,0.0047
3939.00,0.0047
3938.00,0.0046
3937.00,0.0046
3936.00,0.0046
3935.00,0.0046
3934.00,0.0046
3933.00,0.0046
3932.00,0.0046
3931.00,0.0046
3930.00,0.0047
3929.00,0.0047
3928.00,0.0047
3927.00,0.0047
3926.00,0.0047
3925.00,0.0047
3924.00,0.0047
3923.00,0.0046
3922.00,0.0047
3921.00,0.0047
3920.00,0.0047
3919.00,0.0047
3918.00,0.0047
3917.00,0.0047
3916.00,0.0047
3915.00,0.0047
3914.00,0.0047
3913.00,0.0047
3912.00,0.0047
3911.00,0.0047
3910.00,0.0047
3909.00,0.0047
3908.00,0.0047
3907.00,0.0047
3906.00,0.0047
3905.00,0.0047
3904.00,0.0047
3903.00,0.0047
3902.00,0.0047
3901.00,0.0047
3900.00,0.0047
3899.00,0.0047
3898.00,0.0047
3897.00,0.0047
3896.00,0.0046
3895.00,0.0046
3894.00,0.0046
3893.00,0.0046
3892.00,0.0047
3891.00,0.0046
3890.00,0.0046
3889.00,0.0046
3888.00,0.0046
3887.00,0.0046
3886.00,0.0046
3885.00,0.0046
3884.00,0.0046
3883.00,0.0046
3882.00,0.0046
3881.00,0.0046
3880.00,0.0046
3879.00,0.0046
3878.00,0.0046
3877.00,0.0047
3876.00,0.0047
3875.00,0.0047
3874.00,0.0047
3873.00,0.0046
3872.00,0.0046
3871.00,0.0047
3870.00,0.0047
3869.00,0.0046
3868.00,0.0046
3867.00,0.0046
3866.00,0.0046
3865.00,0.0046
3864.00,0.0046
3863.00,0.0046
3862.00,0.0046
3861.00,0.0046
3860.00,0.0046
3859.00,0.0046
3858.00,0.0046
3857.00,0.0046
3856.00,0.0046
3855.00,0.0047
3854.00,0.0047
3853.00,0.0047
3852.00,0.0046
3851.00,0.0046
3850.00,0.0046
3849.00,0.0047
3848.00,0.0047
3847.00,0.0047
3846.00,0.0046
3845.00,0.0046
3844.00,0.0046
3843.00,0.0046
3842.00,0.0046
3841.00,0.0046
3840.00,0.0046
3839.00,0.0046
3838.00,0.0046
3837.00,0.0046
3836.00,0.0047
3835.00,0.0047
3834.00,0.0047
3833.00,0.0047
3832.00,0.0047
3831.00,0.0047
3830.00,0.0046
3829.00,0.0046
3828.00,0.0046
3827.00,0.0046
3826.00,0.0046
3825.00,0.0046
3824.00,0.0047
3823.00,0.0047
3822.00,0.0047
3821.00,0.0047
3820.00,0.0046
3819.00,0.0046
3818.00,0.0046
3817.00,0.0046
3816.00,0.0046
3815.00,0.0046
3814.00,0.0046
3813.00,0.0047
3812.00,0.0047
3811.00,0.0047
3810.00,0.0047
3809.00,0.0047
3808.00,0.0047
3807.00,0.0047
3806.00,0.0046
3805.00,0.0046
3804.00,0.0046
3803.00,0.0046
3802.00,0.0046
3801.00,0.0046
3800.00,0.0046
3799.00,0.0046
3798.00,0.0046
3797.00,0.0047
3796.00,0.0046
3795.00,0.0046
3794.00,0.0046
3793.00,0.0046
3792.00,0.0046
3791.00,0.0046
3790.00,0.0046
3789.00,0.0046
3788.00,0.0046
3787.00,0.0046
3786.00,0.0046
3785.00,0.0047
3784.00,0.0047
3783.00,0.0047
3782.00,0.0047
3781.00,0.0047
3780.00,0.0047
3779.00,0.0047
3778.00,0.0047
3777.00,0.0047
3776.00,0.0047
3775.00,0.0046
3774.00,0.0046
3773.00,0.0046
3772.00,0.0047
3771.00,0.0047
3770.00,0.0047
3769.00,0.0047
3768.00,0.0047
3767.00,0.0047
3766.00,0.0047
3765.00,0.0047
3764.00,0.0047
3763.00,0.0047
3762.00,0.0047
3761.00,0.0046
3760.00,0.0046
3759.00,0.0046
3758.00,0.0046
3757.00,0.0046
3756.00,0.0046
3755.00,0.0046
3754.00,0.0046
3753.00,0.0046
3752.00,0.0046
3751.00,0.0046
3750.00,0.0046
3749.00,0.0045
3748.00,0.0045
3747.00,0.0046
3746.00,0.0046
3745.00,0.0046
3744.00,0.0046
3743.00,0.0046
3742.00,0.0046
3741.00,0.0046
3740.00,0.0046
3739.00,0.0046
3738.00,0.0046
3737.00,0.0045
3736.00,0.0045
3735.00,0.0045
3734.00,0.0045
3733.00,0.0044
3732.00,0.0044
3731.00,0.0044
3730.00,0.0044
3729.00,0.0044
3728.00,0.0044
3727.00,0.0044
3726.00,0.0044
3725.00,0.0044
3724.00,0.0044
3723.00,0.0044
3722.00,0.0044
3721.00,0.0045
3720.00,0.0045
3719.00,0.0045
3718.00,0.0045
3717.00,0.0045
3716.00,0.0045
3715.00,0.0045
3714.00,0.0045
3713.00,0.0045
3712.00,0.0045
3711.00,0.0045
3710.00,0.0045
3709.00,0.0045
3708.00,0.0045
3707.00,0.0045
3706.00,0.0045
3705.00,0.0045
3704.00,0.0045
3703.00,0.0045
3702.00,0.0045
3701.00,0.0045
3700.00,0.0045
3699.00,0.0045
3698.00,0.0045
3697.00,0.0045
3696.00,0.0045
3695.00,0.0045
3694.00,0.0046
3693.00,0.0046
3692.00,0.0046
3691.00,0.0046
3690.00,0.0045
3689.00,0.0045
3688.00,0.0045
3687.00,0.0045
3686.00,0.0046
3685.00,0.0046
3684.00,0.0046
3683.00,0.0046
3682.00,0.0046
3681.00,0.0046
3680.00,0.0046
3679.00,0.0046
3678.00,0.0046
3677.00,0.0047
3676.00,0.0047
3675.00,0.0047
3674.00,0.0047
3673.00,0.0047
3672.00,0.0048
3671.00,0.0048
3670.00,0.0048
3669.00,0.0048
3668.00,0.0048
3667.00,0.0048
3666.00,0.0048
3665.00,0.0048
3664.00,0.0048
3663.00,0.0049
3662.00,0.0049
3661.00,0.0049
3660.00,0.0049
3659.00,0.0049
3658.00,0.0049
3657.00,0.0049
3656.00,0.0050
3655.00,0.0050
3654.00,0.0049
3653.00,0.0050
3652.00,0.0050
3651.00,0.0050
3650.00,0.0051
3649.00,0.0051
3648.00,0.0052
3647.00,0.0052
3646.00,0.0052
3645.00,0.0052
3644.00,0.0052
3643.00,0.0052
3642.00,0.0052
3641.00,0.0052
3640.00,0.0053
3639.00,0.0053
3638.00,0.0053
3637.00,0.0053
3636.00,0.0053
3635.00,0.0054
3634.00,0.0054
3633.00,0.0054
3632.00,0.0054
3631.00,0.0055
3630.00,0.0055
3629.00,0.0056
3628.00,0.0056
3627.00,0.0057
3626.00,0.0057
3625.00,0.0058
3624.00,0.0058
3623.00,0.0059
3622.00,0.0059
3621.00,0.0059
3620.00,0.0060
3619.00,0.0060
3618.00,0.0060
3617.00,0.0060
3616.00,0.0060
3615.00,0.0061
3614.00,0.0061
3613.00,0.0061
3612.00,0.0062
3611.00,0.0062
3610.00,0.0063
3609.00,0.0064
3608.00,0.0064
3607.00,0.0065
3606.00,0.0065
3605.00,0.0066
3604.00,0.0066
3603.00,0.0067
3602.00,0.0067
3601.00,0.0068
3600.00,0.0068
3599.00,0.0069
3598.00,0.0069
3597.00,0.0069
3596.00,0.0070
3595.00,0.0070
3594.00,0.0071
3593.00,0.0071
3592.00,0.0072
3591.00,0.0072
3590.00,0.0072
3589.00,0.0073
3588.00,0.0074
3587.00,0.0075
3586.00,0.0075
3585.00,0.0076
3584.00,0.0077
3583.00,0.0077
3582.00,0.0078
3581.00,0.0079
3580.00,0.0079
3579.00,0.0080
3578.00,0.0081
3577.00,0.0081
3576.00,0.0082
3575.00,0.0082
3574.00,0.0083
3573.00,0.0083
3572.00,0.0084
3571.00,0.0084
3570.00,0.0085
3569.00,0.0085
3568.00,0.0086
3567.00,0.0087
3566.00,0.0087
3565.00,0.0088
3564.00,0.0089
3563.00,0.0090
3562.00,0.0091
3561.00,0.0091
3560.00,0.0092
3559.00,0.0093
3558.00,0.0094
3557.00,0.0095
3556.00,0.0095
3555.00,0.0096
3554.00,0.0097
3553.00,0.0097
3552.00,0.0098
3551.00,0.0098
3550.00,0.0099
3549.00,0.0099
3548.00,0.0100
3547.00,0.0101
3546.00,0.0102
3545.00,0.0103
3544.00,0.0104
3543.00,0.0104
3542.00,0.0105
3541.00,0.0105
3540.00,0.0106
3539.00,0.0107
3538.00,0.0107
3537.00,0.0108
3536.00,0.0109
3535.00,0.0109
3534.00,0.0110
3533.00,0.0111
3532.00,0.0111
3531.00,0.0112
3530.00,0.0112
3529.00,0.0113
3528.00,0.0113
3527.00,0.0114
3526.00,0.0115
3525.00,0.0115
3524.00,0.0116
3523.00,0.0116
3522.00,0.0117
3521.00,0.0117
3520.00,0.0118
3519.00,0.0119
3518.00,0.0120
3517.00,0.0120
3516.00,0.0121
3515.00,0.0121
3514.00,0.0122
3513.00,0.0123
3512.00,0.0123
3511.00,0.0124
3510.00,0.0125
3509.00,0.0126
3508.00,0.0126
3507.00,0.0126
3506.00,0.0126
3505.00,0.0127
3504.00,0.0128
3503.00,0.0128
3502.00,0.0129
3501.00,0.0130
3500.00,0.0130
3499.00,0.0131
3498.00,0.0132
3497.00,0.0132
3496.00,0.0133
3495.00,0.0133
3494.00,0.0134
3493.00,0.0135
3492.00,0.0135
3491.00,0.0136
3490.00,0.0137
3489.00,0.0137
3488.00,0.0138
3487.00,0.0139
3486.00,0.0140
3485.00,0.0140
3484.00,0.0141
3483.00,0.0142
3482.00,0.0143
3481.00,0.0144
3480.00,0.0144
3479.00,0.0145
3478.00,0.0146
3477.00,0.0147
3476.00,0.0147
3475.00,0.0148
3474.00,0.0149
3473.00,0.0150
3472.00,0.0151
3471.00,0.0152
3470.00,0.0153
3469.00,0.0154
3468.00,0.0155
3467.00,0.0156
3466.00,0.0157
3465.00,0.0158
3464.00,0.0159
3463.00,0.0160
3462.00,0.0161
3461.00,0.0162
3460.00,0.0163
3459.00,0.0165
3458.00,0.0165
3457.00,0.0166
3456.00,0.0167
3455.00,0.0168
3454.00,0.0169
3453.00,0.0170
3452.00,0.0171
3451.00,0.0172
3450.00,0.0173
3449.00,0.0174
3448.00,0.0176
3447.00,0.0177
3446.00,0.0178
3445.00,0.0179
3444.00,0.0180
3443.00,0.0181
3442.00,0.0182
3441.00,0.0184
3440.00,0.0185
3439.00,0.0187
3438.00,0.0188
3437.00,0.0190
3436.00,0.0191
3435.00,0.0192
3434.00,0.0194
3433.00,0.0195
3432.00,0.0197
3431.00,0.0198
3430.00,0.0199
3429.00,0.0201
3428.00,0.0202
3427.00,0.0204
3426.00,0.0205
3425.00,0.0207
3424.00,0.0209
3423.00,0.0210
3422.00,0.0212
3421.00,0.0214
3420.00,0.0215
3419.00,0.0217
3418.00,0.0219
3417.00,0.0221
3416.00,0.0222
3415.00,0.0224
3414.00,0.0225
3413.00,0.0227
3412.00,0.0229
3411.00,0.0230
3410.00,0.0231
3409.00,0.0232
3408.00,0.0233
3407.00,0.0234
3406.00,0.0235
3405.00,0.0236
3404.00,0.0236
3403.00,0.0237
3402.00,0.0238
3401.00,0.0238
3400.00,0.0239
3399.00,0.0239
3398.00,0.0238
3397.00,0.0238
3396.00,0.0238
3395.00,0.0238
3394.00,0.0238
3393.00,0.0238
3392.00,0.0237
3391.00,0.0236
3390.00,0.0236
3389.00,0.0235
3388.00,0.0234
3387.00,0.0233
3386.00,0.0231
3385.00,0.0230
3384.00,0.0229
3383.00,0.0228
3382.00,0.0226
3381.00,0.0225
3380.00,0.0224
3379.00,0.0223
3378.00,0.0222
3377.00,0.0221
3376.00,0.0220
3375.00,0.0218
3374.00,0.0217
3373.00,0.0216
3372.00,0.0214
3371.00,0.0213
3370.00,0.0212
3369.00,0.0211
3368.00,0.0210
3367.00,0.0209
3366.00,0.0208
3365.00,0.0207
3364.00,0.0206
3363.00,0.0205
3362.00,0.0204
3361.00,0.0203
3360.00,0.0202
3359.00,0.0202
3358.00,0.0201
3357.00,0.0200
3356.00,0.0200
3355.00,0.0199
3354.00,0.0198
3353.00,0.0197
3352.00,0.0197
3351.00,0.0196
3350.00,0.0195
3349.00,0.0195
3348.00,0.0194
3347.00,0.0193
3346.00,0.0193
3345.00,0.0192
3344.00,0.0192
3343.00,0.0191
3342.00,0.0190
3341.00,0.0190
3340.00,0.0189
3339.00,0.0189
3338.00,0.0189
3337.00,0.0189
3336.00,0.0189
3335.00,0.0189
3334.00,0.0189
3333.00,0.0189
3332.00,0.0189
3331.00,0.0189
3330.00,0.0189
3329.00,0.0189
3328.00,0.0188
3327.00,0.0188
3326.00,0.0188
3325.00,0.0188
3324.00,0.0188
3323.00,0.0188
3322.00,0.0189
3321.00,0.0189
3320.00,0.0189
3319.00,0.0190
3318.00,0.0190
3317.00,0.0190
3316.00,0.0190
3315.00,0.0190
3314.00,0.0191
3313.00,0.0191
3312.00,0.0191
3311.00,0.0190
3310.00,0.0190
3309.00,0.0190
3308.00,0.0190
3307.00,0.0190
3306.00,0.0191
3305.00,0.0192
3304.00,0.0192
3303.00,0.0193
3302.00,0.0194
3301.00,0.0195
3300.00,0.0195
3299.00,0.0195
3298.00,0.0195
3297.00,0.0196
3296.00,0.0196
3295.00,0.0197
3294.00,0.0197
3293.00,0.0198
3292.00,0.0199
3291.00,0.0200
3290.00,0.0201
3289.00,0.0201
3288.00,0.0202
3287.00,0.0202
3286.00,0.0203
3285.00,0.0203
3284.00,0.0204
3283.00,0.0205
3282.00,0.0205
3281.00,0.0206
3280.00,0.0206
3279.00,0.0207
3278.00,0.0207
3277.00,0.0207
3276.00,0.0207
3275.00,0.0207
3274.00,0.0208
3273.00,0.0208
3272.00,0.0208
3271.00,0.0209
3270.00,0.0210
3269.00,0.0211
3268.00,0.0212
3267.00,0.0213
3266.00,0.0213
3265.00,0.0214
3264.00,0.0214
3263.00,0.0215
3262.00,0.0215
3261.00,0.0216
3260.00,0.0216
3259.00,0.0216
3258.00,0.0216
3257.00,0.0216
3256.00,0.0217
3255.00,0.0217
3254.00,0.0218
3253.00,0.0218
3252.00,0.0219
3251.00,0.0219
3250.00,0.0219
3249.00,0.0219
3248.00,0.0219
3247.00,0.0219
3246.00,0.0219
3245.00,0.0220
3244.00,0.0221
3243.00,0.0221
3242.00,0.0221
3241.00,0.0221
3240.00,0.0221
3239.00,0.0221
3238.00,0.0221
3237.00,0.0221
3236.00,0.0220
3235.00,0.0220
3234.00,0.0220
3233.00,0.0220
3232.00,0.0220
3231.00,0.0220
3230.00,0.0220
3229.00,0.0220
3228.00,0.0219
3227.00,0.0219
3226.00,0.0218
3225.00,0.0218
3224.00,0.0218
3223.00,0.0217
3222.00,0.0216
3221.00,0.0216
3220.00,0.0215
3219.00,0.0215
3218.00,0.0214
3217.00,0.0214
3216.00,0.0213
3215.00,0.0212
3214.00,0.0211
3213.00,0.0210
3212.00,0.0210
3211.00,0.0209
3210.00,0.0208
3209.00,0.0207
3208.00,0.0206
3207.00,0.0205
3206.00,0.0204
3205.00,0.0202
3204.00,0.0201
3203.00,0.0200
3202.00,0.0199
3201.00,0.0198
3200.00,0.0197
3199.00,0.0196
3198.00,0.0194
3197.00,0.0193
3196.00,0.0192
3195.00,0.0191
3194.00,0.0190
3193.00,0.0189
3192.00,0.0188
3191.00,0.0186
3190.00,0.0185
3189.00,0.0184
3188.00,0.0182
3187.00,0.0181
3186.00,0.0180
3185.00,0.0178
3184.00,0.0177
3183.00,0.0176
3182.00,0.0175
3181.00,0.0174
3180.00,0.0173
3179.00,0.0171
3178.00,0.0170
3177.00,0.0169
3176.00,0.0168
3175.00,0.0167
3174.00,0.0165
3173.00,0.0164
3172.00,0.0162
3171.00,0.0161
3170.00,0.0160
3169.00,0.0159
3168.00,0.0158
3167.00,0.0157
3166.00,0.0156
3165.00,0.0155
3164.00,0.0154
3163.00,0.0153
3162.00,0.0151
3161.00,0.0150
3160.00,0.0149
3159.00,0.0148
3158.00,0.0146
3157.00,0.0145
3156.00,0.0144
3155.00,0.0142
3154.00,0.0141
3153.00,0.0140
3152.00,0.0139
3151.00,0.0138
3150.00,0.0137
3149.00,0.0136
3148.00,0.0135
3147.00,0.0134
3146.00,0.0133
3145.00,0.0132
3144.00,0.0131
3143.00,0.0130
3142.00,0.0129
3141.00,0.0128
3140.00,0.0127
3139.00,0.0126
3138.00,0.0125
3137.00,0.0124
3136.00,0.0124
3135.00,0.0123
3134.00,0.0122
3133.00,0.0122
3132.00,0.0121
3131.00,0.0120
3130.00,0.0120
3129.00,0.0119
3128.00,0.0119
3127.00,0.0118
3126.00,0.0117
3125.00,0.0117
3124.00,0.0116
3123.00,0.0115
3122.00,0.0114
3121.00,0.0114
3120.00,0.0114
3119.00,0.0113
3118.00,0.0113
3117.00,0.0112
3116.00,0.0111
3115.00,0.0110
3114.00,0.0110
3113.00,0.0109
3112.00,0.0108
3111.00,0.0107
3110.00,0.0107
3109.00,0.0106
3108.00,0.0105
3107.00,0.0104
3106.00,0.0104
3105.00,0.0103
3104.00,0.0102
3103.00,0.0102
3102.00,0.0101
3101.00,0.0101
3100.00,0.0100
3099.00,0.0100
3098.00,0.0100
3097.00,0.0099
3096.00,0.0099
3095.00,0.0099
3094.00,0.0099
3093.00,0.0099
3092.00,0.0099
3091.00,0.0099
3090.00,0.0099
3089.00,0.0099
3088.00,0.0099
3087.00,0.0099
3086.00,0.0099
3085.00,0.0099
3084.00,0.0098
3083.00,0.0098
3082.00,0.0098
3081.00,0.0098
3080.00,0.0098
3079.00,0.0098
3078.00,0.0097
3077.00,0.0097
3076.00,0.0096
3075.00,0.0096
3074.00,0.0096
3073.00,0.0095
3072.00,0.0095
3071.00,0.0095
3070.00,0.0095
3069.00,0.0095
3068.00,0.0094
3067.00,0.0094
3066.00,0.0094
3065.00,0.0094
3064.00,0.0094
3063.00,0.0094
3062.00,0.0094
3061.00,0.0094
3060.00,0.0093
3059.00,0.0093
3058.00,0.0094
3057.00,0.0094
3056.00,0.0094
3055.00,0.0094
3054.00,0.0094
3053.00,0.0094
3052.00,0.0093
3051.00,0.0093
3050.00,0.0093
3049.00,0.0092
3048.00,0.0092
3047.00,0.0092
3046.00,0.0092
3045.00,0.0092
3044.00,0.0092
3043.00,0.0092
3042.00,0.0092
3041.00,0.0093
3040.00,0.0093
3039.00,0.0094
3038.00,0.0094
3037.00,0.0095
3036.00,0.0095
3035.00,0.0095
3034.00,0.0096
3033.00,0.0096
3032.00,0.0096
3031.00,0.0096
3030.00,0.0095
3029.00,0.0095
3028.00,0.0094
3027.00,0.0093
3026.00,0.0092
3025.00,0.0092
3024.00,0.0091
3023.00,0.0090
3022.00,0.0090
3021.00,0.0089
3020.00,0.0089
3019.00,0.0088
3018.00,0.0088
3017.00,0.0088
3016.00,0.0089
3015.00,0.0089
3014.00,0.0089
3013.00,0.0089
3012.00,0.0090
3011.00,0.0091
3010.00,0.0091
3009.00,0.0092
3008.00,0.0094
3007.00,0.0095
3006.00,0.0097
3005.00,0.0099
3004.00,0.0101
3003.00,0.0103
3002.00,0.0106
3001.00,0.0109
3000.00,0.0112
2999.00,0.0115
2998.00,0.0119
2997.00,0.0123
2996.00,0.0128
2995.00,0.0132
2994.00,0.0135
2993.00,0.0138
2992.00,0.0141
2991.00,0.0144
2990.00,0.0146
2989.00,0.0149
2988.00,0.0152
2987.00,0.0155
2986.00,0.0158
2985.00,0.0162
2984.00,0.0167
2983.00,0.0173
2982.00,0.0180
2981.00,0.0186
2980.00,0.0192
2979.00,0.0197
2978.00,0.0200
2977.00,0.0203
2976.00,0.0205
2975.00,0.0209
2974.00,0.0216
2973.00,0.0224
2972.00,0.0233
2971.00,0.0241
2970.00,0.0248
2969.00,0.0253
2968.00,0.0256
2967.00,0.0260
2966.00,0.0263
2965.00,0.0268
2964.00,0.0274
2963.00,0.0280
2962.00,0.0285
2961.00,0.0289
2960.00,0.0290
2959.00,0.0289
2958.00,0.0286
2957.00,0.0280
2956.00,0.0273
2955.00,0.0266
2954.00,0.0260
2953.00,0.0253
2952.00,0.0248
2951.00,0.0244
2950.00,0.0241
2949.00,0.0239
2948.00,0.0239
2947.00,0.0240
2946.00,0.0242
2945.00,0.0245
2944.00,0.0249
2943.00,0.0254
2942.00,0.0259
2941.00,0.0266
2940.00,0.0273
2939.00,0.0281
2938.00,0.0291
2937.00,0.0303
2936.00,0.0317
2935.00,0.0332
2934.00,0.0347
2933.00,0.0363
2932.00,0.0379
2931.00,0.0394
2930.00,0.0408
2929.00,0.0418
2928.00,0.0426
2927.00,0.0430
2926.00,0.0430
2925.00,0.0426
2924.00,0.0419
2923.00,0.0411
2922.00,0.0401
2921.00,0.0391
2920.00,0.0380
2919.00,0.0368
2918.00,0.0356
2917.00,0.0345
2916.00,0.0334
2915.00,0.0323
2914.00,0.0313
2913.00,0.0304
2912.00,0.0295
2911.00,0.0287
2910.00,0.0280
2909.00,0.0273
2908.00,0.0266
2907.00,0.0260
2906.00,0.0254
2905.00,0.0249
2904.00,0.0244
2903.00,0.0240
2902.00,0.0236
2901.00,0.0232
2900.00,0.0228
2899.00,0.0224
2898.00,0.0221
2897.00,0.0218
2896.00,0.0215
2895.00,0.0213
2894.00,0.0210
2893.00,0.0208
2892.00,0.0206
2891.00,0.0204
2890.00,0.0202
2889.00,0.0200
2888.00,0.0198
2887.00,0.0196
2886.00,0.0195
2885.00,0.0193
2884.00,0.0192
2883.00,0.0192
2882.00,0.0192
2881.00,0.0194
2880.00,0.0196
2879.00,0.0199
2878.00,0.0204
2877.00,0.0208
2876.00,0.0213
2875.00,0.0218
2874.00,0.0221
2873.00,0.0224
2872.00,0.0225
2871.00,0.0225
2870.00,0.0224
2869.00,0.0222
2868.00,0.0221
2867.00,0.0221
2866.00,0.0223
2865.00,0.0227
2864.00,0.0233
2863.00,0.0241
2862.00,0.0251
2861.00,0.0262
2860.00,0.0274
2859.00,0.0285
2858.00,0.0294
2857.00,0.0300
2856.00,0.0303
2855.00,0.0303
2854.00,0.0300
2853.00,0.0296
2852.00,0.0290
2851.00,0.0281
2850.00,0.0269
2849.00,0.0256
2848.00,0.0242
2847.00,0.0227
2846.00,0.0214
2845.00,0.0201
2844.00,0.0190
2843.00,0.0180
2842.00,0.0171
2841.00,0.0164
2840.00,0.0157
2839.00,0.0151
2838.00,0.0146
2837.00,0.0142
2836.00,0.0138
2835.00,0.0134
2834.00,0.0131
2833.00,0.0128
2832.00,0.0125
2831.00,0.0123
2830.00,0.0120
2829.00,0.0118
2828.00,0.0115
2827.00,0.0113
2826.00,0.0111
2825.00,0.0110
2824.00,0.0108
2823.00,0.0106
2822.00,0.0105
2821.00,0.0104
2820.00,0.0103
2819.00,0.0101
2818.00,0.0100
2817.00,0.0099
2816.00,0.0098
2815.00,0.0097
2814.00,0.0096
2813.00,0.0095
2812.00,0.0094
2811.00,0.0093
2810.00,0.0092
2809.00,0.0092
2808.00,0.0091
2807.00,0.0091
2806.00,0.0090
2805.00,0.0090
2804.00,0.0089
2803.00,0.0089
2802.00,0.0088
2801.00,0.0088
2800.00,0.0087
2799.00,0.0087
2798.00,0.0086
2797.00,0.0086
2796.00,0.0085
2795.00,0.0085
2794.00,0.0084
2793.00,0.0084
2792.00,0.0083
2791.00,0.0083
2790.00,0.0082
2789.00,0.0082
2788.00,0.0081
2787.00,0.0081
2786.00,0.0081
2785.00,0.0081
2784.00,0.0080
2783.00,0.0080
2782.00,0.0079
2781.00,0.0079
2780.00,0.0079
2779.00,0.0078
2778.00,0.0078
2777.00,0.0077
2776.00,0.0077
2775.00,0.0077
2774.00,0.0077
2773.00,0.0077
2772.00,0.0076
2771.00,0.0076
2770.00,0.0076
2769.00,0.0076
2768.00,0.0076
2767.00,0.0075
2766.00,0.0075
2765.00,0.0075
2764.00,0.0075
2763.00,0.0076
2762.00,0.0076
2761.00,0.0076
2760.00,0.0076
2759.00,0.0076
2758.00,0.0075
2757.00,0.0075
