Created as New Dataset,Sample 1091 By YargerLab Date Wednesday, August 06 2025
cm-1,A
4000.00,0.0004
3999.00,0.0004
3998.00,0.0004
3997.00,0.0004
3996.00,0.0004
3995.00,0.0004
3994.00,0.0004
3993.00,0.0004
3992.00,0.0004
3991.00,0.0004
3990.00,0.0004
3989.00,0.0004
3988.00,0.0004
3987.00,0.0004
3986.00,0.0004
3985.00,0.0004
3984.00,0.0004
3983.00,0.0004
3982.00,0.0004
3981.00,0.0004
3980.00,0.0004
3979.00,0.0004
3978.00,0.0004
3977.00,0.0004
3976.00,0.0004
3975.00,0.0004
3974.00,0.0004
3973.00,0.0004
3972.00,0.0004
3971.00,0.0004
3970.00,0.0004
3969.00,0.0004
3968.00,0.0004
3967.00,0.0004
3966.00,0.0004
3965.00,0.0004
3964.00,0.0004
3963.00,0.0004
3962.00,0.0004
3961.00,0.0004
3960.00,0.0004
3959.00,0.0004
3958.00,0.0004
3957.00,0.0004
3956.00,0.0004
3955.00,0.0004
3954.00,0.0004
3953.00,0.0004
3952.00,0.0004
3951.00,0.0004
3950.00,0.0004
3949.00,0.0004
3948.00,0.0004
3947.00,0.0004
3946.00,0.0004
3945.00,0.0004
3944.00,0.0004
3943.00,0.0004
3942.00,0.0004
3941.00,0.0004
3940.00,0.0004
3939.00,0.0004
3938.00,0.0004
3937.00,0.0004
3936.00,0.0004
3935.00,0.0004
3934.00,0.0004
3933.00,0.0004
3932.00,0.0004
3931.00,0.0003
3930.00,0.0003
3929.00,0.0003
3928.00,0.0003
3927.00,0.0003
3926.00,0.0003
3925.00,0.0003
3924.00,0.0004
3923.00,0.0003
3922.00,0.0003
3921.00,0.0003
3920.00,0.0003
3919.00,0.0003
3918.00,0.0003
3917.00,0.0003
3916.00,0.0003
3915.00,0.0003
3914.00,0.0003
3913.00,0.0004
3912.00,0.0004
3911.00,0.0004
3910.00,0.0004
3909.00,0.0004
3908.00,0.0004
3907.00,0.0004
3906.00,0.0003
3905.00,0.0003
3904.00,0.0002
3903.00,0.0002
3902.00,0.0002
3901.00,0.0002
3900.00,0.0002
3899.00,0.0002
3898.00,0.0003
3897.00,0.0003
3896.00,0.0003
3895.00,0.0004
3894.00,0.0004
3893.00,0.0004
3892.00,0.0004
3891.00,0.0004
3890.00,0.0004
3889.00,0.0004
3888.00,0.0003
3887.00,0.0003
3886.00,0.0003
3885.00,0.0003
3884.00,0.0002
3883.00,0.0002
3882.00,0.0001
3881.00,0.0001
3880.00,0.0002
3879.00,0.0002
3878.00,0.0003
3877.00,0.0003
3876.00,0.0003
3875.00,0.0003
3874.00,0.0004
3873.00,0.0003
3872.00,0.0003
3871.00,0.0002
3870.00,0.0002
3869.00,0.0002
3868.00,0.0002
3867.00,0.0002
3866.00,0.0001
3865.00,0.0002
3864.00,0.0002
3863.00,0.0003
3862.00,0.0003
3861.00,0.0003
3860.00,0.0003
3859.00,0.0003
3858.00,0.0003
3857.00,0.0003
3856.00,0.0002
3855.00,0.0002
3854.00,0.0002
3853.00,0.0002
3852.00,0.0002
3851.00,0.0002
3850.00,0.0002
3849.00,0.0002
3848.00,0.0003
3847.00,0.0003
3846.00,0.0004
3845.00,0.0004
3844.00,0.0004
3843.00,0.0003
3842.00,0.0003
3841.00,0.0003
3840.00,0.0002
3839.00,0.0002
3838.00,0.0002
3837.00,0.0002
3836.00,0.0002
3835.00,0.0002
3834.00,0.0002
3833.00,0.0003
3832.00,0.0003
3831.00,0.0004
3830.00,0.0004
3829.00,0.0004
3828.00,0.0003
3827.00,0.0003
3826.00,0.0004
3825.00,0.0004
3824.00,0.0003
3823.00,0.0003
3822.00,0.0003
3821.00,0.0003
3820.00,0.0003
3819.00,0.0003
3818.00,0.0002
3817.00,0.0002
3816.00,0.0002
3815.00,0.0003
3814.00,0.0003
3813.00,0.0003
3812.00,0.0003
3811.00,0.0003
3810.00,0.0004
3809.00,0.0003
3808.00,0.0003
3807.00,0.0003
3806.00,0.0004
3805.00,0.0003
3804.00,0.0003
3803.00,0.0003
3802.00,0.0003
3801.00,0.0004
3800.00,0.0004
3799.00,0.0003
3798.00,0.0002
3797.00,0.0002
3796.00,0.0003
3795.00,0.0003
3794.00,0.0004
3793.00,0.0004
3792.00,0.0004
3791.00,0.0005
3790.00,0.0005
3789.00,0.0005
3788.00,0.0005
3787.00,0.0005
3786.00,0.0004
3785.00,0.0004
3784.00,0.0004
3783.00,0.0004
3782.00,0.0004
3781.00,0.0004
3780.00,0.0004
3779.00,0.0004
3778.00,0.0004
3777.00,0.0004
3776.00,0.0004
3775.00,0.0004
3774.00,0.0005
3773.00,0.0005
3772.00,0.0005
3771.00,0.0004
3770.00,0.0004
3769.00,0.0004
3768.00,0.0004
3767.00,0.0003
3766.00,0.0003
3765.00,0.0004
3764.00,0.0004
3763.00,0.0004
3762.00,0.0004
3761.00,0.0004
3760.00,0.0004
3759.00,0.0004
3758.00,0.0004
3757.00,0.0004
3756.00,0.0003
3755.00,0.0003
3754.00,0.0003
3753.00,0.0003
3752.00,0.0003
3751.00,0.0003
3750.00,0.0003
3749.00,0.0002
3748.00,0.0002
3747.00,0.0001
3746.00,0.0000
3745.00,0.0001
3744.00,0.0002
3743.00,0.0003
3742.00,0.0003
3741.00,0.0003
3740.00,0.0003
3739.00,0.0003
3738.00,0.0003
3737.00,0.0003
3736.00,0.0002
3735.00,0.0002
3734.00,0.0002
3733.00,0.0001
3732.00,0.0002
3731.00,0.0003
3730.00,0.0003
3729.00,0.0003
3728.00,0.0004
3727.00,0.0004
3726.00,0.0004
3725.00,0.0004
3724.00,0.0004
3723.00,0.0003
3722.00,0.0003
3721.00,0.0003
3720.00,0.0003
3719.00,0.0003
3718.00,0.0004
3717.00,0.0004
3716.00,0.0004
3715.00,0.0004
3714.00,0.0004
3713.00,0.0004
3712.00,0.0004
3711.00,0.0003
3710.00,0.0003
3709.00,0.0002
3708.00,0.0002
3707.00,0.0003
3706.00,0.0003
3705.00,0.0004
3704.00,0.0004
3703.00,0.0004
3702.00,0.0004
3701.00,0.0004
3700.00,0.0004
3699.00,0.0003
3698.00,0.0003
3697.00,0.0003
3696.00,0.0004
3695.00,0.0004
3694.00,0.0004
3693.00,0.0004
3692.00,0.0003
3691.00,0.0003
3690.00,0.0003
3689.00,0.0003
3688.00,0.0003
3687.00,0.0003
3686.00,0.0003
3685.00,0.0003
3684.00,0.0003
3683.00,0.0003
3682.00,0.0004
3681.00,0.0004
3680.00,0.0004
3679.00,0.0004
3678.00,0.0003
3677.00,0.0003
3676.00,0.0003
3675.00,0.0003
3674.00,0.0003
3673.00,0.0003
3672.00,0.0002
3671.00,0.0002
3670.00,0.0003
3669.00,0.0003
3668.00,0.0003
3667.00,0.0004
3666.00,0.0004
3665.00,0.0005
3664.00,0.0005
3663.00,0.0005
3662.00,0.0005
3661.00,0.0006
3660.00,0.0006
3659.00,0.0005
3658.00,0.0005
3657.00,0.0005
3656.00,0.0005
3655.00,0.0005
3654.00,0.0004
3653.00,0.0004
3652.00,0.0003
3651.00,0.0003
3650.00,0.0003
3649.00,0.0003
3648.00,0.0003
3647.00,0.0003
3646.00,0.0003
3645.00,0.0004
3644.00,0.0005
3643.00,0.0005
3642.00,0.0006
3641.00,0.0007
3640.00,0.0007
3639.00,0.0007
3638.00,0.0007
3637.00,0.0007
3636.00,0.0007
3635.00,0.0007
3634.00,0.0007
3633.00,0.0007
3632.00,0.0007
3631.00,0.0006
3630.00,0.0006
3629.00,0.0006
3628.00,0.0006
3627.00,0.0006
3626.00,0.0006
3625.00,0.0007
3624.00,0.0007
3623.00,0.0007
3622.00,0.0008
3621.00,0.0008
3620.00,0.0008
3619.00,0.0008
3618.00,0.0008
3617.00,0.0008
3616.00,0.0008
3615.00,0.0008
3614.00,0.0008
3613.00,0.0009
3612.00,0.0009
3611.00,0.0009
3610.00,0.0009
3609.00,0.0009
3608.00,0.0010
3607.00,0.0010
3606.00,0.0010
3605.00,0.0011
3604.00,0.0011
3603.00,0.0011
3602.00,0.0012
3601.00,0.0012
3600.00,0.0012
3599.00,0.0012
3598.00,0.0012
3597.00,0.0012
3596.00,0.0012
3595.00,0.0012
3594.00,0.0012
3593.00,0.0012
3592.00,0.0013
3591.00,0.0013
3590.00,0.0013
3589.00,0.0013
3588.00,0.0013
3587.00,0.0014
3586.00,0.0014
3585.00,0.0014
3584.00,0.0014
3583.00,0.0014
3582.00,0.0015
3581.00,0.0015
3580.00,0.0016
3579.00,0.0016
3578.00,0.0016
3577.00,0.0017
3576.00,0.0017
3575.00,0.0017
3574.00,0.0017
3573.00,0.0017
3572.00,0.0018
3571.00,0.0018
3570.00,0.0018
3569.00,0.0018
3568.00,0.0018
3567.00,0.0018
3566.00,0.0018
3565.00,0.0018
3564.00,0.0018
3563.00,0.0019
3562.00,0.0019
3561.00,0.0020
3560.00,0.0021
3559.00,0.0021
3558.00,0.0021
3557.00,0.0021
3556.00,0.0022
3555.00,0.0022
3554.00,0.0022
3553.00,0.0023
3552.00,0.0023
3551.00,0.0023
3550.00,0.0024
3549.00,0.0024
3548.00,0.0024
3547.00,0.0024
3546.00,0.0024
3545.00,0.0024
3544.00,0.0024
3543.00,0.0025
3542.00,0.0025
3541.00,0.0025
3540.00,0.0026
3539.00,0.0026
3538.00,0.0027
3537.00,0.0027
3536.00,0.0027
3535.00,0.0028
3534.00,0.0028
3533.00,0.0028
3532.00,0.0029
3531.00,0.0029
3530.00,0.0029
3529.00,0.0029
3528.00,0.0029
3527.00,0.0029
3526.00,0.0029
3525.00,0.0029
3524.00,0.0029
3523.00,0.0029
3522.00,0.0030
3521.00,0.0030
3520.00,0.0030
3519.00,0.0030
3518.00,0.0031
3517.00,0.0031
3516.00,0.0031
3515.00,0.0032
3514.00,0.0032
3513.00,0.0033
3512.00,0.0033
3511.00,0.0033
3510.00,0.0033
3509.00,0.0033
3508.00,0.0033
3507.00,0.0033
3506.00,0.0033
3505.00,0.0033
3504.00,0.0034
3503.00,0.0034
3502.00,0.0034
3501.00,0.0034
3500.00,0.0034
3499.00,0.0034
3498.00,0.0035
3497.00,0.0035
3496.00,0.0035
3495.00,0.0035
3494.00,0.0035
3493.00,0.0036
3492.00,0.0036
3491.00,0.0036
3490.00,0.0036
3489.00,0.0036
3488.00,0.0036
3487.00,0.0036
3486.00,0.0036
3485.00,0.0037
3484.00,0.0037
3483.00,0.0037
3482.00,0.0037
3481.00,0.0037
3480.00,0.0037
3479.00,0.0037
3478.00,0.0038
3477.00,0.0038
3476.00,0.0038
3475.00,0.0038
3474.00,0.0038
3473.00,0.0039
3472.00,0.0039
3471.00,0.0040
3470.00,0.0040
3469.00,0.0040
3468.00,0.0040
3467.00,0.0040
3466.00,0.0040
3465.00,0.0040
3464.00,0.0040
3463.00,0.0040
3462.00,0.0041
3461.00,0.0041
3460.00,0.0042
3459.00,0.0042
3458.00,0.0042
3457.00,0.0042
3456.00,0.0042
3455.00,0.0042
3454.00,0.0043
3453.00,0.0043
3452.00,0.0043
3451.00,0.0043
3450.00,0.0043
3449.00,0.0044
3448.00,0.0044
3447.00,0.0044
3446.00,0.0044
3445.00,0.0044
3444.00,0.0044
3443.00,0.0044
3442.00,0.0045
3441.00,0.0045
3440.00,0.0045
3439.00,0.0046
3438.00,0.0046
3437.00,0.0047
3436.00,0.0047
3435.00,0.0047
3434.00,0.0047
3433.00,0.0047
3432.00,0.0047
3431.00,0.0047
3430.00,0.0047
3429.00,0.0048
3428.00,0.0048
3427.00,0.0048
3426.00,0.0049
3425.00,0.0049
3424.00,0.0049
3423.00,0.0049
3422.00,0.0049
3421.00,0.0049
3420.00,0.0050
3419.00,0.0050
3418.00,0.0051
3417.00,0.0051
3416.00,0.0052
3415.00,0.0052
3414.00,0.0053
3413.00,0.0053
3412.00,0.0053
3411.00,0.0054
3410.00,0.0054
3409.00,0.0054
3408.00,0.0055
3407.00,0.0055
3406.00,0.0056
3405.00,0.0057
3404.00,0.0057
3403.00,0.0057
3402.00,0.0057
3401.00,0.0058
3400.00,0.0058
3399.00,0.0058
3398.00,0.0058
3397.00,0.0058
3396.00,0.0058
3395.00,0.0058
3394.00,0.0058
3393.00,0.0058
3392.00,0.0058
3391.00,0.0058
3390.00,0.0058
3389.00,0.0058
3388.00,0.0058
3387.00,0.0058
3386.00,0.0058
3385.00,0.0058
3384.00,0.0058
3383.00,0.0057
3382.00,0.0057
3381.00,0.0056
3380.00,0.0056
3379.00,0.0055
3378.00,0.0055
3377.00,0.0055
3376.00,0.0055
3375.00,0.0054
3374.00,0.0054
3373.00,0.0053
3372.00,0.0053
3371.00,0.0052
3370.00,0.0052
3369.00,0.0052
3368.00,0.0051
3367.00,0.0051
3366.00,0.0050
3365.00,0.0050
3364.00,0.0050
3363.00,0.0050
3362.00,0.0049
3361.00,0.0049
3360.00,0.0049
3359.00,0.0049
3358.00,0.0049
3357.00,0.0048
3356.00,0.0048
3355.00,0.0047
3354.00,0.0046
3353.00,0.0046
3352.00,0.0046
3351.00,0.0045
3350.00,0.0045
3349.00,0.0045
3348.00,0.0045
3347.00,0.0044
3346.00,0.0044
3345.00,0.0044
3344.00,0.0044
3343.00,0.0044
3342.00,0.0044
3341.00,0.0043
3340.00,0.0043
3339.00,0.0043
3338.00,0.0043
3337.00,0.0042
3336.00,0.0042
3335.00,0.0042
3334.00,0.0041
3333.00,0.0041
3332.00,0.0041
3331.00,0.0041
3330.00,0.0041
3329.00,0.0041
3328.00,0.0041
3327.00,0.0040
3326.00,0.0040
3325.00,0.0040
3324.00,0.0040
3323.00,0.0040
3322.00,0.0040
3321.00,0.0039
3320.00,0.0039
3319.00,0.0039
3318.00,0.0039
3317.00,0.0039
3316.00,0.0039
3315.00,0.0039
3314.00,0.0039
3313.00,0.0039
3312.00,0.0039
3311.00,0.0039
3310.00,0.0039
3309.00,0.0039
3308.00,0.0039
3307.00,0.0039
3306.00,0.0038
3305.00,0.0038
3304.00,0.0038
3303.00,0.0038
3302.00,0.0039
3301.00,0.0039
3300.00,0.0039
3299.00,0.0040
3298.00,0.0040
3297.00,0.0039
3296.00,0.0039
3295.00,0.0039
3294.00,0.0039
3293.00,0.0039
3292.00,0.0039
3291.00,0.0039
3290.00,0.0039
3289.00,0.0039
3288.00,0.0039
3287.00,0.0039
3286.00,0.0039
3285.00,0.0040
3284.00,0.0040
3283.00,0.0040
3282.00,0.0040
3281.00,0.0041
3280.00,0.0041
3279.00,0.0041
3278.00,0.0041
3277.00,0.0041
3276.00,0.0041
3275.00,0.0040
3274.00,0.0040
3273.00,0.0040
3272.00,0.0041
3271.00,0.0041
3270.00,0.0041
3269.00,0.0041
3268.00,0.0041
3267.00,0.0041
3266.00,0.0041
3265.00,0.0042
3264.00,0.0042
3263.00,0.0042
3262.00,0.0041
3261.00,0.0041
3260.00,0.0041
3259.00,0.0041
3258.00,0.0041
3257.00,0.0042
3256.00,0.0042
3255.00,0.0042
3254.00,0.0042
3253.00,0.0042
3252.00,0.0042
3251.00,0.0042
3250.00,0.0042
3249.00,0.0042
3248.00,0.0042
3247.00,0.0042
3246.00,0.0042
3245.00,0.0042
3244.00,0.0042
3243.00,0.0042
3242.00,0.0043
3241.00,0.0043
3240.00,0.0043
3239.00,0.0043
3238.00,0.0043
3237.00,0.0043
3236.00,0.0043
3235.00,0.0043
3234.00,0.0043
3233.00,0.0043
3232.00,0.0043
3231.00,0.0043
3230.00,0.0043
3229.00,0.0043
3228.00,0.0043
3227.00,0.0043
3226.00,0.0043
3225.00,0.0043
3224.00,0.0043
3223.00,0.0043
3222.00,0.0043
3221.00,0.0043
3220.00,0.0043
3219.00,0.0043
3218.00,0.0043
3217.00,0.0043
3216.00,0.0043
3215.00,0.0043
3214.00,0.0043
3213.00,0.0043
3212.00,0.0043
3211.00,0.0042
3210.00,0.0042
3209.00,0.0042
3208.00,0.0042
3207.00,0.0041
3206.00,0.0041
3205.00,0.0041
3204.00,0.0041
3203.00,0.0041
3202.00,0.0041
3201.00,0.0041
3200.00,0.0040
3199.00,0.0040
3198.00,0.0039
3197.00,0.0039
3196.00,0.0039
3195.00,0.0039
3194.00,0.0039
3193.00,0.0038
3192.00,0.0038
3191.00,0.0038
3190.00,0.0038
3189.00,0.0038
3188.00,0.0038
3187.00,0.0038
3186.00,0.0037
3185.00,0.0037
3184.00,0.0037
3183.00,0.0037
3182.00,0.0037
3181.00,0.0036
3180.00,0.0036
3179.00,0.0035
3178.00,0.0034
3177.00,0.0034
3176.00,0.0033
3175.00,0.0033
3174.00,0.0033
3173.00,0.0033
3172.00,0.0032
3171.00,0.0032
3170.00,0.0032
3169.00,0.0032
3168.00,0.0031
3167.00,0.0031
3166.00,0.0031
3165.00,0.0030
3164.00,0.0030
3163.00,0.0030
3162.00,0.0029
3161.00,0.0029
3160.00,0.0029
3159.00,0.0029
3158.00,0.0029
3157.00,0.0028
3156.00,0.0028
3155.00,0.0028
3154.00,0.0027
3153.00,0.0027
3152.00,0.0027
3151.00,0.0027
3150.00,0.0026
3149.00,0.0026
3148.00,0.0026
3147.00,0.0025
3146.00,0.0025
3145.00,0.0025
3144.00,0.0025
3143.00,0.0025
3142.00,0.0025
3141.00,0.0025
3140.00,0.0025
3139.00,0.0024
3138.00,0.0024
3137.00,0.0023
3136.00,0.0023
3135.00,0.0023
3134.00,0.0023
3133.00,0.0022
3132.00,0.0022
3131.00,0.0022
3130.00,0.0021
3129.00,0.0021
3128.00,0.0021
3127.00,0.0021
3126.00,0.0021
3125.00,0.0021
3124.00,0.0021
3123.00,0.0021
3122.00,0.0021
3121.00,0.0021
3120.00,0.0021
3119.00,0.0021
3118.00,0.0020
3117.00,0.0020
3116.00,0.0019
3115.00,0.0019
3114.00,0.0019
3113.00,0.0019
3112.00,0.0018
3111.00,0.0018
3110.00,0.0018
3109.00,0.0018
3108.00,0.0018
3107.00,0.0018
3106.00,0.0018
3105.00,0.0018
3104.00,0.0017
3103.00,0.0017
3102.00,0.0017
3101.00,0.0017
3100.00,0.0017
3099.00,0.0017
3098.00,0.0017
3097.00,0.0016
3096.00,0.0016
3095.00,0.0016
3094.00,0.0016
3093.00,0.0016
3092.00,0.0016
3091.00,0.0017
3090.00,0.0017
3089.00,0.0017
3088.00,0.0017
3087.00,0.0017
3086.00,0.0016
3085.00,0.0016
3084.00,0.0016
3083.00,0.0016
3082.00,0.0016
3081.00,0.0015
3080.00,0.0015
3079.00,0.0015
3078.00,0.0015
3077.00,0.0015
3076.00,0.0015
3075.00,0.0014
3074.00,0.0014
3073.00,0.0014
3072.00,0.0014
3071.00,0.0014
3070.00,0.0014
3069.00,0.0014
3068.00,0.0014
3067.00,0.0014
3066.00,0.0014
3065.00,0.0014
3064.00,0.0015
3063.00,0.0015
3062.00,0.0015
3061.00,0.0014
3060.00,0.0014
3059.00,0.0014
3058.00,0.0014
3057.00,0.0014
3056.00,0.0014
3055.00,0.0014
3054.00,0.0014
3053.00,0.0014
3052.00,0.0014
3051.00,0.0014
3050.00,0.0014
3049.00,0.0014
3048.00,0.0014
3047.00,0.0014
3046.00,0.0014
3045.00,0.0014
3044.00,0.0014
3043.00,0.0014
3042.00,0.0014
3041.00,0.0014
3040.00,0.0014
3039.00,0.0014
3038.00,0.0014
3037.00,0.0014
3036.00,0.0014
3035.00,0.0014
3034.00,0.0014
3033.00,0.0014
3032.00,0.0014
3031.00,0.0014
3030.00,0.0013
3029.00,0.0013
3028.00,0.0013
3027.00,0.0013
3026.00,0.0013
3025.00,0.0013
3024.00,0.0013
3023.00,0.0013
3022.00,0.0013
3021.00,0.0014
3020.00,0.0014
3019.00,0.0014
3018.00,0.0014
3017.00,0.0014
3016.00,0.0014
3015.00,0.0014
3014.00,0.0014
3013.00,0.0015
3012.00,0.0015
3011.00,0.0015
3010.00,0.0015
3009.00,0.0016
3008.00,0.0016
3007.00,0.0017
3006.00,0.0018
3005.00,0.0019
3004.00,0.0019
3003.00,0.0020
3002.00,0.0021
3001.00,0.0022
3000.00,0.0023
2999.00,0.0024
2998.00,0.0025
2997.00,0.0027
2996.00,0.0027
2995.00,0.0028
2994.00,0.0028
2993.00,0.0028
2992.00,0.0028
2991.00,0.0028
2990.00,0.0028
2989.00,0.0029
2988.00,0.0029
2987.00,0.0030
2986.00,0.0030
2985.00,0.0031
2984.00,0.0032
2983.00,0.0033
2982.00,0.0034
2981.00,0.0035
2980.00,0.0036
2979.00,0.0037
2978.00,0.0038
2977.00,0.0038
2976.00,0.0040
2975.00,0.0041
2974.00,0.0043
2973.00,0.0046
2972.00,0.0048
2971.00,0.0049
2970.00,0.0050
2969.00,0.0051
2968.00,0.0051
2967.00,0.0052
2966.00,0.0053
2965.00,0.0054
2964.00,0.0056
2963.00,0.0056
2962.00,0.0056
2961.00,0.0055
2960.00,0.0054
2959.00,0.0052
2958.00,0.0050
2957.00,0.0048
2956.00,0.0046
2955.00,0.0046
2954.00,0.0045
2953.00,0.0045
2952.00,0.0045
2951.00,0.0045
2950.00,0.0046
2949.00,0.0047
2948.00,0.0048
2947.00,0.0048
2946.00,0.0049
2945.00,0.0050
2944.00,0.0050
2943.00,0.0050
2942.00,0.0051
2941.00,0.0052
2940.00,0.0053
2939.00,0.0055
2938.00,0.0057
2937.00,0.0059
2936.00,0.0062
2935.00,0.0064
2934.00,0.0067
2933.00,0.0070
2932.00,0.0072
2931.00,0.0074
2930.00,0.0076
2929.00,0.0078
2928.00,0.0078
2927.00,0.0079
2926.00,0.0078
2925.00,0.0077
2924.00,0.0076
2923.00,0.0074
2922.00,0.0072
2921.00,0.0069
2920.00,0.0067
2919.00,0.0065
2918.00,0.0063
2917.00,0.0061
2916.00,0.0059
2915.00,0.0058
2914.00,0.0057
2913.00,0.0056
2912.00,0.0055
2911.00,0.0054
2910.00,0.0053
2909.00,0.0052
2908.00,0.0051
2907.00,0.0050
2906.00,0.0049
2905.00,0.0048
2904.00,0.0048
2903.00,0.0047
2902.00,0.0047
2901.00,0.0046
2900.00,0.0046
2899.00,0.0045
2898.00,0.0045
2897.00,0.0045
2896.00,0.0044
2895.00,0.0044
2894.00,0.0044
2893.00,0.0043
2892.00,0.0043
2891.00,0.0043
2890.00,0.0042
2889.00,0.0042
2888.00,0.0042
2887.00,0.0042
2886.00,0.0042
2885.00,0.0041
2884.00,0.0041
2883.00,0.0041
2882.00,0.0041
2881.00,0.0041
2880.00,0.0042
2879.00,0.0042
2878.00,0.0043
2877.00,0.0043
2876.00,0.0043
2875.00,0.0044
2874.00,0.0044
2873.00,0.0044
2872.00,0.0043
2871.00,0.0043
2870.00,0.0042
2869.00,0.0042
2868.00,0.0043
2867.00,0.0043
2866.00,0.0043
2865.00,0.0044
2864.00,0.0046
2863.00,0.0047
2862.00,0.0049
2861.00,0.0051
2860.00,0.0053
2859.00,0.0054
2858.00,0.0054
2857.00,0.0054
2856.00,0.0054
2855.00,0.0053
2854.00,0.0052
2853.00,0.0052
2852.00,0.0051
2851.00,0.0050
2850.00,0.0049
2849.00,0.0047
2848.00,0.0045
2847.00,0.0042
2846.00,0.0040
2845.00,0.0037
2844.00,0.0036
2843.00,0.0034
2842.00,0.0033
2841.00,0.0031
2840.00,0.0030
2839.00,0.0029
2838.00,0.0027
2837.00,0.0026
2836.00,0.0026
2835.00,0.0025
2834.00,0.0024
2833.00,0.0024
2832.00,0.0024
2831.00,0.0023
2830.00,0.0023
2829.00,0.0022
2828.00,0.0022
2827.00,0.0021
2826.00,0.0020
2825.00,0.0020
2824.00,0.0020
2823.00,0.0019
2822.00,0.0019
2821.00,0.0019
2820.00,0.0018
2819.00,0.0018
2818.00,0.0017
2817.00,0.0017
2816.00,0.0017
2815.00,0.0017
2814.00,0.0016
2813.00,0.0016
2812.00,0.0016
2811.00,0.0016
2810.00,0.0016
2809.00,0.0016
2808.00,0.0016
2807.00,0.0016
2806.00,0.0016
2805.00,0.0015
2804.00,0.0015
2803.00,0.0015
2802.00,0.0015
2801.00,0.0015
2800.00,0.0014
2799.00,0.0014
2798.00,0.0014
2797.00,0.0014
2796.00,0.0014
2795.00,0.0014
2794.00,0.0014
2793.00,0.0014
2792.00,0.0014
2791.00,0.0014
2790.00,0.0014
2789.00,0.0013
2788.00,0.0013
2787.00,0.0013
2786.00,0.0013
2785.00,0.0013
2784.00,0.0013
2783.00,0.0013
2782.00,0.0013
2781.00,0.0013
2780.00,0.0013
2779.00,0.0013
2778.00,0.0013
2777.00,0.0013
2776.00,0.0013
2775.00,0.0013
2774.00,0.0012
2773.00,0.0012
2772.00,0.0012
2771.00,0.0012
2770.00,0.0012
2769.00,0.0012
2768.00,0.0012
2767.00,0.0012
2766.00,0.0012
2765.00,0.0012
2764.00,0.0012
2763.00,0.0012
2762.00,0.0012
2761.00,0.0012
2760.00,0.0012
2759.00,0.0012
2758.00,0.0012
2757.00,0.0012
