Created as New Dataset,Sample 1053 By YargerLab Date Monday, August 04 2025
cm-1,A
4000.00,0.0050
3999.00,0.0050
3998.00,0.0050
3997.00,0.0050
3996.00,0.0050
3995.00,0.0050
3994.00,0.0050
3993.00,0.0049
3992.00,0.0049
3991.00,0.0049
3990.00,0.0049
3989.00,0.0049
3988.00,0.0049
3987.00,0.0049
3986.00,0.0050
3985.00,0.0050
3984.00,0.0050
3983.00,0.0050
3982.00,0.0050
3981.00,0.0050
3980.00,0.0050
3979.00,0.0050
3978.00,0.0049
3977.00,0.0049
3976.00,0.0049
3975.00,0.0050
3974.00,0.0050
3973.00,0.0050
3972.00,0.0050
3971.00,0.0050
3970.00,0.0050
3969.00,0.0050
3968.00,0.0050
3967.00,0.0050
3966.00,0.0050
3965.00,0.0049
3964.00,0.0049
3963.00,0.0049
3962.00,0.0049
3961.00,0.0050
3960.00,0.0050
3959.00,0.0050
3958.00,0.0050
3957.00,0.0050
3956.00,0.0050
3955.00,0.0050
3954.00,0.0050
3953.00,0.0050
3952.00,0.0050
3951.00,0.0049
3950.00,0.0049
3949.00,0.0049
3948.00,0.0049
3947.00,0.0049
3946.00,0.0048
3945.00,0.0049
3944.00,0.0049
3943.00,0.0049
3942.00,0.0049
3941.00,0.0049
3940.00,0.0049
3939.00,0.0049
3938.00,0.0049
3937.00,0.0049
3936.00,0.0049
3935.00,0.0049
3934.00,0.0049
3933.00,0.0049
3932.00,0.0049
3931.00,0.0049
3930.00,0.0049
3929.00,0.0049
3928.00,0.0049
3927.00,0.0049
3926.00,0.0049
3925.00,0.0049
3924.00,0.0049
3923.00,0.0049
3922.00,0.0049
3921.00,0.0049
3920.00,0.0049
3919.00,0.0049
3918.00,0.0050
3917.00,0.0049
3916.00,0.0049
3915.00,0.0049
3914.00,0.0049
3913.00,0.0049
3912.00,0.0049
3911.00,0.0049
3910.00,0.0049
3909.00,0.0049
3908.00,0.0049
3907.00,0.0049
3906.00,0.0049
3905.00,0.0049
3904.00,0.0049
3903.00,0.0049
3902.00,0.0049
3901.00,0.0049
3900.00,0.0049
3899.00,0.0049
3898.00,0.0049
3897.00,0.0049
3896.00,0.0049
3895.00,0.0049
3894.00,0.0049
3893.00,0.0049
3892.00,0.0049
3891.00,0.0048
3890.00,0.0048
3889.00,0.0048
3888.00,0.0048
3887.00,0.0048
3886.00,0.0048
3885.00,0.0048
3884.00,0.0048
3883.00,0.0048
3882.00,0.0048
3881.00,0.0048
3880.00,0.0048
3879.00,0.0048
3878.00,0.0048
3877.00,0.0049
3876.00,0.0049
3875.00,0.0049
3874.00,0.0049
3873.00,0.0048
3872.00,0.0048
3871.00,0.0048
3870.00,0.0048
3869.00,0.0048
3868.00,0.0048
3867.00,0.0048
3866.00,0.0048
3865.00,0.0048
3864.00,0.0048
3863.00,0.0048
3862.00,0.0048
3861.00,0.0048
3860.00,0.0048
3859.00,0.0048
3858.00,0.0048
3857.00,0.0048
3856.00,0.0048
3855.00,0.0048
3854.00,0.0047
3853.00,0.0047
3852.00,0.0047
3851.00,0.0047
3850.00,0.0047
3849.00,0.0048
3848.00,0.0048
3847.00,0.0048
3846.00,0.0048
3845.00,0.0048
3844.00,0.0048
3843.00,0.0048
3842.00,0.0048
3841.00,0.0048
3840.00,0.0048
3839.00,0.0048
3838.00,0.0048
3837.00,0.0048
3836.00,0.0048
3835.00,0.0048
3834.00,0.0048
3833.00,0.0048
3832.00,0.0048
3831.00,0.0048
3830.00,0.0048
3829.00,0.0048
3828.00,0.0048
3827.00,0.0047
3826.00,0.0048
3825.00,0.0048
3824.00,0.0048
3823.00,0.0048
3822.00,0.0048
3821.00,0.0048
3820.00,0.0048
3819.00,0.0048
3818.00,0.0048
3817.00,0.0047
3816.00,0.0047
3815.00,0.0047
3814.00,0.0047
3813.00,0.0047
3812.00,0.0047
3811.00,0.0048
3810.00,0.0048
3809.00,0.0048
3808.00,0.0048
3807.00,0.0048
3806.00,0.0048
3805.00,0.0047
3804.00,0.0047
3803.00,0.0047
3802.00,0.0047
3801.00,0.0047
3800.00,0.0047
3799.00,0.0047
3798.00,0.0048
3797.00,0.0048
3796.00,0.0048
3795.00,0.0048
3794.00,0.0048
3793.00,0.0048
3792.00,0.0048
3791.00,0.0048
3790.00,0.0048
3789.00,0.0048
3788.00,0.0048
3787.00,0.0048
3786.00,0.0048
3785.00,0.0048
3784.00,0.0048
3783.00,0.0048
3782.00,0.0048
3781.00,0.0048
3780.00,0.0047
3779.00,0.0047
3778.00,0.0047
3777.00,0.0047
3776.00,0.0047
3775.00,0.0048
3774.00,0.0048
3773.00,0.0048
3772.00,0.0049
3771.00,0.0048
3770.00,0.0048
3769.00,0.0048
3768.00,0.0048
3767.00,0.0048
3766.00,0.0048
3765.00,0.0048
3764.00,0.0048
3763.00,0.0048
3762.00,0.0048
3761.00,0.0048
3760.00,0.0048
3759.00,0.0048
3758.00,0.0048
3757.00,0.0048
3756.00,0.0048
3755.00,0.0048
3754.00,0.0047
3753.00,0.0047
3752.00,0.0047
3751.00,0.0047
3750.00,0.0047
3749.00,0.0047
3748.00,0.0047
3747.00,0.0046
3746.00,0.0047
3745.00,0.0047
3744.00,0.0047
3743.00,0.0047
3742.00,0.0047
3741.00,0.0047
3740.00,0.0047
3739.00,0.0047
3738.00,0.0047
3737.00,0.0047
3736.00,0.0046
3735.00,0.0046
3734.00,0.0046
3733.00,0.0046
3732.00,0.0046
3731.00,0.0045
3730.00,0.0046
3729.00,0.0046
3728.00,0.0046
3727.00,0.0046
3726.00,0.0047
3725.00,0.0047
3724.00,0.0047
3723.00,0.0047
3722.00,0.0047
3721.00,0.0047
3720.00,0.0047
3719.00,0.0047
3718.00,0.0047
3717.00,0.0047
3716.00,0.0047
3715.00,0.0047
3714.00,0.0046
3713.00,0.0046
3712.00,0.0046
3711.00,0.0045
3710.00,0.0045
3709.00,0.0045
3708.00,0.0045
3707.00,0.0045
3706.00,0.0045
3705.00,0.0045
3704.00,0.0045
3703.00,0.0045
3702.00,0.0045
3701.00,0.0046
3700.00,0.0046
3699.00,0.0046
3698.00,0.0046
3697.00,0.0046
3696.00,0.0046
3695.00,0.0046
3694.00,0.0046
3693.00,0.0046
3692.00,0.0046
3691.00,0.0046
3690.00,0.0046
3689.00,0.0046
3688.00,0.0046
3687.00,0.0046
3686.00,0.0046
3685.00,0.0046
3684.00,0.0046
3683.00,0.0047
3682.00,0.0047
3681.00,0.0047
3680.00,0.0047
3679.00,0.0047
3678.00,0.0047
3677.00,0.0047
3676.00,0.0047
3675.00,0.0047
3674.00,0.0047
3673.00,0.0047
3672.00,0.0047
3671.00,0.0047
3670.00,0.0047
3669.00,0.0047
3668.00,0.0047
3667.00,0.0047
3666.00,0.0047
3665.00,0.0048
3664.00,0.0048
3663.00,0.0048
3662.00,0.0049
3661.00,0.0048
3660.00,0.0048
3659.00,0.0048
3658.00,0.0047
3657.00,0.0047
3656.00,0.0047
3655.00,0.0047
3654.00,0.0047
3653.00,0.0047
3652.00,0.0047
3651.00,0.0048
3650.00,0.0048
3649.00,0.0048
3648.00,0.0048
3647.00,0.0048
3646.00,0.0048
3645.00,0.0049
3644.00,0.0049
3643.00,0.0049
3642.00,0.0049
3641.00,0.0050
3640.00,0.0050
3639.00,0.0050
3638.00,0.0050
3637.00,0.0050
3636.00,0.0051
3635.00,0.0051
3634.00,0.0051
3633.00,0.0050
3632.00,0.0050
3631.00,0.0050
3630.00,0.0051
3629.00,0.0051
3628.00,0.0051
3627.00,0.0051
3626.00,0.0052
3625.00,0.0052
3624.00,0.0052
3623.00,0.0053
3622.00,0.0053
3621.00,0.0053
3620.00,0.0054
3619.00,0.0054
3618.00,0.0054
3617.00,0.0055
3616.00,0.0055
3615.00,0.0055
3614.00,0.0055
3613.00,0.0055
3612.00,0.0056
3611.00,0.0056
3610.00,0.0056
3609.00,0.0057
3608.00,0.0057
3607.00,0.0057
3606.00,0.0057
3605.00,0.0057
3604.00,0.0058
3603.00,0.0058
3602.00,0.0058
3601.00,0.0059
3600.00,0.0059
3599.00,0.0059
3598.00,0.0059
3597.00,0.0059
3596.00,0.0059
3595.00,0.0060
3594.00,0.0060
3593.00,0.0061
3592.00,0.0061
3591.00,0.0062
3590.00,0.0062
3589.00,0.0062
3588.00,0.0063
3587.00,0.0063
3586.00,0.0063
3585.00,0.0064
3584.00,0.0064
3583.00,0.0064
3582.00,0.0065
3581.00,0.0065
3580.00,0.0066
3579.00,0.0066
3578.00,0.0066
3577.00,0.0067
3576.00,0.0067
3575.00,0.0067
3574.00,0.0068
3573.00,0.0068
3572.00,0.0069
3571.00,0.0069
3570.00,0.0069
3569.00,0.0069
3568.00,0.0070
3567.00,0.0070
3566.00,0.0071
3565.00,0.0072
3564.00,0.0073
3563.00,0.0073
3562.00,0.0074
3561.00,0.0074
3560.00,0.0075
3559.00,0.0076
3558.00,0.0076
3557.00,0.0077
3556.00,0.0077
3555.00,0.0077
3554.00,0.0077
3553.00,0.0078
3552.00,0.0078
3551.00,0.0079
3550.00,0.0080
3549.00,0.0081
3548.00,0.0081
3547.00,0.0082
3546.00,0.0082
3545.00,0.0083
3544.00,0.0084
3543.00,0.0085
3542.00,0.0085
3541.00,0.0086
3540.00,0.0086
3539.00,0.0087
3538.00,0.0088
3537.00,0.0088
3536.00,0.0089
3535.00,0.0090
3534.00,0.0090
3533.00,0.0091
3532.00,0.0091
3531.00,0.0092
3530.00,0.0092
3529.00,0.0093
3528.00,0.0093
3527.00,0.0094
3526.00,0.0095
3525.00,0.0096
3524.00,0.0096
3523.00,0.0097
3522.00,0.0098
3521.00,0.0098
3520.00,0.0099
3519.00,0.0100
3518.00,0.0100
3517.00,0.0101
3516.00,0.0101
3515.00,0.0102
3514.00,0.0102
3513.00,0.0103
3512.00,0.0103
3511.00,0.0104
3510.00,0.0104
3509.00,0.0105
3508.00,0.0106
3507.00,0.0107
3506.00,0.0107
3505.00,0.0108
3504.00,0.0109
3503.00,0.0110
3502.00,0.0111
3501.00,0.0112
3500.00,0.0112
3499.00,0.0113
3498.00,0.0114
3497.00,0.0114
3496.00,0.0115
3495.00,0.0116
3494.00,0.0117
3493.00,0.0118
3492.00,0.0119
3491.00,0.0120
3490.00,0.0121
3489.00,0.0122
3488.00,0.0123
3487.00,0.0124
3486.00,0.0125
3485.00,0.0126
3484.00,0.0127
3483.00,0.0129
3482.00,0.0130
3481.00,0.0132
3480.00,0.0133
3479.00,0.0134
3478.00,0.0135
3477.00,0.0136
3476.00,0.0138
3475.00,0.0139
3474.00,0.0141
3473.00,0.0142
3472.00,0.0144
3471.00,0.0145
3470.00,0.0147
3469.00,0.0148
3468.00,0.0150
3467.00,0.0151
3466.00,0.0153
3465.00,0.0155
3464.00,0.0156
3463.00,0.0158
3462.00,0.0160
3461.00,0.0162
3460.00,0.0163
3459.00,0.0165
3458.00,0.0166
3457.00,0.0168
3456.00,0.0169
3455.00,0.0171
3454.00,0.0173
3453.00,0.0175
3452.00,0.0177
3451.00,0.0179
3450.00,0.0181
3449.00,0.0183
3448.00,0.0185
3447.00,0.0187
3446.00,0.0189
3445.00,0.0191
3444.00,0.0193
3443.00,0.0195
3442.00,0.0197
3441.00,0.0200
3440.00,0.0202
3439.00,0.0204
3438.00,0.0207
3437.00,0.0209
3436.00,0.0211
3435.00,0.0214
3434.00,0.0216
3433.00,0.0219
3432.00,0.0222
3431.00,0.0224
3430.00,0.0227
3429.00,0.0230
3428.00,0.0233
3427.00,0.0236
3426.00,0.0239
3425.00,0.0242
3424.00,0.0245
3423.00,0.0248
3422.00,0.0251
3421.00,0.0254
3420.00,0.0258
3419.00,0.0261
3418.00,0.0264
3417.00,0.0267
3416.00,0.0270
3415.00,0.0273
3414.00,0.0276
3413.00,0.0278
3412.00,0.0281
3411.00,0.0283
3410.00,0.0285
3409.00,0.0287
3408.00,0.0289
3407.00,0.0291
3406.00,0.0292
3405.00,0.0294
3404.00,0.0295
3403.00,0.0296
3402.00,0.0297
3401.00,0.0298
3400.00,0.0298
3399.00,0.0298
3398.00,0.0297
3397.00,0.0297
3396.00,0.0297
3395.00,0.0296
3394.00,0.0295
3393.00,0.0294
3392.00,0.0293
3391.00,0.0291
3390.00,0.0290
3389.00,0.0288
3388.00,0.0287
3387.00,0.0285
3386.00,0.0283
3385.00,0.0281
3384.00,0.0280
3383.00,0.0278
3382.00,0.0276
3381.00,0.0274
3380.00,0.0271
3379.00,0.0269
3378.00,0.0267
3377.00,0.0265
3376.00,0.0263
3375.00,0.0261
3374.00,0.0259
3373.00,0.0257
3372.00,0.0255
3371.00,0.0253
3370.00,0.0252
3369.00,0.0250
3368.00,0.0248
3367.00,0.0246
3366.00,0.0245
3365.00,0.0243
3364.00,0.0241
3363.00,0.0240
3362.00,0.0238
3361.00,0.0237
3360.00,0.0235
3359.00,0.0234
3358.00,0.0233
3357.00,0.0232
3356.00,0.0231
3355.00,0.0230
3354.00,0.0229
3353.00,0.0228
3352.00,0.0226
3351.00,0.0226
3350.00,0.0225
3349.00,0.0224
3348.00,0.0224
3347.00,0.0223
3346.00,0.0222
3345.00,0.0221
3344.00,0.0221
3343.00,0.0220
3342.00,0.0219
3341.00,0.0219
3340.00,0.0218
3339.00,0.0218
3338.00,0.0218
3337.00,0.0218
3336.00,0.0218
3335.00,0.0218
3334.00,0.0218
3333.00,0.0218
3332.00,0.0218
3331.00,0.0217
3330.00,0.0217
3329.00,0.0217
3328.00,0.0217
3327.00,0.0217
3326.00,0.0217
3325.00,0.0217
3324.00,0.0218
3323.00,0.0218
3322.00,0.0218
3321.00,0.0219
3320.00,0.0219
3319.00,0.0220
3318.00,0.0220
3317.00,0.0221
3316.00,0.0221
3315.00,0.0222
3314.00,0.0222
3313.00,0.0223
3312.00,0.0223
3311.00,0.0223
3310.00,0.0223
3309.00,0.0224
3308.00,0.0224
3307.00,0.0225
3306.00,0.0226
3305.00,0.0227
3304.00,0.0228
3303.00,0.0230
3302.00,0.0231
3301.00,0.0232
3300.00,0.0233
3299.00,0.0234
3298.00,0.0234
3297.00,0.0235
3296.00,0.0235
3295.00,0.0236
3294.00,0.0237
3293.00,0.0238
3292.00,0.0240
3291.00,0.0241
3290.00,0.0243
3289.00,0.0244
3288.00,0.0246
3287.00,0.0247
3286.00,0.0248
3285.00,0.0249
3284.00,0.0249
3283.00,0.0250
3282.00,0.0251
3281.00,0.0253
3280.00,0.0254
3279.00,0.0255
3278.00,0.0256
3277.00,0.0258
3276.00,0.0259
3275.00,0.0259
3274.00,0.0260
3273.00,0.0261
3272.00,0.0262
3271.00,0.0263
3270.00,0.0265
3269.00,0.0266
3268.00,0.0268
3267.00,0.0269
3266.00,0.0270
3265.00,0.0271
3264.00,0.0272
3263.00,0.0274
3262.00,0.0275
3261.00,0.0276
3260.00,0.0277
3259.00,0.0278
3258.00,0.0278
3257.00,0.0279
3256.00,0.0280
3255.00,0.0282
3254.00,0.0283
3253.00,0.0284
3252.00,0.0286
3251.00,0.0287
3250.00,0.0287
3249.00,0.0288
3248.00,0.0288
3247.00,0.0289
3246.00,0.0290
3245.00,0.0291
3244.00,0.0292
3243.00,0.0293
3242.00,0.0294
3241.00,0.0294
3240.00,0.0295
3239.00,0.0295
3238.00,0.0295
3237.00,0.0295
3236.00,0.0294
3235.00,0.0294
3234.00,0.0293
3233.00,0.0293
3232.00,0.0293
3231.00,0.0294
3230.00,0.0294
3229.00,0.0295
3228.00,0.0294
3227.00,0.0294
3226.00,0.0294
3225.00,0.0293
3224.00,0.0293
3223.00,0.0292
3222.00,0.0291
3221.00,0.0290
3220.00,0.0290
3219.00,0.0289
3218.00,0.0288
3217.00,0.0287
3216.00,0.0286
3215.00,0.0285
3214.00,0.0284
3213.00,0.0283
3212.00,0.0281
3211.00,0.0280
3210.00,0.0279
3209.00,0.0277
3208.00,0.0275
3207.00,0.0274
3206.00,0.0272
3205.00,0.0270
3204.00,0.0269
3203.00,0.0267
3202.00,0.0265
3201.00,0.0263
3200.00,0.0261
3199.00,0.0260
3198.00,0.0258
3197.00,0.0256
3196.00,0.0254
3195.00,0.0252
3194.00,0.0251
3193.00,0.0249
3192.00,0.0247
3191.00,0.0245
3190.00,0.0243
3189.00,0.0242
3188.00,0.0240
3187.00,0.0238
3186.00,0.0236
3185.00,0.0234
3184.00,0.0232
3183.00,0.0230
3182.00,0.0228
3181.00,0.0226
3180.00,0.0225
3179.00,0.0223
3178.00,0.0221
3177.00,0.0219
3176.00,0.0217
3175.00,0.0216
3174.00,0.0214
3173.00,0.0212
3172.00,0.0210
3171.00,0.0208
3170.00,0.0206
3169.00,0.0204
3168.00,0.0202
3167.00,0.0200
3166.00,0.0198
3165.00,0.0196
3164.00,0.0194
3163.00,0.0192
3162.00,0.0190
3161.00,0.0188
3160.00,0.0186
3159.00,0.0184
3158.00,0.0182
3157.00,0.0180
3156.00,0.0178
3155.00,0.0176
3154.00,0.0174
3153.00,0.0172
3152.00,0.0170
3151.00,0.0169
3150.00,0.0168
3149.00,0.0166
3148.00,0.0165
3147.00,0.0164
3146.00,0.0162
3145.00,0.0161
3144.00,0.0159
3143.00,0.0157
3142.00,0.0155
3141.00,0.0153
3140.00,0.0152
3139.00,0.0150
3138.00,0.0149
3137.00,0.0148
3136.00,0.0147
3135.00,0.0146
3134.00,0.0145
3133.00,0.0144
3132.00,0.0142
3131.00,0.0141
3130.00,0.0140
3129.00,0.0139
3128.00,0.0138
3127.00,0.0137
3126.00,0.0136
3125.00,0.0135
3124.00,0.0134
3123.00,0.0134
3122.00,0.0133
3121.00,0.0132
3120.00,0.0131
3119.00,0.0130
3118.00,0.0130
3117.00,0.0128
3116.00,0.0127
3115.00,0.0126
3114.00,0.0125
3113.00,0.0123
3112.00,0.0122
3111.00,0.0121
3110.00,0.0120
3109.00,0.0119
3108.00,0.0118
3107.00,0.0117
3106.00,0.0116
3105.00,0.0115
3104.00,0.0114
3103.00,0.0113
3102.00,0.0112
3101.00,0.0112
3100.00,0.0111
3099.00,0.0111
3098.00,0.0110
3097.00,0.0110
3096.00,0.0110
3095.00,0.0110
3094.00,0.0110
3093.00,0.0110
3092.00,0.0110
3091.00,0.0111
3090.00,0.0111
3089.00,0.0112
3088.00,0.0112
3087.00,0.0112
3086.00,0.0112
3085.00,0.0112
3084.00,0.0112
3083.00,0.0112
3082.00,0.0111
3081.00,0.0111
3080.00,0.0111
3079.00,0.0111
3078.00,0.0110
3077.00,0.0110
3076.00,0.0110
3075.00,0.0109
3074.00,0.0109
3073.00,0.0108
3072.00,0.0108
3071.00,0.0107
3070.00,0.0107
3069.00,0.0107
3068.00,0.0107
3067.00,0.0107
3066.00,0.0106
3065.00,0.0106
3064.00,0.0107
3063.00,0.0107
3062.00,0.0107
3061.00,0.0107
3060.00,0.0108
3059.00,0.0108
3058.00,0.0108
3057.00,0.0108
3056.00,0.0109
3055.00,0.0109
3054.00,0.0109
3053.00,0.0109
3052.00,0.0109
3051.00,0.0109
3050.00,0.0109
3049.00,0.0108
3048.00,0.0108
3047.00,0.0108
3046.00,0.0107
3045.00,0.0107
3044.00,0.0107
3043.00,0.0107
3042.00,0.0107
3041.00,0.0108
3040.00,0.0110
3039.00,0.0111
3038.00,0.0112
3037.00,0.0114
3036.00,0.0115
3035.00,0.0116
3034.00,0.0116
3033.00,0.0117
3032.00,0.0117
3031.00,0.0116
3030.00,0.0116
3029.00,0.0115
3028.00,0.0114
3027.00,0.0112
3026.00,0.0111
3025.00,0.0109
3024.00,0.0108
3023.00,0.0106
3022.00,0.0105
3021.00,0.0104
3020.00,0.0103
3019.00,0.0102
3018.00,0.0102
3017.00,0.0101
3016.00,0.0101
3015.00,0.0101
3014.00,0.0101
3013.00,0.0102
3012.00,0.0102
3011.00,0.0103
3010.00,0.0104
3009.00,0.0105
3008.00,0.0107
3007.00,0.0109
3006.00,0.0111
3005.00,0.0114
3004.00,0.0117
3003.00,0.0120
3002.00,0.0124
3001.00,0.0128
3000.00,0.0133
2999.00,0.0138
2998.00,0.0143
2997.00,0.0149
2996.00,0.0155
2995.00,0.0161
2994.00,0.0167
2993.00,0.0172
2992.00,0.0176
2991.00,0.0180
2990.00,0.0183
2989.00,0.0187
2988.00,0.0191
2987.00,0.0195
2986.00,0.0201
2985.00,0.0208
2984.00,0.0216
2983.00,0.0226
2982.00,0.0237
2981.00,0.0249
2980.00,0.0259
2979.00,0.0267
2978.00,0.0272
2977.00,0.0275
2976.00,0.0278
2975.00,0.0285
2974.00,0.0295
2973.00,0.0307
2972.00,0.0322
2971.00,0.0335
2970.00,0.0346
2969.00,0.0354
2968.00,0.0359
2967.00,0.0364
2966.00,0.0370
2965.00,0.0376
2964.00,0.0384
2963.00,0.0392
2962.00,0.0399
2961.00,0.0404
2960.00,0.0406
2959.00,0.0404
2958.00,0.0398
2957.00,0.0389
2956.00,0.0377
2955.00,0.0365
2954.00,0.0352
2953.00,0.0340
2952.00,0.0330
2951.00,0.0321
2950.00,0.0315
2949.00,0.0312
2948.00,0.0311
2947.00,0.0313
2946.00,0.0317
2945.00,0.0324
2944.00,0.0332
2943.00,0.0341
2942.00,0.0352
2941.00,0.0364
2940.00,0.0378
2939.00,0.0394
2938.00,0.0413
2937.00,0.0434
2936.00,0.0458
2935.00,0.0483
2934.00,0.0511
2933.00,0.0539
2932.00,0.0567
2931.00,0.0594
2930.00,0.0618
2929.00,0.0637
2928.00,0.0650
2927.00,0.0657
2926.00,0.0657
2925.00,0.0651
2924.00,0.0640
2923.00,0.0626
2922.00,0.0609
2921.00,0.0590
2920.00,0.0570
2919.00,0.0550
2918.00,0.0529
2917.00,0.0508
2916.00,0.0488
2915.00,0.0470
2914.00,0.0452
2913.00,0.0436
2912.00,0.0421
2911.00,0.0408
2910.00,0.0395
2909.00,0.0384
2908.00,0.0373
2907.00,0.0363
2906.00,0.0353
2905.00,0.0343
2904.00,0.0335
2903.00,0.0326
2902.00,0.0318
2901.00,0.0311
2900.00,0.0304
2899.00,0.0297
2898.00,0.0291
2897.00,0.0285
2896.00,0.0279
2895.00,0.0274
2894.00,0.0270
2893.00,0.0266
2892.00,0.0261
2891.00,0.0257
2890.00,0.0254
2889.00,0.0250
2888.00,0.0247
2887.00,0.0244
2886.00,0.0241
2885.00,0.0239
2884.00,0.0238
2883.00,0.0238
2882.00,0.0239
2881.00,0.0242
2880.00,0.0246
2879.00,0.0253
2878.00,0.0260
2877.00,0.0269
2876.00,0.0279
2875.00,0.0288
2874.00,0.0296
2873.00,0.0301
2872.00,0.0304
2871.00,0.0305
2870.00,0.0303
2869.00,0.0302
2868.00,0.0300
2867.00,0.0301
2866.00,0.0305
2865.00,0.0312
2864.00,0.0323
2863.00,0.0339
2862.00,0.0358
2861.00,0.0379
2860.00,0.0401
2859.00,0.0422
2858.00,0.0439
2857.00,0.0452
2856.00,0.0459
2855.00,0.0460
2854.00,0.0458
2853.00,0.0452
2852.00,0.0442
2851.00,0.0427
2850.00,0.0407
2849.00,0.0383
2848.00,0.0358
2847.00,0.0333
2846.00,0.0309
2845.00,0.0287
2844.00,0.0267
2843.00,0.0249
2842.00,0.0234
2841.00,0.0220
2840.00,0.0208
2839.00,0.0197
2838.00,0.0189
2837.00,0.0181
2836.00,0.0175
2835.00,0.0169
2834.00,0.0164
2833.00,0.0159
2832.00,0.0155
2831.00,0.0151
2830.00,0.0147
2829.00,0.0144
2828.00,0.0140
2827.00,0.0137
2826.00,0.0134
2825.00,0.0131
2824.00,0.0129
2823.00,0.0127
2822.00,0.0125
2821.00,0.0123
2820.00,0.0121
2819.00,0.0120
2818.00,0.0118
2817.00,0.0116
2816.00,0.0115
2815.00,0.0114
2814.00,0.0112
2813.00,0.0111
2812.00,0.0110
2811.00,0.0109
2810.00,0.0108
2809.00,0.0107
2808.00,0.0107
2807.00,0.0106
2806.00,0.0106
2805.00,0.0105
2804.00,0.0104
2803.00,0.0103
2802.00,0.0102
2801.00,0.0102
2800.00,0.0101
2799.00,0.0100
2798.00,0.0099
2797.00,0.0098
2796.00,0.0098
2795.00,0.0097
2794.00,0.0096
2793.00,0.0095
2792.00,0.0094
2791.00,0.0094
2790.00,0.0093
2789.00,0.0092
2788.00,0.0092
2787.00,0.0091
2786.00,0.0091
2785.00,0.0090
2784.00,0.0090
2783.00,0.0089
2782.00,0.0088
2781.00,0.0088
2780.00,0.0088
2779.00,0.0087
2778.00,0.0087
2777.00,0.0086
2776.00,0.0085
2775.00,0.0085
2774.00,0.0085
2773.00,0.0085
2772.00,0.0085
2771.00,0.0085
2770.00,0.0085
2769.00,0.0085
2768.00,0.0084
2767.00,0.0084
2766.00,0.0084
2765.00,0.0084
2764.00,0.0084
2763.00,0.0084
2762.00,0.0084
2761.00,0.0084
2760.00,0.0084
2759.00,0.0084
2758.00,0.0084
2757.00,0.0084
