Created as New Dataset,Sample 115 By YargerLab Date Friday, August 15 2025
cm-1,A
4000.00,0.0030
3999.00,0.0030
3998.00,0.0030
3997.00,0.0030
3996.00,0.0030
3995.00,0.0030
3994.00,0.0031
3993.00,0.0031
3992.00,0.0031
3991.00,0.0030
3990.00,0.0030
3989.00,0.0030
3988.00,0.0030
3987.00,0.0030
3986.00,0.0030
3985.00,0.0030
3984.00,0.0030
3983.00,0.0030
3982.00,0.0030
3981.00,0.0030
3980.00,0.0030
3979.00,0.0030
3978.00,0.0030
3977.00,0.0030
3976.00,0.0030
3975.00,0.0030
3974.00,0.0030
3973.00,0.0030
3972.00,0.0030
3971.00,0.0030
3970.00,0.0030
3969.00,0.0030
3968.00,0.0030
3967.00,0.0031
3966.00,0.0031
3965.00,0.0031
3964.00,0.0030
3963.00,0.0030
3962.00,0.0030
3961.00,0.0030
3960.00,0.0030
3959.00,0.0030
3958.00,0.0030
3957.00,0.0030
3956.00,0.0030
3955.00,0.0029
3954.00,0.0029
3953.00,0.0029
3952.00,0.0029
3951.00,0.0029
3950.00,0.0029
3949.00,0.0029
3948.00,0.0029
3947.00,0.0029
3946.00,0.0029
3945.00,0.0029
3944.00,0.0029
3943.00,0.0029
3942.00,0.0029
3941.00,0.0030
3940.00,0.0030
3939.00,0.0030
3938.00,0.0030
3937.00,0.0030
3936.00,0.0030
3935.00,0.0030
3934.00,0.0030
3933.00,0.0029
3932.00,0.0029
3931.00,0.0029
3930.00,0.0029
3929.00,0.0029
3928.00,0.0029
3927.00,0.0029
3926.00,0.0029
3925.00,0.0029
3924.00,0.0029
3923.00,0.0029
3922.00,0.0029
3921.00,0.0029
3920.00,0.0029
3919.00,0.0029
3918.00,0.0029
3917.00,0.0029
3916.00,0.0029
3915.00,0.0029
3914.00,0.0029
3913.00,0.0029
3912.00,0.0029
3911.00,0.0029
3910.00,0.0029
3909.00,0.0029
3908.00,0.0029
3907.00,0.0029
3906.00,0.0029
3905.00,0.0029
3904.00,0.0029
3903.00,0.0029
3902.00,0.0028
3901.00,0.0028
3900.00,0.0028
3899.00,0.0028
3898.00,0.0028
3897.00,0.0029
3896.00,0.0029
3895.00,0.0029
3894.00,0.0029
3893.00,0.0029
3892.00,0.0029
3891.00,0.0029
3890.00,0.0029
3889.00,0.0029
3888.00,0.0029
3887.00,0.0028
3886.00,0.0028
3885.00,0.0028
3884.00,0.0028
3883.00,0.0028
3882.00,0.0028
3881.00,0.0028
3880.00,0.0028
3879.00,0.0028
3878.00,0.0028
3877.00,0.0028
3876.00,0.0028
3875.00,0.0028
3874.00,0.0028
3873.00,0.0028
3872.00,0.0028
3871.00,0.0028
3870.00,0.0028
3869.00,0.0028
3868.00,0.0028
3867.00,0.0028
3866.00,0.0028
3865.00,0.0027
3864.00,0.0028
3863.00,0.0028
3862.00,0.0028
3861.00,0.0028
3860.00,0.0028
3859.00,0.0029
3858.00,0.0029
3857.00,0.0029
3856.00,0.0029
3855.00,0.0029
3854.00,0.0029
3853.00,0.0029
3852.00,0.0029
3851.00,0.0028
3850.00,0.0028
3849.00,0.0028
3848.00,0.0028
3847.00,0.0028
3846.00,0.0028
3845.00,0.0028
3844.00,0.0029
3843.00,0.0029
3842.00,0.0029
3841.00,0.0030
3840.00,0.0029
3839.00,0.0029
3838.00,0.0029
3837.00,0.0028
3836.00,0.0028
3835.00,0.0028
3834.00,0.0028
3833.00,0.0028
3832.00,0.0028
3831.00,0.0028
3830.00,0.0028
3829.00,0.0028
3828.00,0.0028
3827.00,0.0028
3826.00,0.0029
3825.00,0.0029
3824.00,0.0029
3823.00,0.0029
3822.00,0.0028
3821.00,0.0028
3820.00,0.0029
3819.00,0.0028
3818.00,0.0028
3817.00,0.0028
3816.00,0.0028
3815.00,0.0028
3814.00,0.0029
3813.00,0.0029
3812.00,0.0029
3811.00,0.0029
3810.00,0.0029
3809.00,0.0029
3808.00,0.0029
3807.00,0.0029
3806.00,0.0029
3805.00,0.0029
3804.00,0.0028
3803.00,0.0028
3802.00,0.0028
3801.00,0.0028
3800.00,0.0029
3799.00,0.0029
3798.00,0.0028
3797.00,0.0028
3796.00,0.0029
3795.00,0.0029
3794.00,0.0029
3793.00,0.0029
3792.00,0.0029
3791.00,0.0029
3790.00,0.0029
3789.00,0.0029
3788.00,0.0029
3787.00,0.0029
3786.00,0.0029
3785.00,0.0029
3784.00,0.0029
3783.00,0.0030
3782.00,0.0029
3781.00,0.0029
3780.00,0.0029
3779.00,0.0029
3778.00,0.0029
3777.00,0.0029
3776.00,0.0029
3775.00,0.0029
3774.00,0.0029
3773.00,0.0030
3772.00,0.0030
3771.00,0.0029
3770.00,0.0029
3769.00,0.0029
3768.00,0.0029
3767.00,0.0029
3766.00,0.0029
3765.00,0.0029
3764.00,0.0030
3763.00,0.0030
3762.00,0.0030
3761.00,0.0029
3760.00,0.0029
3759.00,0.0029
3758.00,0.0030
3757.00,0.0030
3756.00,0.0030
3755.00,0.0030
3754.00,0.0029
3753.00,0.0029
3752.00,0.0029
3751.00,0.0029
3750.00,0.0029
3749.00,0.0028
3748.00,0.0028
3747.00,0.0028
3746.00,0.0027
3745.00,0.0028
3744.00,0.0028
3743.00,0.0028
3742.00,0.0028
3741.00,0.0028
3740.00,0.0028
3739.00,0.0028
3738.00,0.0028
3737.00,0.0028
3736.00,0.0027
3735.00,0.0027
3734.00,0.0027
3733.00,0.0026
3732.00,0.0027
3731.00,0.0027
3730.00,0.0027
3729.00,0.0028
3728.00,0.0028
3727.00,0.0028
3726.00,0.0028
3725.00,0.0028
3724.00,0.0028
3723.00,0.0028
3722.00,0.0028
3721.00,0.0028
3720.00,0.0028
3719.00,0.0028
3718.00,0.0028
3717.00,0.0028
3716.00,0.0028
3715.00,0.0028
3714.00,0.0028
3713.00,0.0028
3712.00,0.0028
3711.00,0.0028
3710.00,0.0027
3709.00,0.0027
3708.00,0.0027
3707.00,0.0027
3706.00,0.0027
3705.00,0.0027
3704.00,0.0027
3703.00,0.0027
3702.00,0.0028
3701.00,0.0028
3700.00,0.0028
3699.00,0.0028
3698.00,0.0028
3697.00,0.0028
3696.00,0.0028
3695.00,0.0028
3694.00,0.0028
3693.00,0.0028
3692.00,0.0028
3691.00,0.0028
3690.00,0.0028
3689.00,0.0028
3688.00,0.0028
3687.00,0.0028
3686.00,0.0028
3685.00,0.0029
3684.00,0.0029
3683.00,0.0030
3682.00,0.0031
3681.00,0.0031
3680.00,0.0031
3679.00,0.0031
3678.00,0.0031
3677.00,0.0030
3676.00,0.0030
3675.00,0.0031
3674.00,0.0031
3673.00,0.0031
3672.00,0.0031
3671.00,0.0030
3670.00,0.0031
3669.00,0.0031
3668.00,0.0031
3667.00,0.0031
3666.00,0.0030
3665.00,0.0031
3664.00,0.0031
3663.00,0.0031
3662.00,0.0032
3661.00,0.0032
3660.00,0.0032
3659.00,0.0032
3658.00,0.0032
3657.00,0.0032
3656.00,0.0032
3655.00,0.0032
3654.00,0.0032
3653.00,0.0032
3652.00,0.0032
3651.00,0.0031
3650.00,0.0031
3649.00,0.0032
3648.00,0.0032
3647.00,0.0032
3646.00,0.0033
3645.00,0.0033
3644.00,0.0033
3643.00,0.0034
3642.00,0.0034
3641.00,0.0034
3640.00,0.0035
3639.00,0.0035
3638.00,0.0035
3637.00,0.0036
3636.00,0.0036
3635.00,0.0036
3634.00,0.0036
3633.00,0.0036
3632.00,0.0035
3631.00,0.0035
3630.00,0.0035
3629.00,0.0036
3628.00,0.0036
3627.00,0.0036
3626.00,0.0036
3625.00,0.0037
3624.00,0.0037
3623.00,0.0037
3622.00,0.0037
3621.00,0.0037
3620.00,0.0037
3619.00,0.0037
3618.00,0.0037
3617.00,0.0038
3616.00,0.0038
3615.00,0.0038
3614.00,0.0039
3613.00,0.0039
3612.00,0.0039
3611.00,0.0039
3610.00,0.0039
3609.00,0.0040
3608.00,0.0040
3607.00,0.0040
3606.00,0.0040
3605.00,0.0041
3604.00,0.0041
3603.00,0.0041
3602.00,0.0041
3601.00,0.0041
3600.00,0.0041
3599.00,0.0041
3598.00,0.0041
3597.00,0.0041
3596.00,0.0041
3595.00,0.0042
3594.00,0.0042
3593.00,0.0043
3592.00,0.0042
3591.00,0.0042
3590.00,0.0042
3589.00,0.0041
3588.00,0.0041
3587.00,0.0042
3586.00,0.0042
3585.00,0.0043
3584.00,0.0043
3583.00,0.0043
3582.00,0.0044
3581.00,0.0044
3580.00,0.0044
3579.00,0.0044
3578.00,0.0044
3577.00,0.0045
3576.00,0.0045
3575.00,0.0046
3574.00,0.0046
3573.00,0.0046
3572.00,0.0047
3571.00,0.0047
3570.00,0.0046
3569.00,0.0046
3568.00,0.0046
3567.00,0.0046
3566.00,0.0047
3565.00,0.0048
3564.00,0.0048
3563.00,0.0049
3562.00,0.0049
3561.00,0.0050
3560.00,0.0050
3559.00,0.0050
3558.00,0.0051
3557.00,0.0051
3556.00,0.0052
3555.00,0.0052
3554.00,0.0052
3553.00,0.0053
3552.00,0.0053
3551.00,0.0053
3550.00,0.0054
3549.00,0.0054
3548.00,0.0054
3547.00,0.0055
3546.00,0.0055
3545.00,0.0056
3544.00,0.0056
3543.00,0.0057
3542.00,0.0057
3541.00,0.0058
3540.00,0.0058
3539.00,0.0059
3538.00,0.0059
3537.00,0.0060
3536.00,0.0060
3535.00,0.0060
3534.00,0.0060
3533.00,0.0060
3532.00,0.0061
3531.00,0.0061
3530.00,0.0062
3529.00,0.0062
3528.00,0.0063
3527.00,0.0063
3526.00,0.0064
3525.00,0.0064
3524.00,0.0065
3523.00,0.0065
3522.00,0.0066
3521.00,0.0066
3520.00,0.0067
3519.00,0.0067
3518.00,0.0068
3517.00,0.0068
3516.00,0.0068
3515.00,0.0069
3514.00,0.0069
3513.00,0.0070
3512.00,0.0070
3511.00,0.0070
3510.00,0.0071
3509.00,0.0071
3508.00,0.0071
3507.00,0.0071
3506.00,0.0071
3505.00,0.0071
3504.00,0.0071
3503.00,0.0071
3502.00,0.0071
3501.00,0.0072
3500.00,0.0072
3499.00,0.0073
3498.00,0.0073
3497.00,0.0074
3496.00,0.0074
3495.00,0.0074
3494.00,0.0075
3493.00,0.0075
3492.00,0.0075
3491.00,0.0075
3490.00,0.0076
3489.00,0.0076
3488.00,0.0076
3487.00,0.0077
3486.00,0.0077
3485.00,0.0077
3484.00,0.0077
3483.00,0.0077
3482.00,0.0078
3481.00,0.0078
3480.00,0.0078
3479.00,0.0079
3478.00,0.0079
3477.00,0.0079
3476.00,0.0080
3475.00,0.0080
3474.00,0.0081
3473.00,0.0081
3472.00,0.0082
3471.00,0.0082
3470.00,0.0082
3469.00,0.0083
3468.00,0.0083
3467.00,0.0083
3466.00,0.0084
3465.00,0.0084
3464.00,0.0085
3463.00,0.0085
3462.00,0.0085
3461.00,0.0086
3460.00,0.0086
3459.00,0.0087
3458.00,0.0088
3457.00,0.0088
3456.00,0.0088
3455.00,0.0089
3454.00,0.0089
3453.00,0.0089
3452.00,0.0090
3451.00,0.0090
3450.00,0.0091
3449.00,0.0092
3448.00,0.0092
3447.00,0.0093
3446.00,0.0094
3445.00,0.0094
3444.00,0.0095
3443.00,0.0095
3442.00,0.0096
3441.00,0.0096
3440.00,0.0097
3439.00,0.0097
3438.00,0.0098
3437.00,0.0098
3436.00,0.0099
3435.00,0.0099
3434.00,0.0100
3433.00,0.0101
3432.00,0.0101
3431.00,0.0102
3430.00,0.0103
3429.00,0.0104
3428.00,0.0104
3427.00,0.0105
3426.00,0.0105
3425.00,0.0106
3424.00,0.0106
3423.00,0.0107
3422.00,0.0108
3421.00,0.0109
3420.00,0.0110
3419.00,0.0110
3418.00,0.0111
3417.00,0.0112
3416.00,0.0113
3415.00,0.0113
3414.00,0.0114
3413.00,0.0115
3412.00,0.0116
3411.00,0.0117
3410.00,0.0117
3409.00,0.0118
3408.00,0.0119
3407.00,0.0120
3406.00,0.0121
3405.00,0.0122
3404.00,0.0122
3403.00,0.0123
3402.00,0.0124
3401.00,0.0125
3400.00,0.0126
3399.00,0.0127
3398.00,0.0128
3397.00,0.0129
3396.00,0.0129
3395.00,0.0130
3394.00,0.0131
3393.00,0.0132
3392.00,0.0133
3391.00,0.0134
3390.00,0.0136
3389.00,0.0137
3388.00,0.0138
3387.00,0.0139
3386.00,0.0140
3385.00,0.0141
3384.00,0.0142
3383.00,0.0144
3382.00,0.0145
3381.00,0.0146
3380.00,0.0147
3379.00,0.0148
3378.00,0.0149
3377.00,0.0150
3376.00,0.0151
3375.00,0.0152
3374.00,0.0153
3373.00,0.0154
3372.00,0.0155
3371.00,0.0155
3370.00,0.0156
3369.00,0.0157
3368.00,0.0158
3367.00,0.0160
3366.00,0.0162
3365.00,0.0163
3364.00,0.0165
3363.00,0.0166
3362.00,0.0167
3361.00,0.0168
3360.00,0.0169
3359.00,0.0171
3358.00,0.0173
3357.00,0.0174
3356.00,0.0176
3355.00,0.0177
3354.00,0.0178
3353.00,0.0178
3352.00,0.0179
3351.00,0.0180
3350.00,0.0181
3349.00,0.0183
3348.00,0.0184
3347.00,0.0186
3346.00,0.0187
3345.00,0.0188
3344.00,0.0188
3343.00,0.0189
3342.00,0.0190
3341.00,0.0191
3340.00,0.0192
3339.00,0.0194
3338.00,0.0195
3337.00,0.0197
3336.00,0.0199
3335.00,0.0200
3334.00,0.0202
3333.00,0.0203
3332.00,0.0204
3331.00,0.0205
3330.00,0.0206
3329.00,0.0207
3328.00,0.0208
3327.00,0.0209
3326.00,0.0210
3325.00,0.0211
3324.00,0.0213
3323.00,0.0215
3322.00,0.0216
3321.00,0.0218
3320.00,0.0219
3319.00,0.0220
3318.00,0.0221
3317.00,0.0222
3316.00,0.0223
3315.00,0.0224
3314.00,0.0225
3313.00,0.0226
3312.00,0.0226
3311.00,0.0227
3310.00,0.0227
3309.00,0.0227
3308.00,0.0227
3307.00,0.0228
3306.00,0.0229
3305.00,0.0231
3304.00,0.0233
3303.00,0.0235
3302.00,0.0237
3301.00,0.0239
3300.00,0.0240
3299.00,0.0240
3298.00,0.0240
3297.00,0.0240
3296.00,0.0240
3295.00,0.0241
3294.00,0.0241
3293.00,0.0242
3292.00,0.0244
3291.00,0.0245
3290.00,0.0247
3289.00,0.0248
3288.00,0.0249
3287.00,0.0250
3286.00,0.0250
3285.00,0.0251
3284.00,0.0251
3283.00,0.0252
3282.00,0.0252
3281.00,0.0253
3280.00,0.0254
3279.00,0.0254
3278.00,0.0255
3277.00,0.0255
3276.00,0.0255
3275.00,0.0256
3274.00,0.0256
3273.00,0.0257
3272.00,0.0257
3271.00,0.0258
3270.00,0.0258
3269.00,0.0259
3268.00,0.0260
3267.00,0.0260
3266.00,0.0261
3265.00,0.0262
3264.00,0.0262
3263.00,0.0263
3262.00,0.0263
3261.00,0.0263
3260.00,0.0264
3259.00,0.0264
3258.00,0.0265
3257.00,0.0265
3256.00,0.0266
3255.00,0.0266
3254.00,0.0267
3253.00,0.0268
3252.00,0.0268
3251.00,0.0269
3250.00,0.0269
3249.00,0.0269
3248.00,0.0269
3247.00,0.0269
3246.00,0.0270
3245.00,0.0271
3244.00,0.0272
3243.00,0.0273
3242.00,0.0273
3241.00,0.0273
3240.00,0.0274
3239.00,0.0274
3238.00,0.0274
3237.00,0.0274
3236.00,0.0274
3235.00,0.0273
3234.00,0.0273
3233.00,0.0274
3232.00,0.0274
3231.00,0.0275
3230.00,0.0276
3229.00,0.0276
3228.00,0.0277
3227.00,0.0277
3226.00,0.0277
3225.00,0.0278
3224.00,0.0278
3223.00,0.0278
3222.00,0.0278
3221.00,0.0278
3220.00,0.0278
3219.00,0.0278
3218.00,0.0278
3217.00,0.0278
3216.00,0.0278
3215.00,0.0278
3214.00,0.0278
3213.00,0.0278
3212.00,0.0279
3211.00,0.0279
3210.00,0.0279
3209.00,0.0279
3208.00,0.0279
3207.00,0.0278
3206.00,0.0278
3205.00,0.0278
3204.00,0.0278
3203.00,0.0278
3202.00,0.0279
3201.00,0.0279
3200.00,0.0279
3199.00,0.0279
3198.00,0.0279
3197.00,0.0279
3196.00,0.0279
3195.00,0.0279
3194.00,0.0279
3193.00,0.0279
3192.00,0.0279
3191.00,0.0279
3190.00,0.0279
3189.00,0.0278
3188.00,0.0278
3187.00,0.0278
3186.00,0.0278
3185.00,0.0278
3184.00,0.0279
3183.00,0.0278
3182.00,0.0278
3181.00,0.0278
3180.00,0.0278
3179.00,0.0278
3178.00,0.0278
3177.00,0.0278
3176.00,0.0277
3175.00,0.0277
3174.00,0.0277
3173.00,0.0276
3172.00,0.0276
3171.00,0.0276
3170.00,0.0275
3169.00,0.0275
3168.00,0.0274
3167.00,0.0274
3166.00,0.0274
3165.00,0.0273
3164.00,0.0273
3163.00,0.0272
3162.00,0.0271
3161.00,0.0271
3160.00,0.0270
3159.00,0.0270
3158.00,0.0269
3157.00,0.0269
3156.00,0.0268
3155.00,0.0267
3154.00,0.0267
3153.00,0.0266
3152.00,0.0265
3151.00,0.0265
3150.00,0.0265
3149.00,0.0264
3148.00,0.0264
3147.00,0.0263
3146.00,0.0262
3145.00,0.0261
3144.00,0.0261
3143.00,0.0260
3142.00,0.0259
3141.00,0.0259
3140.00,0.0258
3139.00,0.0258
3138.00,0.0257
3137.00,0.0257
3136.00,0.0257
3135.00,0.0256
3134.00,0.0256
3133.00,0.0255
3132.00,0.0255
3131.00,0.0255
3130.00,0.0254
3129.00,0.0254
3128.00,0.0254
3127.00,0.0254
3126.00,0.0254
3125.00,0.0253
3124.00,0.0253
3123.00,0.0252
3122.00,0.0251
3121.00,0.0251
3120.00,0.0250
3119.00,0.0250
3118.00,0.0249
3117.00,0.0248
3116.00,0.0248
3115.00,0.0247
3114.00,0.0246
3113.00,0.0245
3112.00,0.0244
3111.00,0.0243
3110.00,0.0242
3109.00,0.0241
3108.00,0.0240
3107.00,0.0239
3106.00,0.0238
3105.00,0.0237
3104.00,0.0237
3103.00,0.0236
3102.00,0.0235
3101.00,0.0235
3100.00,0.0234
3099.00,0.0234
3098.00,0.0234
3097.00,0.0233
3096.00,0.0233
3095.00,0.0233
3094.00,0.0233
3093.00,0.0233
3092.00,0.0233
3091.00,0.0233
3090.00,0.0234
3089.00,0.0234
3088.00,0.0234
3087.00,0.0235
3086.00,0.0235
3085.00,0.0235
3084.00,0.0235
3083.00,0.0235
3082.00,0.0236
3081.00,0.0236
3080.00,0.0236
3079.00,0.0236
3078.00,0.0236
3077.00,0.0235
3076.00,0.0234
3075.00,0.0233
3074.00,0.0232
3073.00,0.0231
3072.00,0.0230
3071.00,0.0229
3070.00,0.0228
3069.00,0.0226
3068.00,0.0225
3067.00,0.0224
3066.00,0.0223
3065.00,0.0223
3064.00,0.0222
3063.00,0.0221
3062.00,0.0220
3061.00,0.0219
3060.00,0.0218
3059.00,0.0217
3058.00,0.0216
3057.00,0.0216
3056.00,0.0215
3055.00,0.0215
3054.00,0.0214
3053.00,0.0213
3052.00,0.0213
3051.00,0.0212
3050.00,0.0212
3049.00,0.0212
3048.00,0.0211
3047.00,0.0211
3046.00,0.0210
3045.00,0.0210
3044.00,0.0209
3043.00,0.0209
3042.00,0.0208
3041.00,0.0208
3040.00,0.0208
3039.00,0.0207
3038.00,0.0207
3037.00,0.0207
3036.00,0.0207
3035.00,0.0206
3034.00,0.0206
3033.00,0.0206
3032.00,0.0205
3031.00,0.0205
3030.00,0.0204
3029.00,0.0203
3028.00,0.0202
3027.00,0.0200
3026.00,0.0199
3025.00,0.0198
3024.00,0.0197
3023.00,0.0196
3022.00,0.0194
3021.00,0.0193
3020.00,0.0192
3019.00,0.0191
3018.00,0.0190
3017.00,0.0190
3016.00,0.0189
3015.00,0.0189
3014.00,0.0189
3013.00,0.0189
3012.00,0.0189
3011.00,0.0190
3010.00,0.0191
3009.00,0.0192
3008.00,0.0194
3007.00,0.0195
3006.00,0.0198
3005.00,0.0200
3004.00,0.0203
3003.00,0.0206
3002.00,0.0210
3001.00,0.0214
3000.00,0.0219
2999.00,0.0225
2998.00,0.0231
2997.00,0.0238
2996.00,0.0245
2995.00,0.0253
2994.00,0.0262
2993.00,0.0271
2992.00,0.0281
2991.00,0.0290
2990.00,0.0300
2989.00,0.0310
2988.00,0.0320
2987.00,0.0330
2986.00,0.0339
2985.00,0.0348
2984.00,0.0356
2983.00,0.0363
2982.00,0.0370
2981.00,0.0376
2980.00,0.0382
2979.00,0.0387
2978.00,0.0392
2977.00,0.0395
2976.00,0.0399
2975.00,0.0402
2974.00,0.0405
2973.00,0.0408
2972.00,0.0413
2971.00,0.0418
2970.00,0.0424
2969.00,0.0431
2968.00,0.0438
2967.00,0.0446
2966.00,0.0454
2965.00,0.0462
2964.00,0.0470
2963.00,0.0478
2962.00,0.0486
2961.00,0.0494
2960.00,0.0501
2959.00,0.0507
2958.00,0.0513
2957.00,0.0517
2956.00,0.0520
2955.00,0.0521
2954.00,0.0521
2953.00,0.0519
2952.00,0.0515
2951.00,0.0511
2950.00,0.0506
2949.00,0.0502
2948.00,0.0498
2947.00,0.0496
2946.00,0.0495
2945.00,0.0497
2944.00,0.0502
2943.00,0.0508
2942.00,0.0517
2941.00,0.0527
2940.00,0.0538
2939.00,0.0550
2938.00,0.0563
2937.00,0.0576
2936.00,0.0589
2935.00,0.0602
2934.00,0.0615
2933.00,0.0628
2932.00,0.0640
2931.00,0.0651
2930.00,0.0660
2929.00,0.0667
2928.00,0.0672
2927.00,0.0675
2926.00,0.0675
2925.00,0.0673
2924.00,0.0669
2923.00,0.0663
2922.00,0.0655
2921.00,0.0645
2920.00,0.0634
2919.00,0.0622
2918.00,0.0609
2917.00,0.0595
2916.00,0.0581
2915.00,0.0567
2914.00,0.0553
2913.00,0.0539
2912.00,0.0525
2911.00,0.0513
2910.00,0.0500
2909.00,0.0488
2908.00,0.0477
2907.00,0.0467
2906.00,0.0457
2905.00,0.0449
2904.00,0.0440
2903.00,0.0433
2902.00,0.0426
2901.00,0.0420
2900.00,0.0414
2899.00,0.0409
2898.00,0.0405
2897.00,0.0400
2896.00,0.0396
2895.00,0.0392
2894.00,0.0388
2893.00,0.0385
2892.00,0.0381
2891.00,0.0378
2890.00,0.0374
2889.00,0.0371
2888.00,0.0367
2887.00,0.0364
2886.00,0.0362
2885.00,0.0360
2884.00,0.0358
2883.00,0.0358
2882.00,0.0358
2881.00,0.0359
2880.00,0.0362
2879.00,0.0365
2878.00,0.0370
2877.00,0.0376
2876.00,0.0383
2875.00,0.0390
2874.00,0.0398
2873.00,0.0406
2872.00,0.0412
2871.00,0.0417
2870.00,0.0420
2869.00,0.0422
2868.00,0.0423
2867.00,0.0423
2866.00,0.0424
2865.00,0.0427
2864.00,0.0431
2863.00,0.0437
2862.00,0.0444
2861.00,0.0451
2860.00,0.0458
2859.00,0.0464
2858.00,0.0468
2857.00,0.0470
2856.00,0.0468
2855.00,0.0463
2854.00,0.0455
2853.00,0.0445
2852.00,0.0433
2851.00,0.0419
2850.00,0.0405
2849.00,0.0390
2848.00,0.0374
2847.00,0.0359
2846.00,0.0344
2845.00,0.0329
2844.00,0.0314
2843.00,0.0300
2842.00,0.0287
2841.00,0.0274
2840.00,0.0263
2839.00,0.0253
2838.00,0.0244
2837.00,0.0237
2836.00,0.0230
2835.00,0.0225
2834.00,0.0219
2833.00,0.0214
2832.00,0.0209
2831.00,0.0205
2830.00,0.0201
2829.00,0.0197
2828.00,0.0193
2827.00,0.0189
2826.00,0.0186
2825.00,0.0182
2824.00,0.0179
2823.00,0.0176
2822.00,0.0173
2821.00,0.0171
2820.00,0.0168
2819.00,0.0165
2818.00,0.0163
2817.00,0.0161
2816.00,0.0159
2815.00,0.0157
2814.00,0.0155
2813.00,0.0153
2812.00,0.0152
2811.00,0.0150
2810.00,0.0149
2809.00,0.0148
2808.00,0.0147
2807.00,0.0146
2806.00,0.0145
2805.00,0.0143
2804.00,0.0142
2803.00,0.0141
2802.00,0.0140
2801.00,0.0139
2800.00,0.0137
2799.00,0.0136
2798.00,0.0135
2797.00,0.0134
2796.00,0.0133
2795.00,0.0132
2794.00,0.0131
2793.00,0.0130
2792.00,0.0130
2791.00,0.0129
2790.00,0.0128
2789.00,0.0128
2788.00,0.0127
2787.00,0.0127
2786.00,0.0126
2785.00,0.0125
2784.00,0.0125
2783.00,0.0124
2782.00,0.0123
2781.00,0.0122
2780.00,0.0122
2779.00,0.0121
2778.00,0.0121
2777.00,0.0120
2776.00,0.0120
2775.00,0.0119
2774.00,0.0119
2773.00,0.0119
2772.00,0.0118
2771.00,0.0118
2770.00,0.0117
2769.00,0.0117
2768.00,0.0117
2767.00,0.0116
2766.00,0.0116
2765.00,0.0116
2764.00,0.0117
2763.00,0.0117
2762.00,0.0117
2761.00,0.0117
2760.00,0.0117
2759.00,0.0117
2758.00,0.0117
2757.00,0.0117
