Created as New Dataset,Sample 817 By YargerLab Date Friday, July 11 2025
cm-1,A
4000.00,0.0016
3999.00,0.0016
3998.00,0.0016
3997.00,0.0016
3996.00,0.0016
3995.00,0.0016
3994.00,0.0016
3993.00,0.0016
3992.00,0.0016
3991.00,0.0016
3990.00,0.0016
3989.00,0.0016
3988.00,0.0016
3987.00,0.0016
3986.00,0.0016
3985.00,0.0015
3984.00,0.0015
3983.00,0.0015
3982.00,0.0015
3981.00,0.0016
3980.00,0.0016
3979.00,0.0016
3978.00,0.0016
3977.00,0.0016
3976.00,0.0016
3975.00,0.0016
3974.00,0.0016
3973.00,0.0016
3972.00,0.0016
3971.00,0.0016
3970.00,0.0016
3969.00,0.0016
3968.00,0.0016
3967.00,0.0016
3966.00,0.0016
3965.00,0.0016
3964.00,0.0016
3963.00,0.0016
3962.00,0.0016
3961.00,0.0015
3960.00,0.0015
3959.00,0.0015
3958.00,0.0015
3957.00,0.0015
3956.00,0.0016
3955.00,0.0016
3954.00,0.0016
3953.00,0.0015
3952.00,0.0015
3951.00,0.0015
3950.00,0.0015
3949.00,0.0015
3948.00,0.0015
3947.00,0.0015
3946.00,0.0015
3945.00,0.0015
3944.00,0.0015
3943.00,0.0015
3942.00,0.0015
3941.00,0.0015
3940.00,0.0015
3939.00,0.0015
3938.00,0.0015
3937.00,0.0015
3936.00,0.0015
3935.00,0.0015
3934.00,0.0016
3933.00,0.0016
3932.00,0.0015
3931.00,0.0015
3930.00,0.0015
3929.00,0.0015
3928.00,0.0015
3927.00,0.0015
3926.00,0.0015
3925.00,0.0015
3924.00,0.0015
3923.00,0.0015
3922.00,0.0014
3921.00,0.0014
3920.00,0.0014
3919.00,0.0014
3918.00,0.0014
3917.00,0.0015
3916.00,0.0015
3915.00,0.0015
3914.00,0.0014
3913.00,0.0015
3912.00,0.0015
3911.00,0.0015
3910.00,0.0015
3909.00,0.0015
3908.00,0.0015
3907.00,0.0015
3906.00,0.0015
3905.00,0.0015
3904.00,0.0015
3903.00,0.0014
3902.00,0.0013
3901.00,0.0013
3900.00,0.0013
3899.00,0.0013
3898.00,0.0013
3897.00,0.0013
3896.00,0.0014
3895.00,0.0014
3894.00,0.0014
3893.00,0.0014
3892.00,0.0014
3891.00,0.0014
3890.00,0.0014
3889.00,0.0014
3888.00,0.0014
3887.00,0.0014
3886.00,0.0014
3885.00,0.0014
3884.00,0.0013
3883.00,0.0013
3882.00,0.0013
3881.00,0.0013
3880.00,0.0014
3879.00,0.0014
3878.00,0.0013
3877.00,0.0013
3876.00,0.0014
3875.00,0.0014
3874.00,0.0014
3873.00,0.0013
3872.00,0.0013
3871.00,0.0013
3870.00,0.0013
3869.00,0.0013
3868.00,0.0012
3867.00,0.0012
3866.00,0.0012
3865.00,0.0013
3864.00,0.0013
3863.00,0.0013
3862.00,0.0013
3861.00,0.0013
3860.00,0.0014
3859.00,0.0014
3858.00,0.0014
3857.00,0.0014
3856.00,0.0014
3855.00,0.0014
3854.00,0.0014
3853.00,0.0013
3852.00,0.0012
3851.00,0.0012
3850.00,0.0012
3849.00,0.0013
3848.00,0.0013
3847.00,0.0014
3846.00,0.0015
3845.00,0.0015
3844.00,0.0015
3843.00,0.0015
3842.00,0.0014
3841.00,0.0014
3840.00,0.0014
3839.00,0.0013
3838.00,0.0013
3837.00,0.0013
3836.00,0.0013
3835.00,0.0013
3834.00,0.0013
3833.00,0.0014
3832.00,0.0014
3831.00,0.0014
3830.00,0.0014
3829.00,0.0014
3828.00,0.0014
3827.00,0.0014
3826.00,0.0015
3825.00,0.0015
3824.00,0.0014
3823.00,0.0014
3822.00,0.0014
3821.00,0.0014
3820.00,0.0014
3819.00,0.0013
3818.00,0.0012
3817.00,0.0013
3816.00,0.0013
3815.00,0.0013
3814.00,0.0013
3813.00,0.0013
3812.00,0.0014
3811.00,0.0014
3810.00,0.0014
3809.00,0.0015
3808.00,0.0015
3807.00,0.0015
3806.00,0.0014
3805.00,0.0014
3804.00,0.0013
3803.00,0.0013
3802.00,0.0013
3801.00,0.0013
3800.00,0.0013
3799.00,0.0013
3798.00,0.0013
3797.00,0.0013
3796.00,0.0014
3795.00,0.0014
3794.00,0.0014
3793.00,0.0014
3792.00,0.0014
3791.00,0.0014
3790.00,0.0014
3789.00,0.0014
3788.00,0.0014
3787.00,0.0014
3786.00,0.0014
3785.00,0.0015
3784.00,0.0015
3783.00,0.0015
3782.00,0.0015
3781.00,0.0015
3780.00,0.0015
3779.00,0.0015
3778.00,0.0015
3777.00,0.0015
3776.00,0.0015
3775.00,0.0015
3774.00,0.0015
3773.00,0.0015
3772.00,0.0015
3771.00,0.0015
3770.00,0.0014
3769.00,0.0014
3768.00,0.0014
3767.00,0.0014
3766.00,0.0014
3765.00,0.0014
3764.00,0.0015
3763.00,0.0015
3762.00,0.0015
3761.00,0.0015
3760.00,0.0015
3759.00,0.0014
3758.00,0.0014
3757.00,0.0014
3756.00,0.0014
3755.00,0.0014
3754.00,0.0014
3753.00,0.0014
3752.00,0.0014
3751.00,0.0015
3750.00,0.0014
3749.00,0.0014
3748.00,0.0013
3747.00,0.0013
3746.00,0.0013
3745.00,0.0013
3744.00,0.0013
3743.00,0.0012
3742.00,0.0012
3741.00,0.0012
3740.00,0.0012
3739.00,0.0013
3738.00,0.0013
3737.00,0.0014
3736.00,0.0013
3735.00,0.0013
3734.00,0.0012
3733.00,0.0012
3732.00,0.0012
3731.00,0.0013
3730.00,0.0013
3729.00,0.0013
3728.00,0.0014
3727.00,0.0014
3726.00,0.0014
3725.00,0.0014
3724.00,0.0013
3723.00,0.0014
3722.00,0.0014
3721.00,0.0014
3720.00,0.0015
3719.00,0.0015
3718.00,0.0015
3717.00,0.0015
3716.00,0.0015
3715.00,0.0015
3714.00,0.0015
3713.00,0.0014
3712.00,0.0014
3711.00,0.0014
3710.00,0.0013
3709.00,0.0014
3708.00,0.0014
3707.00,0.0015
3706.00,0.0015
3705.00,0.0015
3704.00,0.0015
3703.00,0.0016
3702.00,0.0016
3701.00,0.0016
3700.00,0.0016
3699.00,0.0016
3698.00,0.0016
3697.00,0.0016
3696.00,0.0016
3695.00,0.0016
3694.00,0.0016
3693.00,0.0016
3692.00,0.0017
3691.00,0.0017
3690.00,0.0018
3689.00,0.0019
3688.00,0.0019
3687.00,0.0019
3686.00,0.0020
3685.00,0.0021
3684.00,0.0021
3683.00,0.0022
3682.00,0.0022
3681.00,0.0023
3680.00,0.0023
3679.00,0.0023
3678.00,0.0022
3677.00,0.0023
3676.00,0.0023
3675.00,0.0024
3674.00,0.0024
3673.00,0.0024
3672.00,0.0025
3671.00,0.0026
3670.00,0.0027
3669.00,0.0027
3668.00,0.0027
3667.00,0.0028
3666.00,0.0028
3665.00,0.0029
3664.00,0.0031
3663.00,0.0032
3662.00,0.0032
3661.00,0.0033
3660.00,0.0033
3659.00,0.0033
3658.00,0.0034
3657.00,0.0034
3656.00,0.0035
3655.00,0.0036
3654.00,0.0036
3653.00,0.0035
3652.00,0.0035
3651.00,0.0036
3650.00,0.0037
3649.00,0.0038
3648.00,0.0040
3647.00,0.0042
3646.00,0.0043
3645.00,0.0044
3644.00,0.0045
3643.00,0.0046
3642.00,0.0047
3641.00,0.0048
3640.00,0.0048
3639.00,0.0049
3638.00,0.0050
3637.00,0.0051
3636.00,0.0052
3635.00,0.0054
3634.00,0.0055
3633.00,0.0055
3632.00,0.0055
3631.00,0.0056
3630.00,0.0057
3629.00,0.0060
3628.00,0.0062
3627.00,0.0063
3626.00,0.0063
3625.00,0.0064
3624.00,0.0065
3623.00,0.0066
3622.00,0.0067
3621.00,0.0068
3620.00,0.0071
3619.00,0.0073
3618.00,0.0075
3617.00,0.0076
3616.00,0.0077
3615.00,0.0078
3614.00,0.0080
3613.00,0.0082
3612.00,0.0083
3611.00,0.0084
3610.00,0.0086
3609.00,0.0087
3608.00,0.0089
3607.00,0.0091
3606.00,0.0092
3605.00,0.0093
3604.00,0.0094
3603.00,0.0095
3602.00,0.0097
3601.00,0.0098
3600.00,0.0100
3599.00,0.0101
3598.00,0.0102
3597.00,0.0103
3596.00,0.0105
3595.00,0.0107
3594.00,0.0109
3593.00,0.0110
3592.00,0.0111
3591.00,0.0111
3590.00,0.0113
3589.00,0.0115
3588.00,0.0118
3587.00,0.0122
3586.00,0.0124
3585.00,0.0126
3584.00,0.0127
3583.00,0.0128
3582.00,0.0129
3581.00,0.0131
3580.00,0.0133
3579.00,0.0135
3578.00,0.0137
3577.00,0.0139
3576.00,0.0141
3575.00,0.0143
3574.00,0.0145
3573.00,0.0146
3572.00,0.0147
3571.00,0.0148
3570.00,0.0149
3569.00,0.0151
3568.00,0.0155
3567.00,0.0159
3566.00,0.0163
3565.00,0.0166
3564.00,0.0168
3563.00,0.0169
3562.00,0.0171
3561.00,0.0173
3560.00,0.0175
3559.00,0.0177
3558.00,0.0179
3557.00,0.0181
3556.00,0.0183
3555.00,0.0184
3554.00,0.0187
3553.00,0.0190
3552.00,0.0193
3551.00,0.0195
3550.00,0.0196
3549.00,0.0198
3548.00,0.0200
3547.00,0.0203
3546.00,0.0207
3545.00,0.0210
3544.00,0.0213
3543.00,0.0215
3542.00,0.0217
3541.00,0.0219
3540.00,0.0220
3539.00,0.0222
3538.00,0.0225
3537.00,0.0228
3536.00,0.0231
3535.00,0.0233
3534.00,0.0235
3533.00,0.0237
3532.00,0.0239
3531.00,0.0242
3530.00,0.0245
3529.00,0.0249
3528.00,0.0253
3527.00,0.0257
3526.00,0.0260
3525.00,0.0264
3524.00,0.0267
3523.00,0.0270
3522.00,0.0273
3521.00,0.0275
3520.00,0.0277
3519.00,0.0279
3518.00,0.0281
3517.00,0.0282
3516.00,0.0283
3515.00,0.0284
3514.00,0.0284
3513.00,0.0285
3512.00,0.0286
3511.00,0.0287
3510.00,0.0289
3509.00,0.0291
3508.00,0.0292
3507.00,0.0293
3506.00,0.0294
3505.00,0.0295
3504.00,0.0297
3503.00,0.0299
3502.00,0.0302
3501.00,0.0303
3500.00,0.0305
3499.00,0.0306
3498.00,0.0307
3497.00,0.0309
3496.00,0.0311
3495.00,0.0313
3494.00,0.0315
3493.00,0.0317
3492.00,0.0318
3491.00,0.0320
3490.00,0.0322
3489.00,0.0324
3488.00,0.0326
3487.00,0.0328
3486.00,0.0330
3485.00,0.0332
3484.00,0.0333
3483.00,0.0335
3482.00,0.0338
3481.00,0.0340
3480.00,0.0343
3479.00,0.0344
3478.00,0.0346
3477.00,0.0348
3476.00,0.0349
3475.00,0.0352
3474.00,0.0354
3473.00,0.0356
3472.00,0.0358
3471.00,0.0360
3470.00,0.0362
3469.00,0.0364
3468.00,0.0366
3467.00,0.0368
3466.00,0.0369
3465.00,0.0371
3464.00,0.0373
3463.00,0.0375
3462.00,0.0377
3461.00,0.0380
3460.00,0.0382
3459.00,0.0384
3458.00,0.0385
3457.00,0.0387
3456.00,0.0389
3455.00,0.0391
3454.00,0.0392
3453.00,0.0394
3452.00,0.0395
3451.00,0.0397
3450.00,0.0398
3449.00,0.0400
3448.00,0.0402
3447.00,0.0404
3446.00,0.0406
3445.00,0.0408
3444.00,0.0409
3443.00,0.0410
3442.00,0.0412
3441.00,0.0413
3440.00,0.0415
3439.00,0.0416
3438.00,0.0418
3437.00,0.0419
3436.00,0.0420
3435.00,0.0421
3434.00,0.0422
3433.00,0.0423
3432.00,0.0425
3431.00,0.0426
3430.00,0.0428
3429.00,0.0429
3428.00,0.0430
3427.00,0.0432
3426.00,0.0432
3425.00,0.0433
3424.00,0.0434
3423.00,0.0435
3422.00,0.0436
3421.00,0.0437
3420.00,0.0439
3419.00,0.0440
3418.00,0.0441
3417.00,0.0442
3416.00,0.0443
3415.00,0.0444
3414.00,0.0444
3413.00,0.0445
3412.00,0.0446
3411.00,0.0447
3410.00,0.0448
3409.00,0.0449
3408.00,0.0449
3407.00,0.0449
3406.00,0.0449
3405.00,0.0449
3404.00,0.0450
3403.00,0.0450
3402.00,0.0450
3401.00,0.0450
3400.00,0.0449
3399.00,0.0449
3398.00,0.0448
3397.00,0.0447
3396.00,0.0447
3395.00,0.0446
3394.00,0.0446
3393.00,0.0446
3392.00,0.0446
3391.00,0.0445
3390.00,0.0445
3389.00,0.0444
3388.00,0.0443
3387.00,0.0443
3386.00,0.0442
3385.00,0.0442
3384.00,0.0441
3383.00,0.0441
3382.00,0.0440
3381.00,0.0440
3380.00,0.0439
3379.00,0.0439
3378.00,0.0438
3377.00,0.0438
3376.00,0.0437
3375.00,0.0436
3374.00,0.0436
3373.00,0.0435
3372.00,0.0435
3371.00,0.0434
3370.00,0.0433
3369.00,0.0432
3368.00,0.0431
3367.00,0.0431
3366.00,0.0431
3365.00,0.0430
3364.00,0.0430
3363.00,0.0429
3362.00,0.0428
3361.00,0.0428
3360.00,0.0427
3359.00,0.0427
3358.00,0.0426
3357.00,0.0426
3356.00,0.0426
3355.00,0.0425
3354.00,0.0424
3353.00,0.0422
3352.00,0.0421
3351.00,0.0420
3350.00,0.0419
3349.00,0.0419
3348.00,0.0419
3347.00,0.0419
3346.00,0.0418
3345.00,0.0417
3344.00,0.0416
3343.00,0.0415
3342.00,0.0414
3341.00,0.0413
3340.00,0.0412
3339.00,0.0411
3338.00,0.0410
3337.00,0.0410
3336.00,0.0410
3335.00,0.0410
3334.00,0.0410
3333.00,0.0410
3332.00,0.0409
3331.00,0.0408
3330.00,0.0407
3329.00,0.0406
3328.00,0.0405
3327.00,0.0403
3326.00,0.0402
3325.00,0.0402
3324.00,0.0402
3323.00,0.0402
3322.00,0.0402
3321.00,0.0401
3320.00,0.0401
3319.00,0.0400
3318.00,0.0400
3317.00,0.0399
3316.00,0.0398
3315.00,0.0398
3314.00,0.0397
3313.00,0.0395
3312.00,0.0394
3311.00,0.0392
3310.00,0.0391
3309.00,0.0389
3308.00,0.0388
3307.00,0.0387
3306.00,0.0387
3305.00,0.0388
3304.00,0.0389
3303.00,0.0390
3302.00,0.0390
3301.00,0.0390
3300.00,0.0390
3299.00,0.0388
3298.00,0.0387
3297.00,0.0386
3296.00,0.0384
3295.00,0.0383
3294.00,0.0383
3293.00,0.0382
3292.00,0.0383
3291.00,0.0383
3290.00,0.0384
3289.00,0.0385
3288.00,0.0384
3287.00,0.0384
3286.00,0.0383
3285.00,0.0383
3284.00,0.0382
3283.00,0.0382
3282.00,0.0381
3281.00,0.0380
3280.00,0.0379
3279.00,0.0378
3278.00,0.0376
3277.00,0.0375
3276.00,0.0373
3275.00,0.0372
3274.00,0.0370
3273.00,0.0369
3272.00,0.0368
3271.00,0.0367
3270.00,0.0367
3269.00,0.0368
3268.00,0.0368
3267.00,0.0368
3266.00,0.0367
3265.00,0.0366
3264.00,0.0365
3263.00,0.0364
3262.00,0.0363
3261.00,0.0362
3260.00,0.0360
3259.00,0.0359
3258.00,0.0357
3257.00,0.0356
3256.00,0.0355
3255.00,0.0354
3254.00,0.0353
3253.00,0.0353
3252.00,0.0352
3251.00,0.0350
3250.00,0.0348
3249.00,0.0347
3248.00,0.0345
3247.00,0.0344
3246.00,0.0343
3245.00,0.0343
3244.00,0.0342
3243.00,0.0341
3242.00,0.0340
3241.00,0.0339
3240.00,0.0337
3239.00,0.0336
3238.00,0.0334
3237.00,0.0333
3236.00,0.0331
3235.00,0.0329
3234.00,0.0327
3233.00,0.0326
3232.00,0.0325
3231.00,0.0324
3230.00,0.0323
3229.00,0.0322
3228.00,0.0321
3227.00,0.0320
3226.00,0.0319
3225.00,0.0317
3224.00,0.0316
3223.00,0.0314
3222.00,0.0313
3221.00,0.0312
3220.00,0.0310
3219.00,0.0309
3218.00,0.0308
3217.00,0.0307
3216.00,0.0305
3215.00,0.0304
3214.00,0.0302
3213.00,0.0301
3212.00,0.0299
3211.00,0.0298
3210.00,0.0297
3209.00,0.0296
3208.00,0.0295
3207.00,0.0293
3206.00,0.0292
3205.00,0.0290
3204.00,0.0289
3203.00,0.0288
3202.00,0.0286
3201.00,0.0285
3200.00,0.0284
3199.00,0.0283
3198.00,0.0282
3197.00,0.0280
3196.00,0.0279
3195.00,0.0278
3194.00,0.0276
3193.00,0.0275
3192.00,0.0273
3191.00,0.0272
3190.00,0.0271
3189.00,0.0269
3188.00,0.0268
3187.00,0.0267
3186.00,0.0265
3185.00,0.0264
3184.00,0.0263
3183.00,0.0261
3182.00,0.0260
3181.00,0.0258
3180.00,0.0257
3179.00,0.0256
3178.00,0.0255
3177.00,0.0254
3176.00,0.0253
3175.00,0.0252
3174.00,0.0251
3173.00,0.0249
3172.00,0.0248
3171.00,0.0247
3170.00,0.0245
3169.00,0.0244
3168.00,0.0243
3167.00,0.0242
3166.00,0.0240
3165.00,0.0239
3164.00,0.0238
3163.00,0.0237
3162.00,0.0235
3161.00,0.0234
3160.00,0.0233
3159.00,0.0232
3158.00,0.0231
3157.00,0.0229
3156.00,0.0228
3155.00,0.0226
3154.00,0.0225
3153.00,0.0223
3152.00,0.0222
3151.00,0.0221
3150.00,0.0220
3149.00,0.0220
3148.00,0.0219
3147.00,0.0217
3146.00,0.0216
3145.00,0.0215
3144.00,0.0214
3143.00,0.0212
3142.00,0.0211
3141.00,0.0210
3140.00,0.0209
3139.00,0.0208
3138.00,0.0207
3137.00,0.0206
3136.00,0.0205
3135.00,0.0204
3134.00,0.0203
3133.00,0.0203
3132.00,0.0202
3131.00,0.0200
3130.00,0.0199
3129.00,0.0198
3128.00,0.0198
3127.00,0.0197
3126.00,0.0195
3125.00,0.0194
3124.00,0.0193
3123.00,0.0192
3122.00,0.0191
3121.00,0.0190
3120.00,0.0189
3119.00,0.0188
3118.00,0.0187
3117.00,0.0186
3116.00,0.0186
3115.00,0.0185
3114.00,0.0184
3113.00,0.0184
3112.00,0.0183
3111.00,0.0182
3110.00,0.0181
3109.00,0.0179
3108.00,0.0178
3107.00,0.0178
3106.00,0.0177
3105.00,0.0177
3104.00,0.0176
3103.00,0.0176
3102.00,0.0175
3101.00,0.0174
3100.00,0.0174
3099.00,0.0173
3098.00,0.0172
3097.00,0.0172
3096.00,0.0171
3095.00,0.0171
3094.00,0.0171
3093.00,0.0170
3092.00,0.0169
3091.00,0.0169
3090.00,0.0168
3089.00,0.0168
3088.00,0.0167
3087.00,0.0167
3086.00,0.0166
3085.00,0.0166
3084.00,0.0166
3083.00,0.0166
3082.00,0.0165
3081.00,0.0165
3080.00,0.0165
3079.00,0.0165
3078.00,0.0165
3077.00,0.0165
3076.00,0.0165
3075.00,0.0165
3074.00,0.0165
3073.00,0.0164
3072.00,0.0163
3071.00,0.0162
3070.00,0.0161
3069.00,0.0160
3068.00,0.0159
3067.00,0.0158
3066.00,0.0156
3065.00,0.0155
3064.00,0.0154
3063.00,0.0153
3062.00,0.0152
3061.00,0.0151
3060.00,0.0151
3059.00,0.0150
3058.00,0.0150
3057.00,0.0149
3056.00,0.0149
3055.00,0.0148
3054.00,0.0148
3053.00,0.0148
3052.00,0.0147
3051.00,0.0147
3050.00,0.0147
3049.00,0.0147
3048.00,0.0147
3047.00,0.0148
3046.00,0.0148
3045.00,0.0147
3044.00,0.0147
3043.00,0.0147
3042.00,0.0147
3041.00,0.0147
3040.00,0.0147
3039.00,0.0148
3038.00,0.0148
3037.00,0.0148
3036.00,0.0148
3035.00,0.0148
3034.00,0.0148
3033.00,0.0148
3032.00,0.0148
3031.00,0.0148
3030.00,0.0148
3029.00,0.0147
3028.00,0.0147
3027.00,0.0147
3026.00,0.0146
3025.00,0.0146
3024.00,0.0146
3023.00,0.0146
3022.00,0.0146
3021.00,0.0146
3020.00,0.0146
3019.00,0.0146
3018.00,0.0147
3017.00,0.0148
3016.00,0.0149
3015.00,0.0150
3014.00,0.0151
3013.00,0.0152
3012.00,0.0154
3011.00,0.0156
3010.00,0.0158
3009.00,0.0161
3008.00,0.0164
3007.00,0.0167
3006.00,0.0171
3005.00,0.0174
3004.00,0.0178
3003.00,0.0182
3002.00,0.0187
3001.00,0.0192
3000.00,0.0197
2999.00,0.0202
2998.00,0.0208
2997.00,0.0214
2996.00,0.0221
2995.00,0.0228
2994.00,0.0235
2993.00,0.0243
2992.00,0.0252
2991.00,0.0260
2990.00,0.0269
2989.00,0.0278
2988.00,0.0287
2987.00,0.0297
2986.00,0.0306
2985.00,0.0315
2984.00,0.0324
2983.00,0.0333
2982.00,0.0342
2981.00,0.0352
2980.00,0.0362
2979.00,0.0372
2978.00,0.0383
2977.00,0.0393
2976.00,0.0403
2975.00,0.0413
2974.00,0.0423
2973.00,0.0433
2972.00,0.0443
2971.00,0.0453
2970.00,0.0462
2969.00,0.0472
2968.00,0.0481
2967.00,0.0490
2966.00,0.0498
2965.00,0.0506
2964.00,0.0513
2963.00,0.0520
2962.00,0.0526
2961.00,0.0532
2960.00,0.0537
2959.00,0.0541
2958.00,0.0544
2957.00,0.0546
2956.00,0.0546
2955.00,0.0545
2954.00,0.0543
2953.00,0.0540
2952.00,0.0537
2951.00,0.0532
2950.00,0.0528
2949.00,0.0525
2948.00,0.0524
2947.00,0.0524
2946.00,0.0527
2945.00,0.0531
2944.00,0.0538
2943.00,0.0546
2942.00,0.0555
2941.00,0.0567
2940.00,0.0579
2939.00,0.0593
2938.00,0.0607
2937.00,0.0622
2936.00,0.0637
2935.00,0.0651
2934.00,0.0666
2933.00,0.0678
2932.00,0.0690
2931.00,0.0699
2930.00,0.0707
2929.00,0.0712
2928.00,0.0715
2927.00,0.0715
2926.00,0.0713
2925.00,0.0709
2924.00,0.0703
2923.00,0.0694
2922.00,0.0685
2921.00,0.0674
2920.00,0.0662
2919.00,0.0650
2918.00,0.0638
2917.00,0.0625
2916.00,0.0612
2915.00,0.0599
2914.00,0.0587
2913.00,0.0574
2912.00,0.0562
2911.00,0.0549
2910.00,0.0537
2909.00,0.0526
2908.00,0.0515
2907.00,0.0505
2906.00,0.0496
2905.00,0.0487
2904.00,0.0480
2903.00,0.0473
2902.00,0.0468
2901.00,0.0463
2900.00,0.0459
2899.00,0.0455
2898.00,0.0452
2897.00,0.0448
2896.00,0.0446
2895.00,0.0443
2894.00,0.0441
2893.00,0.0439
2892.00,0.0438
2891.00,0.0436
2890.00,0.0433
2889.00,0.0431
2888.00,0.0429
2887.00,0.0426
2886.00,0.0424
2885.00,0.0422
2884.00,0.0420
2883.00,0.0419
2882.00,0.0419
2881.00,0.0420
2880.00,0.0422
2879.00,0.0424
2878.00,0.0427
2877.00,0.0431
2876.00,0.0435
2875.00,0.0440
2874.00,0.0445
2873.00,0.0449
2872.00,0.0452
2871.00,0.0454
2870.00,0.0454
2869.00,0.0452
2868.00,0.0449
2867.00,0.0446
2866.00,0.0444
2865.00,0.0444
2864.00,0.0445
2863.00,0.0447
2862.00,0.0451
2861.00,0.0455
2860.00,0.0460
2859.00,0.0464
2858.00,0.0466
2857.00,0.0465
2856.00,0.0461
2855.00,0.0455
2854.00,0.0445
2853.00,0.0434
2852.00,0.0420
2851.00,0.0406
2850.00,0.0391
2849.00,0.0376
2848.00,0.0361
2847.00,0.0347
2846.00,0.0333
2845.00,0.0320
2844.00,0.0307
2843.00,0.0294
2842.00,0.0282
2841.00,0.0270
2840.00,0.0260
2839.00,0.0250
2838.00,0.0242
2837.00,0.0235
2836.00,0.0229
2835.00,0.0223
2834.00,0.0218
2833.00,0.0213
2832.00,0.0208
2831.00,0.0203
2830.00,0.0198
2829.00,0.0193
2828.00,0.0187
2827.00,0.0181
2826.00,0.0175
2825.00,0.0169
2824.00,0.0163
2823.00,0.0158
2822.00,0.0154
2821.00,0.0150
2820.00,0.0146
2819.00,0.0143
2818.00,0.0141
2817.00,0.0138
2816.00,0.0136
2815.00,0.0134
2814.00,0.0131
2813.00,0.0130
2812.00,0.0128
2811.00,0.0127
2810.00,0.0125
2809.00,0.0124
2808.00,0.0123
2807.00,0.0121
2806.00,0.0119
2805.00,0.0118
2804.00,0.0117
2803.00,0.0116
2802.00,0.0114
2801.00,0.0113
2800.00,0.0112
2799.00,0.0111
2798.00,0.0110
2797.00,0.0110
2796.00,0.0109
2795.00,0.0108
2794.00,0.0107
2793.00,0.0107
2792.00,0.0106
2791.00,0.0106
2790.00,0.0105
2789.00,0.0104
2788.00,0.0104
2787.00,0.0103
2786.00,0.0103
2785.00,0.0102
2784.00,0.0102
2783.00,0.0102
2782.00,0.0101
2781.00,0.0101
2780.00,0.0100
2779.00,0.0100
2778.00,0.0099
2777.00,0.0099
2776.00,0.0098
2775.00,0.0098
2774.00,0.0097
2773.00,0.0097
2772.00,0.0097
2771.00,0.0097
2770.00,0.0096
2769.00,0.0096
2768.00,0.0096
2767.00,0.0096
2766.00,0.0096
2765.00,0.0096
2764.00,0.0096
2763.00,0.0096
2762.00,0.0096
2761.00,0.0096
2760.00,0.0096
2759.00,0.0095
2758.00,0.0095
2757.00,0.0095
