Created as New Dataset,Sample 979 By YargerLab Date Wednesday, July 30 2025
cm-1,A
4000.00,0.0022
3999.00,0.0022
3998.00,0.0022
3997.00,0.0022
3996.00,0.0022
3995.00,0.0022
3994.00,0.0022
3993.00,0.0022
3992.00,0.0022
3991.00,0.0022
3990.00,0.0022
3989.00,0.0022
3988.00,0.0022
3987.00,0.0022
3986.00,0.0022
3985.00,0.0022
3984.00,0.0022
3983.00,0.0022
3982.00,0.0022
3981.00,0.0022
3980.00,0.0022
3979.00,0.0022
3978.00,0.0022
3977.00,0.0022
3976.00,0.0022
3975.00,0.0022
3974.00,0.0022
3973.00,0.0022
3972.00,0.0021
3971.00,0.0021
3970.00,0.0021
3969.00,0.0021
3968.00,0.0021
3967.00,0.0022
3966.00,0.0022
3965.00,0.0022
3964.00,0.0022
3963.00,0.0022
3962.00,0.0021
3961.00,0.0021
3960.00,0.0021
3959.00,0.0021
3958.00,0.0021
3957.00,0.0021
3956.00,0.0022
3955.00,0.0022
3954.00,0.0022
3953.00,0.0022
3952.00,0.0022
3951.00,0.0022
3950.00,0.0022
3949.00,0.0022
3948.00,0.0022
3947.00,0.0022
3946.00,0.0022
3945.00,0.0022
3944.00,0.0022
3943.00,0.0022
3942.00,0.0022
3941.00,0.0022
3940.00,0.0022
3939.00,0.0022
3938.00,0.0021
3937.00,0.0021
3936.00,0.0021
3935.00,0.0021
3934.00,0.0022
3933.00,0.0021
3932.00,0.0021
3931.00,0.0021
3930.00,0.0021
3929.00,0.0022
3928.00,0.0022
3927.00,0.0022
3926.00,0.0022
3925.00,0.0022
3924.00,0.0022
3923.00,0.0022
3922.00,0.0022
3921.00,0.0022
3920.00,0.0022
3919.00,0.0022
3918.00,0.0022
3917.00,0.0022
3916.00,0.0022
3915.00,0.0021
3914.00,0.0021
3913.00,0.0021
3912.00,0.0021
3911.00,0.0021
3910.00,0.0021
3909.00,0.0021
3908.00,0.0021
3907.00,0.0021
3906.00,0.0021
3905.00,0.0022
3904.00,0.0022
3903.00,0.0022
3902.00,0.0022
3901.00,0.0022
3900.00,0.0021
3899.00,0.0021
3898.00,0.0021
3897.00,0.0021
3896.00,0.0022
3895.00,0.0022
3894.00,0.0021
3893.00,0.0021
3892.00,0.0021
3891.00,0.0021
3890.00,0.0021
3889.00,0.0022
3888.00,0.0022
3887.00,0.0022
3886.00,0.0022
3885.00,0.0022
3884.00,0.0022
3883.00,0.0022
3882.00,0.0022
3881.00,0.0022
3880.00,0.0022
3879.00,0.0022
3878.00,0.0022
3877.00,0.0021
3876.00,0.0021
3875.00,0.0021
3874.00,0.0022
3873.00,0.0022
3872.00,0.0022
3871.00,0.0022
3870.00,0.0022
3869.00,0.0022
3868.00,0.0022
3867.00,0.0022
3866.00,0.0022
3865.00,0.0021
3864.00,0.0021
3863.00,0.0022
3862.00,0.0022
3861.00,0.0022
3860.00,0.0022
3859.00,0.0022
3858.00,0.0022
3857.00,0.0022
3856.00,0.0021
3855.00,0.0021
3854.00,0.0021
3853.00,0.0022
3852.00,0.0022
3851.00,0.0022
3850.00,0.0021
3849.00,0.0021
3848.00,0.0021
3847.00,0.0021
3846.00,0.0021
3845.00,0.0022
3844.00,0.0022
3843.00,0.0022
3842.00,0.0022
3841.00,0.0022
3840.00,0.0022
3839.00,0.0022
3838.00,0.0022
3837.00,0.0022
3836.00,0.0022
3835.00,0.0022
3834.00,0.0022
3833.00,0.0022
3832.00,0.0022
3831.00,0.0022
3830.00,0.0022
3829.00,0.0022
3828.00,0.0022
3827.00,0.0022
3826.00,0.0022
3825.00,0.0022
3824.00,0.0022
3823.00,0.0022
3822.00,0.0022
3821.00,0.0023
3820.00,0.0023
3819.00,0.0023
3818.00,0.0022
3817.00,0.0022
3816.00,0.0022
3815.00,0.0022
3814.00,0.0022
3813.00,0.0022
3812.00,0.0021
3811.00,0.0021
3810.00,0.0021
3809.00,0.0021
3808.00,0.0022
3807.00,0.0022
3806.00,0.0022
3805.00,0.0022
3804.00,0.0022
3803.00,0.0021
3802.00,0.0021
3801.00,0.0021
3800.00,0.0021
3799.00,0.0022
3798.00,0.0021
3797.00,0.0021
3796.00,0.0021
3795.00,0.0022
3794.00,0.0022
3793.00,0.0022
3792.00,0.0021
3791.00,0.0021
3790.00,0.0021
3789.00,0.0021
3788.00,0.0022
3787.00,0.0022
3786.00,0.0022
3785.00,0.0022
3784.00,0.0022
3783.00,0.0022
3782.00,0.0022
3781.00,0.0022
3780.00,0.0022
3779.00,0.0022
3778.00,0.0022
3777.00,0.0022
3776.00,0.0021
3775.00,0.0021
3774.00,0.0021
3773.00,0.0022
3772.00,0.0022
3771.00,0.0022
3770.00,0.0022
3769.00,0.0023
3768.00,0.0023
3767.00,0.0023
3766.00,0.0022
3765.00,0.0022
3764.00,0.0022
3763.00,0.0022
3762.00,0.0022
3761.00,0.0022
3760.00,0.0022
3759.00,0.0022
3758.00,0.0022
3757.00,0.0022
3756.00,0.0022
3755.00,0.0023
3754.00,0.0023
3753.00,0.0023
3752.00,0.0023
3751.00,0.0023
3750.00,0.0023
3749.00,0.0023
3748.00,0.0023
3747.00,0.0023
3746.00,0.0022
3745.00,0.0022
3744.00,0.0022
3743.00,0.0022
3742.00,0.0022
3741.00,0.0022
3740.00,0.0022
3739.00,0.0022
3738.00,0.0022
3737.00,0.0022
3736.00,0.0022
3735.00,0.0022
3734.00,0.0021
3733.00,0.0021
3732.00,0.0021
3731.00,0.0021
3730.00,0.0021
3729.00,0.0021
3728.00,0.0021
3727.00,0.0021
3726.00,0.0022
3725.00,0.0022
3724.00,0.0022
3723.00,0.0022
3722.00,0.0022
3721.00,0.0022
3720.00,0.0022
3719.00,0.0022
3718.00,0.0021
3717.00,0.0021
3716.00,0.0022
3715.00,0.0022
3714.00,0.0022
3713.00,0.0022
3712.00,0.0022
3711.00,0.0023
3710.00,0.0022
3709.00,0.0022
3708.00,0.0021
3707.00,0.0021
3706.00,0.0021
3705.00,0.0021
3704.00,0.0021
3703.00,0.0020
3702.00,0.0020
3701.00,0.0020
3700.00,0.0020
3699.00,0.0021
3698.00,0.0021
3697.00,0.0021
3696.00,0.0021
3695.00,0.0022
3694.00,0.0022
3693.00,0.0022
3692.00,0.0022
3691.00,0.0023
3690.00,0.0023
3689.00,0.0023
3688.00,0.0023
3687.00,0.0024
3686.00,0.0024
3685.00,0.0024
3684.00,0.0024
3683.00,0.0024
3682.00,0.0024
3681.00,0.0024
3680.00,0.0025
3679.00,0.0025
3678.00,0.0026
3677.00,0.0026
3676.00,0.0026
3675.00,0.0026
3674.00,0.0027
3673.00,0.0027
3672.00,0.0027
3671.00,0.0027
3670.00,0.0027
3669.00,0.0027
3668.00,0.0026
3667.00,0.0026
3666.00,0.0026
3665.00,0.0026
3664.00,0.0026
3663.00,0.0027
3662.00,0.0027
3661.00,0.0028
3660.00,0.0028
3659.00,0.0028
3658.00,0.0028
3657.00,0.0028
3656.00,0.0029
3655.00,0.0030
3654.00,0.0030
3653.00,0.0030
3652.00,0.0031
3651.00,0.0031
3650.00,0.0032
3649.00,0.0032
3648.00,0.0033
3647.00,0.0033
3646.00,0.0033
3645.00,0.0033
3644.00,0.0033
3643.00,0.0033
3642.00,0.0033
3641.00,0.0034
3640.00,0.0034
3639.00,0.0034
3638.00,0.0034
3637.00,0.0034
3636.00,0.0035
3635.00,0.0035
3634.00,0.0035
3633.00,0.0036
3632.00,0.0036
3631.00,0.0036
3630.00,0.0036
3629.00,0.0037
3628.00,0.0037
3627.00,0.0037
3626.00,0.0038
3625.00,0.0038
3624.00,0.0039
3623.00,0.0039
3622.00,0.0040
3621.00,0.0040
3620.00,0.0040
3619.00,0.0040
3618.00,0.0041
3617.00,0.0042
3616.00,0.0043
3615.00,0.0043
3614.00,0.0044
3613.00,0.0044
3612.00,0.0045
3611.00,0.0045
3610.00,0.0045
3609.00,0.0046
3608.00,0.0046
3607.00,0.0047
3606.00,0.0047
3605.00,0.0048
3604.00,0.0048
3603.00,0.0048
3602.00,0.0049
3601.00,0.0049
3600.00,0.0050
3599.00,0.0051
3598.00,0.0051
3597.00,0.0052
3596.00,0.0052
3595.00,0.0053
3594.00,0.0054
3593.00,0.0055
3592.00,0.0055
3591.00,0.0056
3590.00,0.0056
3589.00,0.0057
3588.00,0.0057
3587.00,0.0058
3586.00,0.0059
3585.00,0.0060
3584.00,0.0060
3583.00,0.0061
3582.00,0.0061
3581.00,0.0062
3580.00,0.0062
3579.00,0.0063
3578.00,0.0064
3577.00,0.0064
3576.00,0.0065
3575.00,0.0066
3574.00,0.0067
3573.00,0.0068
3572.00,0.0069
3571.00,0.0069
3570.00,0.0070
3569.00,0.0071
3568.00,0.0072
3567.00,0.0073
3566.00,0.0073
3565.00,0.0074
3564.00,0.0074
3563.00,0.0075
3562.00,0.0075
3561.00,0.0075
3560.00,0.0076
3559.00,0.0076
3558.00,0.0077
3557.00,0.0078
3556.00,0.0078
3555.00,0.0079
3554.00,0.0080
3553.00,0.0080
3552.00,0.0081
3551.00,0.0082
3550.00,0.0082
3549.00,0.0083
3548.00,0.0084
3547.00,0.0084
3546.00,0.0085
3545.00,0.0086
3544.00,0.0086
3543.00,0.0087
3542.00,0.0087
3541.00,0.0087
3540.00,0.0087
3539.00,0.0088
3538.00,0.0088
3537.00,0.0089
3536.00,0.0089
3535.00,0.0090
3534.00,0.0090
3533.00,0.0091
3532.00,0.0091
3531.00,0.0091
3530.00,0.0091
3529.00,0.0092
3528.00,0.0093
3527.00,0.0093
3526.00,0.0094
3525.00,0.0094
3524.00,0.0094
3523.00,0.0095
3522.00,0.0095
3521.00,0.0096
3520.00,0.0096
3519.00,0.0096
3518.00,0.0096
3517.00,0.0097
3516.00,0.0097
3515.00,0.0097
3514.00,0.0098
3513.00,0.0098
3512.00,0.0098
3511.00,0.0099
3510.00,0.0099
3509.00,0.0099
3508.00,0.0100
3507.00,0.0100
3506.00,0.0101
3505.00,0.0102
3504.00,0.0102
3503.00,0.0103
3502.00,0.0103
3501.00,0.0103
3500.00,0.0103
3499.00,0.0103
3498.00,0.0103
3497.00,0.0103
3496.00,0.0104
3495.00,0.0104
3494.00,0.0105
3493.00,0.0105
3492.00,0.0106
3491.00,0.0106
3490.00,0.0106
3489.00,0.0107
3488.00,0.0107
3487.00,0.0107
3486.00,0.0107
3485.00,0.0107
3484.00,0.0108
3483.00,0.0108
3482.00,0.0108
3481.00,0.0109
3480.00,0.0109
3479.00,0.0109
3478.00,0.0110
3477.00,0.0110
3476.00,0.0110
3475.00,0.0110
3474.00,0.0111
3473.00,0.0111
3472.00,0.0111
3471.00,0.0112
3470.00,0.0112
3469.00,0.0112
3468.00,0.0113
3467.00,0.0113
3466.00,0.0113
3465.00,0.0113
3464.00,0.0113
3463.00,0.0113
3462.00,0.0113
3461.00,0.0114
3460.00,0.0114
3459.00,0.0114
3458.00,0.0114
3457.00,0.0114
3456.00,0.0114
3455.00,0.0115
3454.00,0.0115
3453.00,0.0115
3452.00,0.0115
3451.00,0.0115
3450.00,0.0115
3449.00,0.0115
3448.00,0.0115
3447.00,0.0116
3446.00,0.0116
3445.00,0.0116
3444.00,0.0116
3443.00,0.0115
3442.00,0.0115
3441.00,0.0115
3440.00,0.0115
3439.00,0.0115
3438.00,0.0115
3437.00,0.0116
3436.00,0.0116
3435.00,0.0116
3434.00,0.0116
3433.00,0.0116
3432.00,0.0116
3431.00,0.0116
3430.00,0.0116
3429.00,0.0115
3428.00,0.0115
3427.00,0.0115
3426.00,0.0115
3425.00,0.0115
3424.00,0.0115
3423.00,0.0115
3422.00,0.0115
3421.00,0.0115
3420.00,0.0115
3419.00,0.0115
3418.00,0.0115
3417.00,0.0115
3416.00,0.0115
3415.00,0.0115
3414.00,0.0114
3413.00,0.0114
3412.00,0.0114
3411.00,0.0114
3410.00,0.0114
3409.00,0.0114
3408.00,0.0114
3407.00,0.0114
3406.00,0.0114
3405.00,0.0114
3404.00,0.0113
3403.00,0.0113
3402.00,0.0113
3401.00,0.0113
3400.00,0.0113
3399.00,0.0113
3398.00,0.0113
3397.00,0.0113
3396.00,0.0113
3395.00,0.0113
3394.00,0.0113
3393.00,0.0112
3392.00,0.0112
3391.00,0.0113
3390.00,0.0113
3389.00,0.0113
3388.00,0.0113
3387.00,0.0113
3386.00,0.0113
3385.00,0.0113
3384.00,0.0113
3383.00,0.0113
3382.00,0.0113
3381.00,0.0113
3380.00,0.0112
3379.00,0.0112
3378.00,0.0112
3377.00,0.0112
3376.00,0.0112
3375.00,0.0112
3374.00,0.0112
3373.00,0.0112
3372.00,0.0111
3371.00,0.0111
3370.00,0.0111
3369.00,0.0111
3368.00,0.0111
3367.00,0.0111
3366.00,0.0111
3365.00,0.0112
3364.00,0.0112
3363.00,0.0112
3362.00,0.0112
3361.00,0.0112
3360.00,0.0112
3359.00,0.0112
3358.00,0.0112
3357.00,0.0112
3356.00,0.0112
3355.00,0.0112
3354.00,0.0112
3353.00,0.0111
3352.00,0.0111
3351.00,0.0111
3350.00,0.0111
3349.00,0.0112
3348.00,0.0112
3347.00,0.0112
3346.00,0.0112
3345.00,0.0111
3344.00,0.0111
3343.00,0.0111
3342.00,0.0111
3341.00,0.0111
3340.00,0.0111
3339.00,0.0111
3338.00,0.0110
3337.00,0.0111
3336.00,0.0111
3335.00,0.0111
3334.00,0.0112
3333.00,0.0112
3332.00,0.0112
3331.00,0.0112
3330.00,0.0111
3329.00,0.0111
3328.00,0.0110
3327.00,0.0110
3326.00,0.0110
3325.00,0.0110
3324.00,0.0111
3323.00,0.0111
3322.00,0.0111
3321.00,0.0111
3320.00,0.0111
3319.00,0.0111
3318.00,0.0111
3317.00,0.0111
3316.00,0.0111
3315.00,0.0111
3314.00,0.0111
3313.00,0.0111
3312.00,0.0110
3311.00,0.0110
3310.00,0.0109
3309.00,0.0108
3308.00,0.0108
3307.00,0.0108
3306.00,0.0108
3305.00,0.0108
3304.00,0.0109
3303.00,0.0110
3302.00,0.0111
3301.00,0.0111
3300.00,0.0111
3299.00,0.0111
3298.00,0.0110
3297.00,0.0110
3296.00,0.0110
3295.00,0.0110
3294.00,0.0110
3293.00,0.0111
3292.00,0.0111
3291.00,0.0111
3290.00,0.0112
3289.00,0.0112
3288.00,0.0112
3287.00,0.0112
3286.00,0.0112
3285.00,0.0112
3284.00,0.0112
3283.00,0.0112
3282.00,0.0112
3281.00,0.0111
3280.00,0.0111
3279.00,0.0111
3278.00,0.0111
3277.00,0.0111
3276.00,0.0110
3275.00,0.0110
3274.00,0.0110
3273.00,0.0110
3272.00,0.0110
3271.00,0.0110
3270.00,0.0110
3269.00,0.0110
3268.00,0.0110
3267.00,0.0110
3266.00,0.0110
3265.00,0.0111
3264.00,0.0111
3263.00,0.0111
3262.00,0.0111
3261.00,0.0111
3260.00,0.0111
3259.00,0.0111
3258.00,0.0110
3257.00,0.0110
3256.00,0.0110
3255.00,0.0110
3254.00,0.0110
3253.00,0.0110
3252.00,0.0110
3251.00,0.0110
3250.00,0.0110
3249.00,0.0109
3248.00,0.0109
3247.00,0.0109
3246.00,0.0109
3245.00,0.0109
3244.00,0.0109
3243.00,0.0109
3242.00,0.0109
3241.00,0.0109
3240.00,0.0109
3239.00,0.0109
3238.00,0.0109
3237.00,0.0109
3236.00,0.0109
3235.00,0.0109
3234.00,0.0109
3233.00,0.0109
3232.00,0.0109
3231.00,0.0109
3230.00,0.0109
3229.00,0.0109
3228.00,0.0109
3227.00,0.0109
3226.00,0.0109
3225.00,0.0108
3224.00,0.0108
3223.00,0.0108
3222.00,0.0108
3221.00,0.0108
3220.00,0.0108
3219.00,0.0108
3218.00,0.0108
3217.00,0.0108
3216.00,0.0108
3215.00,0.0108
3214.00,0.0108
3213.00,0.0108
3212.00,0.0108
3211.00,0.0107
3210.00,0.0107
3209.00,0.0107
3208.00,0.0106
3207.00,0.0106
3206.00,0.0106
3205.00,0.0106
3204.00,0.0105
3203.00,0.0105
3202.00,0.0105
3201.00,0.0105
3200.00,0.0105
3199.00,0.0105
3198.00,0.0105
3197.00,0.0105
3196.00,0.0105
3195.00,0.0105
3194.00,0.0105
3193.00,0.0105
3192.00,0.0105
3191.00,0.0104
3190.00,0.0104
3189.00,0.0104
3188.00,0.0104
3187.00,0.0104
3186.00,0.0104
3185.00,0.0104
3184.00,0.0104
3183.00,0.0104
3182.00,0.0104
3181.00,0.0103
3180.00,0.0103
3179.00,0.0103
3178.00,0.0103
3177.00,0.0103
3176.00,0.0103
3175.00,0.0103
3174.00,0.0103
3173.00,0.0103
3172.00,0.0103
3171.00,0.0103
3170.00,0.0103
3169.00,0.0103
3168.00,0.0102
3167.00,0.0102
3166.00,0.0102
3165.00,0.0102
3164.00,0.0102
3163.00,0.0101
3162.00,0.0101
3161.00,0.0101
3160.00,0.0100
3159.00,0.0100
3158.00,0.0100
3157.00,0.0099
3156.00,0.0099
3155.00,0.0099
3154.00,0.0099
3153.00,0.0099
3152.00,0.0099
3151.00,0.0099
3150.00,0.0099
3149.00,0.0099
3148.00,0.0099
3147.00,0.0098
3146.00,0.0098
3145.00,0.0098
3144.00,0.0098
3143.00,0.0098
3142.00,0.0098
3141.00,0.0097
3140.00,0.0097
3139.00,0.0097
3138.00,0.0097
3137.00,0.0097
3136.00,0.0097
3135.00,0.0096
3134.00,0.0096
3133.00,0.0096
3132.00,0.0096
3131.00,0.0096
3130.00,0.0096
3129.00,0.0096
3128.00,0.0096
3127.00,0.0096
3126.00,0.0095
3125.00,0.0095
3124.00,0.0095
3123.00,0.0095
3122.00,0.0095
3121.00,0.0095
3120.00,0.0095
3119.00,0.0095
3118.00,0.0095
3117.00,0.0095
3116.00,0.0095
3115.00,0.0095
3114.00,0.0095
3113.00,0.0094
3112.00,0.0094
3111.00,0.0093
3110.00,0.0093
3109.00,0.0092
3108.00,0.0092
3107.00,0.0092
3106.00,0.0092
3105.00,0.0091
3104.00,0.0091
3103.00,0.0091
3102.00,0.0091
3101.00,0.0091
3100.00,0.0091
3099.00,0.0091
3098.00,0.0090
3097.00,0.0090
3096.00,0.0090
3095.00,0.0090
3094.00,0.0090
3093.00,0.0090
3092.00,0.0091
3091.00,0.0091
3090.00,0.0091
3089.00,0.0091
3088.00,0.0091
3087.00,0.0091
3086.00,0.0091
3085.00,0.0091
3084.00,0.0091
3083.00,0.0091
3082.00,0.0091
3081.00,0.0091
3080.00,0.0091
3079.00,0.0091
3078.00,0.0091
3077.00,0.0090
3076.00,0.0090
3075.00,0.0090
3074.00,0.0090
3073.00,0.0090
3072.00,0.0090
3071.00,0.0090
3070.00,0.0090
3069.00,0.0089
3068.00,0.0089
3067.00,0.0088
3066.00,0.0088
3065.00,0.0088
3064.00,0.0087
3063.00,0.0087
3062.00,0.0087
3061.00,0.0087
3060.00,0.0087
3059.00,0.0087
3058.00,0.0086
3057.00,0.0086
3056.00,0.0086
3055.00,0.0086
3054.00,0.0086
3053.00,0.0086
3052.00,0.0086
3051.00,0.0085
3050.00,0.0085
3049.00,0.0085
3048.00,0.0085
3047.00,0.0085
3046.00,0.0085
3045.00,0.0085
3044.00,0.0085
3043.00,0.0085
3042.00,0.0085
3041.00,0.0084
3040.00,0.0084
3039.00,0.0084
3038.00,0.0084
3037.00,0.0084
3036.00,0.0084
3035.00,0.0084
3034.00,0.0084
3033.00,0.0084
3032.00,0.0084
3031.00,0.0084
3030.00,0.0084
3029.00,0.0084
3028.00,0.0084
3027.00,0.0083
3026.00,0.0083
3025.00,0.0083
3024.00,0.0083
3023.00,0.0083
3022.00,0.0083
3021.00,0.0083
3020.00,0.0083
3019.00,0.0084
3018.00,0.0084
3017.00,0.0085
3016.00,0.0085
3015.00,0.0085
3014.00,0.0086
3013.00,0.0087
3012.00,0.0088
3011.00,0.0089
3010.00,0.0090
3009.00,0.0092
3008.00,0.0093
3007.00,0.0095
3006.00,0.0096
3005.00,0.0098
3004.00,0.0100
3003.00,0.0103
3002.00,0.0105
3001.00,0.0108
3000.00,0.0111
2999.00,0.0115
2998.00,0.0118
2997.00,0.0122
2996.00,0.0126
2995.00,0.0130
2994.00,0.0134
2993.00,0.0139
2992.00,0.0143
2991.00,0.0148
2990.00,0.0153
2989.00,0.0158
2988.00,0.0162
2987.00,0.0167
2986.00,0.0171
2985.00,0.0176
2984.00,0.0179
2983.00,0.0183
2982.00,0.0186
2981.00,0.0190
2980.00,0.0193
2979.00,0.0196
2978.00,0.0198
2977.00,0.0200
2976.00,0.0202
2975.00,0.0204
2974.00,0.0206
2973.00,0.0208
2972.00,0.0210
2971.00,0.0212
2970.00,0.0214
2969.00,0.0217
2968.00,0.0219
2967.00,0.0222
2966.00,0.0225
2965.00,0.0228
2964.00,0.0231
2963.00,0.0234
2962.00,0.0238
2961.00,0.0241
2960.00,0.0244
2959.00,0.0247
2958.00,0.0250
2957.00,0.0252
2956.00,0.0255
2955.00,0.0256
2954.00,0.0258
2953.00,0.0259
2952.00,0.0259
2951.00,0.0259
2950.00,0.0258
2949.00,0.0258
2948.00,0.0257
2947.00,0.0256
2946.00,0.0256
2945.00,0.0255
2944.00,0.0255
2943.00,0.0255
2942.00,0.0255
2941.00,0.0256
2940.00,0.0257
2939.00,0.0258
2938.00,0.0259
2937.00,0.0261
2936.00,0.0263
2935.00,0.0265
2934.00,0.0268
2933.00,0.0270
2932.00,0.0273
2931.00,0.0275
2930.00,0.0277
2929.00,0.0280
2928.00,0.0281
2927.00,0.0283
2926.00,0.0284
2925.00,0.0284
2924.00,0.0283
2923.00,0.0283
2922.00,0.0282
2921.00,0.0280
2920.00,0.0278
2919.00,0.0275
2918.00,0.0272
2917.00,0.0269
2916.00,0.0265
2915.00,0.0261
2914.00,0.0257
2913.00,0.0252
2912.00,0.0247
2911.00,0.0242
2910.00,0.0237
2909.00,0.0233
2908.00,0.0228
2907.00,0.0225
2906.00,0.0221
2905.00,0.0218
2904.00,0.0216
2903.00,0.0213
2902.00,0.0211
2901.00,0.0210
2900.00,0.0209
2899.00,0.0208
2898.00,0.0207
2897.00,0.0206
2896.00,0.0206
2895.00,0.0205
2894.00,0.0205
2893.00,0.0205
2892.00,0.0205
2891.00,0.0204
2890.00,0.0204
2889.00,0.0203
2888.00,0.0202
2887.00,0.0202
2886.00,0.0201
2885.00,0.0201
2884.00,0.0201
2883.00,0.0201
2882.00,0.0201
2881.00,0.0201
2880.00,0.0202
2879.00,0.0203
2878.00,0.0204
2877.00,0.0204
2876.00,0.0205
2875.00,0.0206
2874.00,0.0207
2873.00,0.0209
2872.00,0.0209
2871.00,0.0210
2870.00,0.0209
2869.00,0.0209
2868.00,0.0208
2867.00,0.0207
2866.00,0.0207
2865.00,0.0206
2864.00,0.0206
2863.00,0.0206
2862.00,0.0206
2861.00,0.0206
2860.00,0.0207
2859.00,0.0207
2858.00,0.0206
2857.00,0.0205
2856.00,0.0203
2855.00,0.0199
2854.00,0.0196
2853.00,0.0192
2852.00,0.0187
2851.00,0.0183
2850.00,0.0177
2849.00,0.0172
2848.00,0.0167
2847.00,0.0162
2846.00,0.0156
2845.00,0.0151
2844.00,0.0147
2843.00,0.0142
2842.00,0.0137
2841.00,0.0133
2840.00,0.0129
2839.00,0.0126
2838.00,0.0123
2837.00,0.0120
2836.00,0.0117
2835.00,0.0115
2834.00,0.0112
2833.00,0.0110
2832.00,0.0107
2831.00,0.0105
2830.00,0.0103
2829.00,0.0101
2828.00,0.0099
2827.00,0.0097
2826.00,0.0095
2825.00,0.0093
2824.00,0.0092
2823.00,0.0090
2822.00,0.0088
2821.00,0.0087
2820.00,0.0085
2819.00,0.0084
2818.00,0.0083
2817.00,0.0082
2816.00,0.0081
2815.00,0.0080
2814.00,0.0079
2813.00,0.0078
2812.00,0.0076
2811.00,0.0075
2810.00,0.0074
2809.00,0.0074
2808.00,0.0073
2807.00,0.0072
2806.00,0.0071
2805.00,0.0070
2804.00,0.0069
2803.00,0.0069
2802.00,0.0068
2801.00,0.0068
2800.00,0.0067
2799.00,0.0067
2798.00,0.0066
2797.00,0.0066
2796.00,0.0065
2795.00,0.0065
2794.00,0.0064
2793.00,0.0064
2792.00,0.0064
2791.00,0.0063
2790.00,0.0063
2789.00,0.0063
2788.00,0.0062
2787.00,0.0062
2786.00,0.0062
2785.00,0.0061
2784.00,0.0061
2783.00,0.0061
2782.00,0.0060
2781.00,0.0060
2780.00,0.0060
2779.00,0.0059
2778.00,0.0059
2777.00,0.0058
2776.00,0.0058
2775.00,0.0058
2774.00,0.0058
2773.00,0.0057
2772.00,0.0057
2771.00,0.0057
2770.00,0.0057
2769.00,0.0056
2768.00,0.0056
2767.00,0.0056
2766.00,0.0056
2765.00,0.0056
2764.00,0.0056
2763.00,0.0055
2762.00,0.0055
2761.00,0.0056
2760.00,0.0056
2759.00,0.0055
2758.00,0.0055
2757.00,0.0055
