Created as New Dataset,Sample 578 By YargerLab Date Thursday, June 05 2025
cm-1,A
4000.00,0.0004
3999.00,0.0004
3998.00,0.0004
3997.00,0.0004
3996.00,0.0004
3995.00,0.0004
3994.00,0.0004
3993.00,0.0004
3992.00,0.0004
3991.00,0.0003
3990.00,0.0003
3989.00,0.0003
3988.00,0.0004
3987.00,0.0004
3986.00,0.0004
3985.00,0.0004
3984.00,0.0004
3983.00,0.0004
3982.00,0.0004
3981.00,0.0004
3980.00,0.0004
3979.00,0.0004
3978.00,0.0004
3977.00,0.0004
3976.00,0.0004
3975.00,0.0004
3974.00,0.0004
3973.00,0.0004
3972.00,0.0004
3971.00,0.0004
3970.00,0.0004
3969.00,0.0003
3968.00,0.0003
3967.00,0.0003
3966.00,0.0004
3965.00,0.0004
3964.00,0.0004
3963.00,0.0004
3962.00,0.0004
3961.00,0.0004
3960.00,0.0004
3959.00,0.0004
3958.00,0.0004
3957.00,0.0004
3956.00,0.0003
3955.00,0.0003
3954.00,0.0003
3953.00,0.0003
3952.00,0.0004
3951.00,0.0004
3950.00,0.0004
3949.00,0.0004
3948.00,0.0004
3947.00,0.0004
3946.00,0.0004
3945.00,0.0004
3944.00,0.0004
3943.00,0.0004
3942.00,0.0003
3941.00,0.0003
3940.00,0.0003
3939.00,0.0003
3938.00,0.0003
3937.00,0.0003
3936.00,0.0003
3935.00,0.0003
3934.00,0.0003
3933.00,0.0003
3932.00,0.0003
3931.00,0.0003
3930.00,0.0003
3929.00,0.0003
3928.00,0.0003
3927.00,0.0004
3926.00,0.0004
3925.00,0.0004
3924.00,0.0004
3923.00,0.0003
3922.00,0.0003
3921.00,0.0003
3920.00,0.0003
3919.00,0.0003
3918.00,0.0003
3917.00,0.0003
3916.00,0.0003
3915.00,0.0004
3914.00,0.0004
3913.00,0.0004
3912.00,0.0004
3911.00,0.0004
3910.00,0.0003
3909.00,0.0003
3908.00,0.0003
3907.00,0.0003
3906.00,0.0003
3905.00,0.0003
3904.00,0.0003
3903.00,0.0003
3902.00,0.0002
3901.00,0.0003
3900.00,0.0003
3899.00,0.0003
3898.00,0.0003
3897.00,0.0003
3896.00,0.0003
3895.00,0.0003
3894.00,0.0003
3893.00,0.0003
3892.00,0.0003
3891.00,0.0003
3890.00,0.0004
3889.00,0.0004
3888.00,0.0003
3887.00,0.0003
3886.00,0.0003
3885.00,0.0002
3884.00,0.0002
3883.00,0.0003
3882.00,0.0003
3881.00,0.0003
3880.00,0.0003
3879.00,0.0003
3878.00,0.0003
3877.00,0.0003
3876.00,0.0002
3875.00,0.0002
3874.00,0.0002
3873.00,0.0002
3872.00,0.0003
3871.00,0.0003
3870.00,0.0003
3869.00,0.0003
3868.00,0.0003
3867.00,0.0003
3866.00,0.0003
3865.00,0.0003
3864.00,0.0003
3863.00,0.0003
3862.00,0.0004
3861.00,0.0004
3860.00,0.0004
3859.00,0.0004
3858.00,0.0004
3857.00,0.0004
3856.00,0.0004
3855.00,0.0004
3854.00,0.0004
3853.00,0.0003
3852.00,0.0003
3851.00,0.0004
3850.00,0.0003
3849.00,0.0003
3848.00,0.0003
3847.00,0.0003
3846.00,0.0003
3845.00,0.0003
3844.00,0.0003
3843.00,0.0003
3842.00,0.0003
3841.00,0.0003
3840.00,0.0003
3839.00,0.0003
3838.00,0.0003
3837.00,0.0003
3836.00,0.0003
3835.00,0.0003
3834.00,0.0003
3833.00,0.0003
3832.00,0.0003
3831.00,0.0003
3830.00,0.0004
3829.00,0.0004
3828.00,0.0004
3827.00,0.0003
3826.00,0.0003
3825.00,0.0003
3824.00,0.0003
3823.00,0.0003
3822.00,0.0003
3821.00,0.0003
3820.00,0.0003
3819.00,0.0003
3818.00,0.0003
3817.00,0.0003
3816.00,0.0003
3815.00,0.0003
3814.00,0.0003
3813.00,0.0004
3812.00,0.0004
3811.00,0.0004
3810.00,0.0004
3809.00,0.0004
3808.00,0.0004
3807.00,0.0004
3806.00,0.0004
3805.00,0.0004
3804.00,0.0004
3803.00,0.0004
3802.00,0.0004
3801.00,0.0004
3800.00,0.0004
3799.00,0.0004
3798.00,0.0003
3797.00,0.0003
3796.00,0.0004
3795.00,0.0004
3794.00,0.0004
3793.00,0.0004
3792.00,0.0004
3791.00,0.0004
3790.00,0.0004
3789.00,0.0004
3788.00,0.0004
3787.00,0.0004
3786.00,0.0004
3785.00,0.0004
3784.00,0.0004
3783.00,0.0004
3782.00,0.0005
3781.00,0.0005
3780.00,0.0004
3779.00,0.0004
3778.00,0.0004
3777.00,0.0004
3776.00,0.0004
3775.00,0.0004
3774.00,0.0004
3773.00,0.0004
3772.00,0.0004
3771.00,0.0004
3770.00,0.0004
3769.00,0.0004
3768.00,0.0004
3767.00,0.0004
3766.00,0.0004
3765.00,0.0004
3764.00,0.0004
3763.00,0.0004
3762.00,0.0004
3761.00,0.0004
3760.00,0.0004
3759.00,0.0004
3758.00,0.0004
3757.00,0.0004
3756.00,0.0004
3755.00,0.0004
3754.00,0.0005
3753.00,0.0005
3752.00,0.0005
3751.00,0.0005
3750.00,0.0005
3749.00,0.0005
3748.00,0.0005
3747.00,0.0005
3746.00,0.0005
3745.00,0.0004
3744.00,0.0004
3743.00,0.0003
3742.00,0.0003
3741.00,0.0003
3740.00,0.0003
3739.00,0.0003
3738.00,0.0003
3737.00,0.0003
3736.00,0.0003
3735.00,0.0003
3734.00,0.0003
3733.00,0.0003
3732.00,0.0002
3731.00,0.0002
3730.00,0.0002
3729.00,0.0002
3728.00,0.0003
3727.00,0.0003
3726.00,0.0003
3725.00,0.0003
3724.00,0.0003
3723.00,0.0004
3722.00,0.0004
3721.00,0.0004
3720.00,0.0004
3719.00,0.0004
3718.00,0.0004
3717.00,0.0004
3716.00,0.0004
3715.00,0.0004
3714.00,0.0004
3713.00,0.0004
3712.00,0.0004
3711.00,0.0004
3710.00,0.0004
3709.00,0.0004
3708.00,0.0004
3707.00,0.0005
3706.00,0.0005
3705.00,0.0005
3704.00,0.0005
3703.00,0.0005
3702.00,0.0005
3701.00,0.0005
3700.00,0.0005
3699.00,0.0005
3698.00,0.0005
3697.00,0.0005
3696.00,0.0005
3695.00,0.0006
3694.00,0.0006
3693.00,0.0006
3692.00,0.0006
3691.00,0.0006
3690.00,0.0006
3689.00,0.0006
3688.00,0.0007
3687.00,0.0007
3686.00,0.0007
3685.00,0.0007
3684.00,0.0008
3683.00,0.0008
3682.00,0.0008
3681.00,0.0008
3680.00,0.0008
3679.00,0.0009
3678.00,0.0009
3677.00,0.0009
3676.00,0.0010
3675.00,0.0010
3674.00,0.0011
3673.00,0.0011
3672.00,0.0011
3671.00,0.0011
3670.00,0.0012
3669.00,0.0013
3668.00,0.0013
3667.00,0.0014
3666.00,0.0014
3665.00,0.0014
3664.00,0.0014
3663.00,0.0015
3662.00,0.0015
3661.00,0.0016
3660.00,0.0016
3659.00,0.0017
3658.00,0.0017
3657.00,0.0018
3656.00,0.0018
3655.00,0.0018
3654.00,0.0019
3653.00,0.0019
3652.00,0.0019
3651.00,0.0019
3650.00,0.0020
3649.00,0.0021
3648.00,0.0022
3647.00,0.0023
3646.00,0.0023
3645.00,0.0024
3644.00,0.0024
3643.00,0.0024
3642.00,0.0025
3641.00,0.0025
3640.00,0.0026
3639.00,0.0026
3638.00,0.0027
3637.00,0.0028
3636.00,0.0028
3635.00,0.0029
3634.00,0.0030
3633.00,0.0030
3632.00,0.0031
3631.00,0.0031
3630.00,0.0031
3629.00,0.0032
3628.00,0.0033
3627.00,0.0034
3626.00,0.0034
3625.00,0.0034
3624.00,0.0035
3623.00,0.0035
3622.00,0.0036
3621.00,0.0037
3620.00,0.0037
3619.00,0.0038
3618.00,0.0039
3617.00,0.0039
3616.00,0.0040
3615.00,0.0041
3614.00,0.0042
3613.00,0.0043
3612.00,0.0044
3611.00,0.0044
3610.00,0.0045
3609.00,0.0046
3608.00,0.0046
3607.00,0.0047
3606.00,0.0048
3605.00,0.0049
3604.00,0.0049
3603.00,0.0049
3602.00,0.0050
3601.00,0.0050
3600.00,0.0051
3599.00,0.0052
3598.00,0.0052
3597.00,0.0053
3596.00,0.0053
3595.00,0.0054
3594.00,0.0055
3593.00,0.0056
3592.00,0.0056
3591.00,0.0057
3590.00,0.0057
3589.00,0.0058
3588.00,0.0059
3587.00,0.0060
3586.00,0.0061
3585.00,0.0062
3584.00,0.0063
3583.00,0.0063
3582.00,0.0064
3581.00,0.0065
3580.00,0.0066
3579.00,0.0067
3578.00,0.0068
3577.00,0.0069
3576.00,0.0069
3575.00,0.0070
3574.00,0.0071
3573.00,0.0072
3572.00,0.0072
3571.00,0.0072
3570.00,0.0073
3569.00,0.0073
3568.00,0.0074
3567.00,0.0075
3566.00,0.0076
3565.00,0.0077
3564.00,0.0078
3563.00,0.0079
3562.00,0.0080
3561.00,0.0081
3560.00,0.0082
3559.00,0.0083
3558.00,0.0084
3557.00,0.0085
3556.00,0.0086
3555.00,0.0086
3554.00,0.0087
3553.00,0.0087
3552.00,0.0088
3551.00,0.0089
3550.00,0.0090
3549.00,0.0090
3548.00,0.0091
3547.00,0.0092
3546.00,0.0093
3545.00,0.0094
3544.00,0.0094
3543.00,0.0095
3542.00,0.0096
3541.00,0.0097
3540.00,0.0097
3539.00,0.0098
3538.00,0.0099
3537.00,0.0099
3536.00,0.0100
3535.00,0.0101
3534.00,0.0102
3533.00,0.0102
3532.00,0.0103
3531.00,0.0104
3530.00,0.0104
3529.00,0.0105
3528.00,0.0106
3527.00,0.0106
3526.00,0.0107
3525.00,0.0108
3524.00,0.0109
3523.00,0.0110
3522.00,0.0111
3521.00,0.0112
3520.00,0.0112
3519.00,0.0113
3518.00,0.0114
3517.00,0.0114
3516.00,0.0115
3515.00,0.0116
3514.00,0.0117
3513.00,0.0118
3512.00,0.0119
3511.00,0.0119
3510.00,0.0119
3509.00,0.0120
3508.00,0.0121
3507.00,0.0121
3506.00,0.0122
3505.00,0.0122
3504.00,0.0123
3503.00,0.0125
3502.00,0.0126
3501.00,0.0127
3500.00,0.0127
3499.00,0.0127
3498.00,0.0128
3497.00,0.0129
3496.00,0.0130
3495.00,0.0130
3494.00,0.0131
3493.00,0.0132
3492.00,0.0133
3491.00,0.0134
3490.00,0.0134
3489.00,0.0135
3488.00,0.0135
3487.00,0.0136
3486.00,0.0137
3485.00,0.0138
3484.00,0.0138
3483.00,0.0139
3482.00,0.0140
3481.00,0.0141
3480.00,0.0142
3479.00,0.0143
3478.00,0.0144
3477.00,0.0144
3476.00,0.0145
3475.00,0.0146
3474.00,0.0147
3473.00,0.0147
3472.00,0.0148
3471.00,0.0149
3470.00,0.0150
3469.00,0.0151
3468.00,0.0152
3467.00,0.0153
3466.00,0.0153
3465.00,0.0154
3464.00,0.0155
3463.00,0.0155
3462.00,0.0156
3461.00,0.0157
3460.00,0.0158
3459.00,0.0158
3458.00,0.0159
3457.00,0.0160
3456.00,0.0161
3455.00,0.0161
3454.00,0.0162
3453.00,0.0163
3452.00,0.0164
3451.00,0.0164
3450.00,0.0165
3449.00,0.0165
3448.00,0.0166
3447.00,0.0167
3446.00,0.0168
3445.00,0.0169
3444.00,0.0170
3443.00,0.0171
3442.00,0.0172
3441.00,0.0172
3440.00,0.0173
3439.00,0.0173
3438.00,0.0174
3437.00,0.0175
3436.00,0.0176
3435.00,0.0177
3434.00,0.0178
3433.00,0.0179
3432.00,0.0180
3431.00,0.0181
3430.00,0.0181
3429.00,0.0182
3428.00,0.0183
3427.00,0.0184
3426.00,0.0184
3425.00,0.0185
3424.00,0.0186
3423.00,0.0187
3422.00,0.0188
3421.00,0.0189
3420.00,0.0189
3419.00,0.0190
3418.00,0.0191
3417.00,0.0192
3416.00,0.0193
3415.00,0.0194
3414.00,0.0195
3413.00,0.0195
3412.00,0.0196
3411.00,0.0197
3410.00,0.0197
3409.00,0.0198
3408.00,0.0199
3407.00,0.0200
3406.00,0.0200
3405.00,0.0201
3404.00,0.0202
3403.00,0.0202
3402.00,0.0203
3401.00,0.0204
3400.00,0.0205
3399.00,0.0206
3398.00,0.0206
3397.00,0.0207
3396.00,0.0208
3395.00,0.0209
3394.00,0.0209
3393.00,0.0210
3392.00,0.0211
3391.00,0.0212
3390.00,0.0213
3389.00,0.0214
3388.00,0.0215
3387.00,0.0216
3386.00,0.0217
3385.00,0.0217
3384.00,0.0218
3383.00,0.0219
3382.00,0.0220
3381.00,0.0221
3380.00,0.0222
3379.00,0.0223
3378.00,0.0224
3377.00,0.0224
3376.00,0.0225
3375.00,0.0226
3374.00,0.0227
3373.00,0.0228
3372.00,0.0229
3371.00,0.0230
3370.00,0.0231
3369.00,0.0232
3368.00,0.0233
3367.00,0.0234
3366.00,0.0236
3365.00,0.0237
3364.00,0.0238
3363.00,0.0239
3362.00,0.0241
3361.00,0.0242
3360.00,0.0243
3359.00,0.0245
3358.00,0.0246
3357.00,0.0247
3356.00,0.0249
3355.00,0.0250
3354.00,0.0251
3353.00,0.0252
3352.00,0.0253
3351.00,0.0254
3350.00,0.0255
3349.00,0.0256
3348.00,0.0258
3347.00,0.0260
3346.00,0.0261
3345.00,0.0262
3344.00,0.0264
3343.00,0.0265
3342.00,0.0266
3341.00,0.0268
3340.00,0.0269
3339.00,0.0270
3338.00,0.0272
3337.00,0.0274
3336.00,0.0276
3335.00,0.0278
3334.00,0.0280
3333.00,0.0281
3332.00,0.0283
3331.00,0.0285
3330.00,0.0286
3329.00,0.0288
3328.00,0.0289
3327.00,0.0291
3326.00,0.0292
3325.00,0.0294
3324.00,0.0296
3323.00,0.0299
3322.00,0.0301
3321.00,0.0303
3320.00,0.0305
3319.00,0.0307
3318.00,0.0309
3317.00,0.0311
3316.00,0.0313
3315.00,0.0315
3314.00,0.0317
3313.00,0.0319
3312.00,0.0322
3311.00,0.0324
3310.00,0.0326
3309.00,0.0327
3308.00,0.0330
3307.00,0.0332
3306.00,0.0334
3305.00,0.0336
3304.00,0.0339
3303.00,0.0342
3302.00,0.0345
3301.00,0.0348
3300.00,0.0350
3299.00,0.0352
3298.00,0.0354
3297.00,0.0356
3296.00,0.0358
3295.00,0.0360
3294.00,0.0362
3293.00,0.0364
3292.00,0.0367
3291.00,0.0369
3290.00,0.0372
3289.00,0.0374
3288.00,0.0376
3287.00,0.0377
3286.00,0.0379
3285.00,0.0381
3284.00,0.0383
3283.00,0.0384
3282.00,0.0385
3281.00,0.0387
3280.00,0.0388
3279.00,0.0388
3278.00,0.0389
3277.00,0.0390
3276.00,0.0390
3275.00,0.0390
3274.00,0.0390
3273.00,0.0390
3272.00,0.0389
3271.00,0.0389
3270.00,0.0389
3269.00,0.0389
3268.00,0.0388
3267.00,0.0387
3266.00,0.0386
3265.00,0.0385
3264.00,0.0384
3263.00,0.0382
3262.00,0.0381
3261.00,0.0379
3260.00,0.0377
3259.00,0.0375
3258.00,0.0372
3257.00,0.0370
3256.00,0.0368
3255.00,0.0366
3254.00,0.0364
3253.00,0.0362
3252.00,0.0360
3251.00,0.0358
3250.00,0.0355
3249.00,0.0352
3248.00,0.0350
3247.00,0.0348
3246.00,0.0346
3245.00,0.0344
3244.00,0.0343
3243.00,0.0341
3242.00,0.0339
3241.00,0.0337
3240.00,0.0335
3239.00,0.0333
3238.00,0.0331
3237.00,0.0328
3236.00,0.0326
3235.00,0.0323
3234.00,0.0321
3233.00,0.0320
3232.00,0.0319
3231.00,0.0318
3230.00,0.0317
3229.00,0.0315
3228.00,0.0313
3227.00,0.0312
3226.00,0.0310
3225.00,0.0309
3224.00,0.0307
3223.00,0.0305
3222.00,0.0304
3221.00,0.0302
3220.00,0.0300
3219.00,0.0299
3218.00,0.0298
3217.00,0.0296
3216.00,0.0295
3215.00,0.0293
3214.00,0.0292
3213.00,0.0291
3212.00,0.0289
3211.00,0.0288
3210.00,0.0287
3209.00,0.0285
3208.00,0.0284
3207.00,0.0282
3206.00,0.0281
3205.00,0.0279
3204.00,0.0278
3203.00,0.0277
3202.00,0.0275
3201.00,0.0274
3200.00,0.0272
3199.00,0.0271
3198.00,0.0270
3197.00,0.0268
3196.00,0.0267
3195.00,0.0266
3194.00,0.0264
3193.00,0.0263
3192.00,0.0262
3191.00,0.0260
3190.00,0.0259
3189.00,0.0257
3188.00,0.0256
3187.00,0.0255
3186.00,0.0253
3185.00,0.0252
3184.00,0.0251
3183.00,0.0249
3182.00,0.0248
3181.00,0.0247
3180.00,0.0246
3179.00,0.0245
3178.00,0.0243
3177.00,0.0242
3176.00,0.0241
3175.00,0.0240
3174.00,0.0238
3173.00,0.0237
3172.00,0.0235
3171.00,0.0234
3170.00,0.0233
3169.00,0.0232
3168.00,0.0231
3167.00,0.0230
3166.00,0.0229
3165.00,0.0228
3164.00,0.0226
3163.00,0.0225
3162.00,0.0224
3161.00,0.0223
3160.00,0.0222
3159.00,0.0220
3158.00,0.0219
3157.00,0.0218
3156.00,0.0217
3155.00,0.0216
3154.00,0.0215
3153.00,0.0214
3152.00,0.0213
3151.00,0.0213
3150.00,0.0212
3149.00,0.0211
3148.00,0.0210
3147.00,0.0209
3146.00,0.0208
3145.00,0.0207
3144.00,0.0206
3143.00,0.0205
3142.00,0.0204
3141.00,0.0203
3140.00,0.0203
3139.00,0.0202
3138.00,0.0202
3137.00,0.0201
3136.00,0.0201
3135.00,0.0200
3134.00,0.0200
3133.00,0.0199
3132.00,0.0198
3131.00,0.0197
3130.00,0.0197
3129.00,0.0196
3128.00,0.0196
3127.00,0.0196
3126.00,0.0195
3125.00,0.0195
3124.00,0.0194
3123.00,0.0193
3122.00,0.0193
3121.00,0.0192
3120.00,0.0192
3119.00,0.0192
3118.00,0.0192
3117.00,0.0192
3116.00,0.0192
3115.00,0.0192
3114.00,0.0192
3113.00,0.0192
3112.00,0.0192
3111.00,0.0192
3110.00,0.0193
3109.00,0.0193
3108.00,0.0193
3107.00,0.0193
3106.00,0.0194
3105.00,0.0194
3104.00,0.0194
3103.00,0.0194
3102.00,0.0194
3101.00,0.0194
3100.00,0.0195
3099.00,0.0195
3098.00,0.0196
3097.00,0.0196
3096.00,0.0197
3095.00,0.0197
3094.00,0.0198
3093.00,0.0198
3092.00,0.0198
3091.00,0.0198
3090.00,0.0198
3089.00,0.0198
3088.00,0.0198
3087.00,0.0198
3086.00,0.0198
3085.00,0.0198
3084.00,0.0198
3083.00,0.0198
3082.00,0.0198
3081.00,0.0198
3080.00,0.0198
3079.00,0.0198
3078.00,0.0199
3077.00,0.0199
3076.00,0.0199
3075.00,0.0200
3074.00,0.0200
3073.00,0.0199
3072.00,0.0199
3071.00,0.0199
3070.00,0.0198
3069.00,0.0197
3068.00,0.0196
3067.00,0.0196
3066.00,0.0195
3065.00,0.0195
3064.00,0.0195
3063.00,0.0195
3062.00,0.0194
3061.00,0.0193
3060.00,0.0192
3059.00,0.0191
3058.00,0.0190
3057.00,0.0189
3056.00,0.0188
3055.00,0.0187
3054.00,0.0186
3053.00,0.0185
3052.00,0.0184
3051.00,0.0183
3050.00,0.0182
3049.00,0.0181
3048.00,0.0180
3047.00,0.0178
3046.00,0.0177
3045.00,0.0175
3044.00,0.0174
3043.00,0.0173
3042.00,0.0172
3041.00,0.0172
3040.00,0.0172
3039.00,0.0171
3038.00,0.0170
3037.00,0.0169
3036.00,0.0168
3035.00,0.0167
3034.00,0.0167
3033.00,0.0166
3032.00,0.0165
3031.00,0.0165
3030.00,0.0164
3029.00,0.0164
3028.00,0.0163
3027.00,0.0162
3026.00,0.0161
3025.00,0.0160
3024.00,0.0159
3023.00,0.0158
3022.00,0.0157
3021.00,0.0156
3020.00,0.0155
3019.00,0.0154
3018.00,0.0153
3017.00,0.0152
3016.00,0.0152
3015.00,0.0151
3014.00,0.0150
3013.00,0.0149
3012.00,0.0149
3011.00,0.0149
3010.00,0.0149
3009.00,0.0149
3008.00,0.0149
3007.00,0.0149
3006.00,0.0149
3005.00,0.0149
3004.00,0.0149
3003.00,0.0149
3002.00,0.0149
3001.00,0.0149
3000.00,0.0149
2999.00,0.0149
2998.00,0.0150
2997.00,0.0150
2996.00,0.0151
2995.00,0.0152
2994.00,0.0153
2993.00,0.0154
2992.00,0.0155
2991.00,0.0157
2990.00,0.0159
2989.00,0.0160
2988.00,0.0162
2987.00,0.0164
2986.00,0.0166
2985.00,0.0168
2984.00,0.0170
2983.00,0.0172
2982.00,0.0174
2981.00,0.0176
2980.00,0.0179
2979.00,0.0181
2978.00,0.0184
2977.00,0.0186
2976.00,0.0189
2975.00,0.0191
2974.00,0.0194
2973.00,0.0196
2972.00,0.0199
2971.00,0.0201
2970.00,0.0204
2969.00,0.0206
2968.00,0.0208
2967.00,0.0210
2966.00,0.0211
2965.00,0.0213
2964.00,0.0214
2963.00,0.0215
2962.00,0.0215
2961.00,0.0215
2960.00,0.0215
2959.00,0.0214
2958.00,0.0214
2957.00,0.0212
2956.00,0.0211
2955.00,0.0209
2954.00,0.0208
2953.00,0.0206
2952.00,0.0205
2951.00,0.0204
2950.00,0.0203
2949.00,0.0203
2948.00,0.0202
2947.00,0.0203
2946.00,0.0203
2945.00,0.0204
2944.00,0.0206
2943.00,0.0208
2942.00,0.0210
2941.00,0.0212
2940.00,0.0214
2939.00,0.0216
2938.00,0.0218
2937.00,0.0220
2936.00,0.0222
2935.00,0.0223
2934.00,0.0224
2933.00,0.0225
2932.00,0.0226
2931.00,0.0226
2930.00,0.0226
2929.00,0.0226
2928.00,0.0226
2927.00,0.0226
2926.00,0.0225
2925.00,0.0224
2924.00,0.0222
2923.00,0.0220
2922.00,0.0218
2921.00,0.0216
2920.00,0.0213
2919.00,0.0211
2918.00,0.0208
2917.00,0.0204
2916.00,0.0201
2915.00,0.0198
2914.00,0.0195
2913.00,0.0193
2912.00,0.0190
2911.00,0.0187
2910.00,0.0185
2909.00,0.0182
2908.00,0.0180
2907.00,0.0178
2906.00,0.0176
2905.00,0.0174
2904.00,0.0172
2903.00,0.0171
2902.00,0.0170
2901.00,0.0168
2900.00,0.0167
2899.00,0.0165
2898.00,0.0164
2897.00,0.0163
2896.00,0.0162
2895.00,0.0161
2894.00,0.0160
2893.00,0.0159
2892.00,0.0158
2891.00,0.0158
2890.00,0.0157
2889.00,0.0157
2888.00,0.0157
2887.00,0.0157
2886.00,0.0157
2885.00,0.0157
2884.00,0.0157
2883.00,0.0158
2882.00,0.0159
2881.00,0.0160
2880.00,0.0160
2879.00,0.0161
2878.00,0.0161
2877.00,0.0161
2876.00,0.0162
2875.00,0.0162
2874.00,0.0161
2873.00,0.0161
2872.00,0.0160
2871.00,0.0159
2870.00,0.0158
2869.00,0.0156
2868.00,0.0154
2867.00,0.0153
2866.00,0.0151
2865.00,0.0150
2864.00,0.0149
2863.00,0.0148
2862.00,0.0147
2861.00,0.0146
2860.00,0.0146
2859.00,0.0145
2858.00,0.0145
2857.00,0.0145
2856.00,0.0145
2855.00,0.0144
2854.00,0.0143
2853.00,0.0142
2852.00,0.0140
2851.00,0.0138
2850.00,0.0136
2849.00,0.0133
2848.00,0.0131
2847.00,0.0128
2846.00,0.0126
2845.00,0.0123
2844.00,0.0121
2843.00,0.0119
2842.00,0.0117
2841.00,0.0115
2840.00,0.0114
2839.00,0.0112
2838.00,0.0111
2837.00,0.0110
2836.00,0.0109
2835.00,0.0109
2834.00,0.0108
2833.00,0.0107
2832.00,0.0107
2831.00,0.0106
2830.00,0.0106
2829.00,0.0105
2828.00,0.0105
2827.00,0.0104
2826.00,0.0103
2825.00,0.0103
2824.00,0.0103
2823.00,0.0102
2822.00,0.0102
2821.00,0.0101
2820.00,0.0101
2819.00,0.0101
2818.00,0.0100
2817.00,0.0100
2816.00,0.0100
2815.00,0.0099
2814.00,0.0099
2813.00,0.0099
2812.00,0.0098
2811.00,0.0098
2810.00,0.0097
2809.00,0.0097
2808.00,0.0097
2807.00,0.0097
2806.00,0.0096
2805.00,0.0096
2804.00,0.0096
2803.00,0.0095
2802.00,0.0095
2801.00,0.0094
2800.00,0.0094
2799.00,0.0094
2798.00,0.0093
2797.00,0.0093
2796.00,0.0093
2795.00,0.0092
2794.00,0.0092
2793.00,0.0091
2792.00,0.0091
2791.00,0.0090
2790.00,0.0090
2789.00,0.0090
2788.00,0.0090
2787.00,0.0090
2786.00,0.0090
2785.00,0.0089
2784.00,0.0089
2783.00,0.0088
2782.00,0.0088
2781.00,0.0088
2780.00,0.0087
2779.00,0.0087
2778.00,0.0087
2777.00,0.0087
2776.00,0.0086
2775.00,0.0085
2774.00,0.0085
2773.00,0.0085
2772.00,0.0084
2771.00,0.0084
2770.00,0.0084
2769.00,0.0084
2768.00,0.0083
2767.00,0.0083
2766.00,0.0083
2765.00,0.0082
2764.00,0.0082
2763.00,0.0082
2762.00,0.0081
2761.00,0.0081
2760.00,0.0080
2759.00,0.0080
2758.00,0.0080
2757.00,0.0080
