Created as New Dataset,Sample 1083 By YargerLab Date Wednesday, August 06 2025
cm-1,A
4000.00,0.0007
3999.00,0.0007
3998.00,0.0007
3997.00,0.0007
3996.00,0.0007
3995.00,0.0007
3994.00,0.0007
3993.00,0.0007
3992.00,0.0007
3991.00,0.0007
3990.00,0.0007
3989.00,0.0007
3988.00,0.0007
3987.00,0.0007
3986.00,0.0007
3985.00,0.0007
3984.00,0.0007
3983.00,0.0007
3982.00,0.0007
3981.00,0.0007
3980.00,0.0007
3979.00,0.0007
3978.00,0.0007
3977.00,0.0007
3976.00,0.0007
3975.00,0.0007
3974.00,0.0007
3973.00,0.0007
3972.00,0.0007
3971.00,0.0007
3970.00,0.0007
3969.00,0.0007
3968.00,0.0007
3967.00,0.0007
3966.00,0.0007
3965.00,0.0007
3964.00,0.0007
3963.00,0.0007
3962.00,0.0007
3961.00,0.0007
3960.00,0.0007
3959.00,0.0007
3958.00,0.0007
3957.00,0.0007
3956.00,0.0007
3955.00,0.0007
3954.00,0.0007
3953.00,0.0007
3952.00,0.0007
3951.00,0.0007
3950.00,0.0007
3949.00,0.0007
3948.00,0.0007
3947.00,0.0007
3946.00,0.0008
3945.00,0.0008
3944.00,0.0007
3943.00,0.0007
3942.00,0.0007
3941.00,0.0007
3940.00,0.0007
3939.00,0.0007
3938.00,0.0006
3937.00,0.0006
3936.00,0.0007
3935.00,0.0007
3934.00,0.0007
3933.00,0.0007
3932.00,0.0007
3931.00,0.0007
3930.00,0.0007
3929.00,0.0007
3928.00,0.0007
3927.00,0.0007
3926.00,0.0007
3925.00,0.0007
3924.00,0.0007
3923.00,0.0007
3922.00,0.0008
3921.00,0.0008
3920.00,0.0008
3919.00,0.0008
3918.00,0.0007
3917.00,0.0007
3916.00,0.0007
3915.00,0.0007
3914.00,0.0007
3913.00,0.0007
3912.00,0.0007
3911.00,0.0007
3910.00,0.0007
3909.00,0.0007
3908.00,0.0007
3907.00,0.0008
3906.00,0.0008
3905.00,0.0008
3904.00,0.0009
3903.00,0.0009
3902.00,0.0009
3901.00,0.0009
3900.00,0.0008
3899.00,0.0008
3898.00,0.0008
3897.00,0.0008
3896.00,0.0007
3895.00,0.0008
3894.00,0.0008
3893.00,0.0008
3892.00,0.0008
3891.00,0.0008
3890.00,0.0008
3889.00,0.0008
3888.00,0.0008
3887.00,0.0008
3886.00,0.0008
3885.00,0.0008
3884.00,0.0008
3883.00,0.0008
3882.00,0.0008
3881.00,0.0008
3880.00,0.0008
3879.00,0.0008
3878.00,0.0008
3877.00,0.0008
3876.00,0.0008
3875.00,0.0008
3874.00,0.0008
3873.00,0.0008
3872.00,0.0009
3871.00,0.0009
3870.00,0.0009
3869.00,0.0009
3868.00,0.0009
3867.00,0.0009
3866.00,0.0009
3865.00,0.0009
3864.00,0.0008
3863.00,0.0008
3862.00,0.0008
3861.00,0.0008
3860.00,0.0008
3859.00,0.0008
3858.00,0.0009
3857.00,0.0009
3856.00,0.0010
3855.00,0.0011
3854.00,0.0011
3853.00,0.0011
3852.00,0.0010
3851.00,0.0011
3850.00,0.0010
3849.00,0.0010
3848.00,0.0009
3847.00,0.0008
3846.00,0.0008
3845.00,0.0008
3844.00,0.0008
3843.00,0.0008
3842.00,0.0008
3841.00,0.0009
3840.00,0.0009
3839.00,0.0009
3838.00,0.0009
3837.00,0.0009
3836.00,0.0010
3835.00,0.0010
3834.00,0.0010
3833.00,0.0009
3832.00,0.0009
3831.00,0.0009
3830.00,0.0009
3829.00,0.0008
3828.00,0.0008
3827.00,0.0008
3826.00,0.0008
3825.00,0.0009
3824.00,0.0010
3823.00,0.0010
3822.00,0.0010
3821.00,0.0010
3820.00,0.0010
3819.00,0.0010
3818.00,0.0010
3817.00,0.0010
3816.00,0.0010
3815.00,0.0009
3814.00,0.0009
3813.00,0.0009
3812.00,0.0009
3811.00,0.0009
3810.00,0.0009
3809.00,0.0009
3808.00,0.0009
3807.00,0.0009
3806.00,0.0009
3805.00,0.0010
3804.00,0.0010
3803.00,0.0010
3802.00,0.0009
3801.00,0.0009
3800.00,0.0009
3799.00,0.0010
3798.00,0.0010
3797.00,0.0010
3796.00,0.0009
3795.00,0.0009
3794.00,0.0008
3793.00,0.0008
3792.00,0.0008
3791.00,0.0008
3790.00,0.0007
3789.00,0.0007
3788.00,0.0008
3787.00,0.0008
3786.00,0.0008
3785.00,0.0008
3784.00,0.0008
3783.00,0.0008
3782.00,0.0009
3781.00,0.0008
3780.00,0.0008
3779.00,0.0008
3778.00,0.0007
3777.00,0.0007
3776.00,0.0007
3775.00,0.0008
3774.00,0.0008
3773.00,0.0008
3772.00,0.0009
3771.00,0.0009
3770.00,0.0009
3769.00,0.0008
3768.00,0.0008
3767.00,0.0008
3766.00,0.0008
3765.00,0.0008
3764.00,0.0008
3763.00,0.0008
3762.00,0.0008
3761.00,0.0008
3760.00,0.0008
3759.00,0.0008
3758.00,0.0008
3757.00,0.0008
3756.00,0.0009
3755.00,0.0009
3754.00,0.0010
3753.00,0.0011
3752.00,0.0011
3751.00,0.0011
3750.00,0.0011
3749.00,0.0011
3748.00,0.0011
3747.00,0.0011
3746.00,0.0011
3745.00,0.0011
3744.00,0.0010
3743.00,0.0010
3742.00,0.0010
3741.00,0.0010
3740.00,0.0010
3739.00,0.0010
3738.00,0.0010
3737.00,0.0010
3736.00,0.0010
3735.00,0.0010
3734.00,0.0010
3733.00,0.0010
3732.00,0.0009
3731.00,0.0009
3730.00,0.0009
3729.00,0.0008
3728.00,0.0008
3727.00,0.0008
3726.00,0.0007
3725.00,0.0007
3724.00,0.0008
3723.00,0.0008
3722.00,0.0008
3721.00,0.0008
3720.00,0.0008
3719.00,0.0008
3718.00,0.0008
3717.00,0.0008
3716.00,0.0008
3715.00,0.0008
3714.00,0.0008
3713.00,0.0008
3712.00,0.0008
3711.00,0.0008
3710.00,0.0008
3709.00,0.0009
3708.00,0.0008
3707.00,0.0008
3706.00,0.0008
3705.00,0.0008
3704.00,0.0008
3703.00,0.0007
3702.00,0.0007
3701.00,0.0007
3700.00,0.0007
3699.00,0.0007
3698.00,0.0007
3697.00,0.0007
3696.00,0.0007
3695.00,0.0008
3694.00,0.0008
3693.00,0.0008
3692.00,0.0008
3691.00,0.0009
3690.00,0.0009
3689.00,0.0009
3688.00,0.0009
3687.00,0.0009
3686.00,0.0009
3685.00,0.0008
3684.00,0.0008
3683.00,0.0008
3682.00,0.0008
3681.00,0.0008
3680.00,0.0009
3679.00,0.0009
3678.00,0.0009
3677.00,0.0010
3676.00,0.0010
3675.00,0.0010
3674.00,0.0010
3673.00,0.0010
3672.00,0.0010
3671.00,0.0010
3670.00,0.0009
3669.00,0.0009
3668.00,0.0009
3667.00,0.0009
3666.00,0.0009
3665.00,0.0008
3664.00,0.0008
3663.00,0.0008
3662.00,0.0008
3661.00,0.0008
3660.00,0.0008
3659.00,0.0009
3658.00,0.0009
3657.00,0.0009
3656.00,0.0009
3655.00,0.0010
3654.00,0.0010
3653.00,0.0011
3652.00,0.0012
3651.00,0.0012
3650.00,0.0012
3649.00,0.0012
3648.00,0.0011
3647.00,0.0011
3646.00,0.0011
3645.00,0.0010
3644.00,0.0009
3643.00,0.0009
3642.00,0.0008
3641.00,0.0008
3640.00,0.0008
3639.00,0.0008
3638.00,0.0008
3637.00,0.0008
3636.00,0.0008
3635.00,0.0008
3634.00,0.0008
3633.00,0.0008
3632.00,0.0008
3631.00,0.0009
3630.00,0.0009
3629.00,0.0009
3628.00,0.0009
3627.00,0.0008
3626.00,0.0008
3625.00,0.0008
3624.00,0.0008
3623.00,0.0008
3622.00,0.0008
3621.00,0.0008
3620.00,0.0008
3619.00,0.0008
3618.00,0.0008
3617.00,0.0008
3616.00,0.0008
3615.00,0.0008
3614.00,0.0008
3613.00,0.0008
3612.00,0.0008
3611.00,0.0008
3610.00,0.0008
3609.00,0.0008
3608.00,0.0008
3607.00,0.0008
3606.00,0.0007
3605.00,0.0007
3604.00,0.0007
3603.00,0.0007
3602.00,0.0007
3601.00,0.0008
3600.00,0.0008
3599.00,0.0008
3598.00,0.0008
3597.00,0.0008
3596.00,0.0008
3595.00,0.0008
3594.00,0.0008
3593.00,0.0008
3592.00,0.0009
3591.00,0.0009
3590.00,0.0009
3589.00,0.0009
3588.00,0.0008
3587.00,0.0008
3586.00,0.0008
3585.00,0.0008
3584.00,0.0008
3583.00,0.0008
3582.00,0.0008
3581.00,0.0008
3580.00,0.0008
3579.00,0.0008
3578.00,0.0008
3577.00,0.0008
3576.00,0.0008
3575.00,0.0008
3574.00,0.0008
3573.00,0.0008
3572.00,0.0008
3571.00,0.0008
3570.00,0.0008
3569.00,0.0008
3568.00,0.0008
3567.00,0.0008
3566.00,0.0008
3565.00,0.0008
3564.00,0.0008
3563.00,0.0008
3562.00,0.0008
3561.00,0.0008
3560.00,0.0009
3559.00,0.0009
3558.00,0.0009
3557.00,0.0008
3556.00,0.0008
3555.00,0.0008
3554.00,0.0009
3553.00,0.0009
3552.00,0.0009
3551.00,0.0009
3550.00,0.0009
3549.00,0.0009
3548.00,0.0009
3547.00,0.0009
3546.00,0.0009
3545.00,0.0009
3544.00,0.0009
3543.00,0.0010
3542.00,0.0010
3541.00,0.0010
3540.00,0.0010
3539.00,0.0010
3538.00,0.0010
3537.00,0.0010
3536.00,0.0010
3535.00,0.0010
3534.00,0.0010
3533.00,0.0010
3532.00,0.0010
3531.00,0.0010
3530.00,0.0010
3529.00,0.0010
3528.00,0.0010
3527.00,0.0011
3526.00,0.0011
3525.00,0.0011
3524.00,0.0011
3523.00,0.0011
3522.00,0.0011
3521.00,0.0011
3520.00,0.0011
3519.00,0.0011
3518.00,0.0011
3517.00,0.0010
3516.00,0.0010
3515.00,0.0010
3514.00,0.0010
3513.00,0.0010
3512.00,0.0011
3511.00,0.0011
3510.00,0.0011
3509.00,0.0011
3508.00,0.0011
3507.00,0.0011
3506.00,0.0011
3505.00,0.0011
3504.00,0.0011
3503.00,0.0011
3502.00,0.0011
3501.00,0.0011
3500.00,0.0011
3499.00,0.0011
3498.00,0.0011
3497.00,0.0011
3496.00,0.0011
3495.00,0.0011
3494.00,0.0011
3493.00,0.0011
3492.00,0.0011
3491.00,0.0011
3490.00,0.0011
3489.00,0.0011
3488.00,0.0011
3487.00,0.0010
3486.00,0.0010
3485.00,0.0010
3484.00,0.0010
3483.00,0.0011
3482.00,0.0011
3481.00,0.0011
3480.00,0.0012
3479.00,0.0012
3478.00,0.0012
3477.00,0.0012
3476.00,0.0012
3475.00,0.0012
3474.00,0.0012
3473.00,0.0012
3472.00,0.0012
3471.00,0.0012
3470.00,0.0012
3469.00,0.0012
3468.00,0.0012
3467.00,0.0012
3466.00,0.0012
3465.00,0.0012
3464.00,0.0012
3463.00,0.0012
3462.00,0.0012
3461.00,0.0012
3460.00,0.0012
3459.00,0.0012
3458.00,0.0012
3457.00,0.0012
3456.00,0.0012
3455.00,0.0012
3454.00,0.0012
3453.00,0.0012
3452.00,0.0012
3451.00,0.0012
3450.00,0.0012
3449.00,0.0012
3448.00,0.0012
3447.00,0.0012
3446.00,0.0012
3445.00,0.0012
3444.00,0.0012
3443.00,0.0012
3442.00,0.0012
3441.00,0.0012
3440.00,0.0012
3439.00,0.0012
3438.00,0.0012
3437.00,0.0012
3436.00,0.0012
3435.00,0.0012
3434.00,0.0012
3433.00,0.0012
3432.00,0.0012
3431.00,0.0012
3430.00,0.0012
3429.00,0.0012
3428.00,0.0012
3427.00,0.0012
3426.00,0.0012
3425.00,0.0012
3424.00,0.0012
3423.00,0.0012
3422.00,0.0012
3421.00,0.0012
3420.00,0.0012
3419.00,0.0012
3418.00,0.0012
3417.00,0.0012
3416.00,0.0012
3415.00,0.0012
3414.00,0.0012
3413.00,0.0011
3412.00,0.0011
3411.00,0.0011
3410.00,0.0011
3409.00,0.0011
3408.00,0.0011
3407.00,0.0012
3406.00,0.0012
3405.00,0.0012
3404.00,0.0012
3403.00,0.0012
3402.00,0.0012
3401.00,0.0012
3400.00,0.0012
3399.00,0.0012
3398.00,0.0012
3397.00,0.0012
3396.00,0.0012
3395.00,0.0012
3394.00,0.0011
3393.00,0.0011
3392.00,0.0011
3391.00,0.0011
3390.00,0.0011
3389.00,0.0011
3388.00,0.0011
3387.00,0.0011
3386.00,0.0011
3385.00,0.0011
3384.00,0.0011
3383.00,0.0011
3382.00,0.0011
3381.00,0.0011
3380.00,0.0011
3379.00,0.0012
3378.00,0.0012
3377.00,0.0012
3376.00,0.0012
3375.00,0.0012
3374.00,0.0012
3373.00,0.0011
3372.00,0.0011
3371.00,0.0011
3370.00,0.0011
3369.00,0.0011
3368.00,0.0012
3367.00,0.0012
3366.00,0.0012
3365.00,0.0012
3364.00,0.0012
3363.00,0.0012
3362.00,0.0012
3361.00,0.0012
3360.00,0.0012
3359.00,0.0012
3358.00,0.0011
3357.00,0.0011
3356.00,0.0011
3355.00,0.0011
3354.00,0.0011
3353.00,0.0011
3352.00,0.0011
3351.00,0.0011
3350.00,0.0011
3349.00,0.0011
3348.00,0.0011
3347.00,0.0011
3346.00,0.0011
3345.00,0.0011
3344.00,0.0011
3343.00,0.0011
3342.00,0.0011
3341.00,0.0011
3340.00,0.0011
3339.00,0.0010
3338.00,0.0011
3337.00,0.0011
3336.00,0.0011
3335.00,0.0011
3334.00,0.0011
3333.00,0.0011
3332.00,0.0011
3331.00,0.0011
3330.00,0.0011
3329.00,0.0011
3328.00,0.0011
3327.00,0.0011
3326.00,0.0011
3325.00,0.0011
3324.00,0.0011
3323.00,0.0011
3322.00,0.0010
3321.00,0.0010
3320.00,0.0010
3319.00,0.0010
3318.00,0.0010
3317.00,0.0010
3316.00,0.0011
3315.00,0.0011
3314.00,0.0011
3313.00,0.0011
3312.00,0.0011
3311.00,0.0011
3310.00,0.0011
3309.00,0.0011
3308.00,0.0011
3307.00,0.0011
3306.00,0.0011
3305.00,0.0011
3304.00,0.0011
3303.00,0.0010
3302.00,0.0010
3301.00,0.0010
3300.00,0.0010
3299.00,0.0010
3298.00,0.0010
3297.00,0.0010
3296.00,0.0010
3295.00,0.0010
3294.00,0.0010
3293.00,0.0010
3292.00,0.0010
3291.00,0.0010
3290.00,0.0010
3289.00,0.0010
3288.00,0.0010
3287.00,0.0010
3286.00,0.0010
3285.00,0.0010
3284.00,0.0010
3283.00,0.0010
3282.00,0.0010
3281.00,0.0010
3280.00,0.0011
3279.00,0.0011
3278.00,0.0011
3277.00,0.0011
3276.00,0.0011
3275.00,0.0011
3274.00,0.0011
3273.00,0.0011
3272.00,0.0011
3271.00,0.0010
3270.00,0.0010
3269.00,0.0010
3268.00,0.0010
3267.00,0.0010
3266.00,0.0010
3265.00,0.0010
3264.00,0.0010
3263.00,0.0010
3262.00,0.0010
3261.00,0.0010
3260.00,0.0010
3259.00,0.0010
3258.00,0.0010
3257.00,0.0010
3256.00,0.0010
3255.00,0.0011
3254.00,0.0010
3253.00,0.0010
3252.00,0.0010
3251.00,0.0010
3250.00,0.0010
3249.00,0.0010
3248.00,0.0010
3247.00,0.0010
3246.00,0.0010
3245.00,0.0010
3244.00,0.0010
3243.00,0.0010
3242.00,0.0010
3241.00,0.0010
3240.00,0.0009
3239.00,0.0009
3238.00,0.0009
3237.00,0.0009
3236.00,0.0009
3235.00,0.0009
3234.00,0.0009
3233.00,0.0009
3232.00,0.0010
3231.00,0.0010
3230.00,0.0010
3229.00,0.0010
3228.00,0.0010
3227.00,0.0009
3226.00,0.0009
3225.00,0.0009
3224.00,0.0009
3223.00,0.0009
3222.00,0.0009
3221.00,0.0009
3220.00,0.0009
3219.00,0.0009
3218.00,0.0009
3217.00,0.0009
3216.00,0.0009
3215.00,0.0009
3214.00,0.0009
3213.00,0.0009
3212.00,0.0009
3211.00,0.0009
3210.00,0.0010
3209.00,0.0010
3208.00,0.0010
3207.00,0.0010
3206.00,0.0010
3205.00,0.0010
3204.00,0.0010
3203.00,0.0010
3202.00,0.0010
3201.00,0.0010
3200.00,0.0010
3199.00,0.0009
3198.00,0.0009
3197.00,0.0009
3196.00,0.0009
3195.00,0.0010
3194.00,0.0010
3193.00,0.0010
3192.00,0.0009
3191.00,0.0009
3190.00,0.0009
3189.00,0.0008
3188.00,0.0008
3187.00,0.0008
3186.00,0.0008
3185.00,0.0008
3184.00,0.0008
3183.00,0.0008
3182.00,0.0008
3181.00,0.0008
3180.00,0.0008
3179.00,0.0008
3178.00,0.0008
3177.00,0.0008
3176.00,0.0009
3175.00,0.0009
3174.00,0.0009
3173.00,0.0009
3172.00,0.0009
3171.00,0.0009
3170.00,0.0008
3169.00,0.0008
3168.00,0.0008
3167.00,0.0009
3166.00,0.0009
3165.00,0.0009
3164.00,0.0009
3163.00,0.0009
3162.00,0.0009
3161.00,0.0009
3160.00,0.0009
3159.00,0.0009
3158.00,0.0009
3157.00,0.0009
3156.00,0.0008
3155.00,0.0008
3154.00,0.0008
3153.00,0.0008
3152.00,0.0008
3151.00,0.0009
3150.00,0.0009
3149.00,0.0009
3148.00,0.0008
3147.00,0.0008
3146.00,0.0008
3145.00,0.0008
3144.00,0.0008
3143.00,0.0008
3142.00,0.0008
3141.00,0.0008
3140.00,0.0008
3139.00,0.0008
3138.00,0.0008
3137.00,0.0008
3136.00,0.0008
3135.00,0.0008
3134.00,0.0008
3133.00,0.0008
3132.00,0.0008
3131.00,0.0008
3130.00,0.0008
3129.00,0.0008
3128.00,0.0008
3127.00,0.0008
3126.00,0.0008
3125.00,0.0008
3124.00,0.0008
3123.00,0.0009
3122.00,0.0009
3121.00,0.0010
3120.00,0.0010
3119.00,0.0010
3118.00,0.0010
3117.00,0.0011
3116.00,0.0011
3115.00,0.0011
3114.00,0.0012
3113.00,0.0013
3112.00,0.0014
3111.00,0.0015
3110.00,0.0017
3109.00,0.0018
3108.00,0.0020
3107.00,0.0022
3106.00,0.0023
3105.00,0.0024
3104.00,0.0025
3103.00,0.0025
3102.00,0.0025
3101.00,0.0025
3100.00,0.0025
3099.00,0.0024
3098.00,0.0024
3097.00,0.0023
3096.00,0.0023
3095.00,0.0023
3094.00,0.0024
3093.00,0.0025
3092.00,0.0027
3091.00,0.0030
3090.00,0.0033
3089.00,0.0037
3088.00,0.0042
3087.00,0.0047
3086.00,0.0052
3085.00,0.0056
3084.00,0.0060
3083.00,0.0063
3082.00,0.0064
3081.00,0.0063
3080.00,0.0061
3079.00,0.0059
3078.00,0.0055
3077.00,0.0052
3076.00,0.0049
3075.00,0.0047
3074.00,0.0046
3073.00,0.0046
3072.00,0.0046
3071.00,0.0047
3070.00,0.0049
3069.00,0.0052
3068.00,0.0055
3067.00,0.0059
3066.00,0.0064
3065.00,0.0069
3064.00,0.0074
3063.00,0.0079
3062.00,0.0083
3061.00,0.0087
3060.00,0.0088
3059.00,0.0088
3058.00,0.0086
3057.00,0.0083
3056.00,0.0078
3055.00,0.0073
3054.00,0.0068
3053.00,0.0064
3052.00,0.0059
3051.00,0.0056
3050.00,0.0052
3049.00,0.0049
3048.00,0.0047
3047.00,0.0045
3046.00,0.0044
3045.00,0.0044
3044.00,0.0044
3043.00,0.0045
3042.00,0.0047
3041.00,0.0049
3040.00,0.0051
3039.00,0.0055
3038.00,0.0059
3037.00,0.0064
3036.00,0.0070
3035.00,0.0077
3034.00,0.0086
3033.00,0.0096
3032.00,0.0107
3031.00,0.0119
3030.00,0.0132
3029.00,0.0144
3028.00,0.0156
3027.00,0.0165
3026.00,0.0170
3025.00,0.0172
3024.00,0.0169
3023.00,0.0161
3022.00,0.0150
3021.00,0.0137
3020.00,0.0122
3019.00,0.0107
3018.00,0.0093
3017.00,0.0081
3016.00,0.0071
3015.00,0.0063
3014.00,0.0056
3013.00,0.0051
3012.00,0.0047
3011.00,0.0045
3010.00,0.0043
3009.00,0.0043
3008.00,0.0043
3007.00,0.0043
3006.00,0.0045
3005.00,0.0047
3004.00,0.0049
3003.00,0.0050
3002.00,0.0052
3001.00,0.0052
3000.00,0.0051
2999.00,0.0050
2998.00,0.0047
2997.00,0.0045
2996.00,0.0042
2995.00,0.0039
2994.00,0.0036
2993.00,0.0035
2992.00,0.0033
2991.00,0.0032
2990.00,0.0031
2989.00,0.0031
2988.00,0.0031
2987.00,0.0031
2986.00,0.0031
2985.00,0.0032
2984.00,0.0032
2983.00,0.0033
2982.00,0.0034
2981.00,0.0035
2980.00,0.0035
2979.00,0.0035
2978.00,0.0034
2977.00,0.0034
2976.00,0.0034
2975.00,0.0034
2974.00,0.0034
2973.00,0.0034
2972.00,0.0035
2971.00,0.0035
2970.00,0.0035
2969.00,0.0034
2968.00,0.0034
2967.00,0.0034
2966.00,0.0035
2965.00,0.0035
2964.00,0.0036
2963.00,0.0036
2962.00,0.0037
2961.00,0.0038
2960.00,0.0039
2959.00,0.0040
2958.00,0.0041
2957.00,0.0043
2956.00,0.0044
2955.00,0.0046
2954.00,0.0048
2953.00,0.0050
2952.00,0.0052
2951.00,0.0054
2950.00,0.0057
2949.00,0.0061
2948.00,0.0064
2947.00,0.0068
2946.00,0.0072
2945.00,0.0076
2944.00,0.0080
2943.00,0.0085
2942.00,0.0090
2941.00,0.0095
2940.00,0.0100
2939.00,0.0106
2938.00,0.0112
2937.00,0.0119
2936.00,0.0125
2935.00,0.0132
2934.00,0.0139
2933.00,0.0146
2932.00,0.0153
2931.00,0.0160
2930.00,0.0166
2929.00,0.0172
2928.00,0.0177
2927.00,0.0182
2926.00,0.0186
2925.00,0.0189
2924.00,0.0192
2923.00,0.0194
2922.00,0.0195
2921.00,0.0196
2920.00,0.0196
2919.00,0.0195
2918.00,0.0193
2917.00,0.0191
2916.00,0.0188
2915.00,0.0184
2914.00,0.0181
2913.00,0.0176
2912.00,0.0172
2911.00,0.0167
2910.00,0.0163
2909.00,0.0158
2908.00,0.0153
2907.00,0.0149
2906.00,0.0144
2905.00,0.0139
2904.00,0.0133
2903.00,0.0128
2902.00,0.0123
2901.00,0.0118
2900.00,0.0113
2899.00,0.0108
2898.00,0.0103
2897.00,0.0098
2896.00,0.0094
2895.00,0.0091
2894.00,0.0088
2893.00,0.0085
2892.00,0.0082
2891.00,0.0080
2890.00,0.0077
2889.00,0.0075
2888.00,0.0073
2887.00,0.0072
2886.00,0.0070
2885.00,0.0068
2884.00,0.0067
2883.00,0.0065
2882.00,0.0063
2881.00,0.0062
2880.00,0.0060
2879.00,0.0059
2878.00,0.0057
2877.00,0.0055
2876.00,0.0053
2875.00,0.0051
2874.00,0.0050
2873.00,0.0049
2872.00,0.0048
2871.00,0.0048
2870.00,0.0048
2869.00,0.0048
2868.00,0.0048
2867.00,0.0048
2866.00,0.0049
2865.00,0.0050
2864.00,0.0051
2863.00,0.0052
2862.00,0.0054
2861.00,0.0056
2860.00,0.0059
2859.00,0.0061
2858.00,0.0064
2857.00,0.0067
2856.00,0.0069
2855.00,0.0072
2854.00,0.0075
2853.00,0.0078
2852.00,0.0080
2851.00,0.0082
2850.00,0.0084
2849.00,0.0084
2848.00,0.0084
2847.00,0.0083
2846.00,0.0081
2845.00,0.0078
2844.00,0.0074
2843.00,0.0070
2842.00,0.0065
2841.00,0.0060
2840.00,0.0055
2839.00,0.0050
2838.00,0.0045
2837.00,0.0041
2836.00,0.0037
2835.00,0.0033
2834.00,0.0031
2833.00,0.0028
2832.00,0.0026
2831.00,0.0025
2830.00,0.0024
2829.00,0.0023
2828.00,0.0022
2827.00,0.0021
2826.00,0.0020
2825.00,0.0020
2824.00,0.0019
2823.00,0.0019
2822.00,0.0018
2821.00,0.0018
2820.00,0.0018
2819.00,0.0017
2818.00,0.0017
2817.00,0.0017
2816.00,0.0017
2815.00,0.0017
2814.00,0.0017
2813.00,0.0017
2812.00,0.0016
2811.00,0.0016
2810.00,0.0016
2809.00,0.0016
2808.00,0.0016
2807.00,0.0016
2806.00,0.0016
2805.00,0.0016
2804.00,0.0016
2803.00,0.0016
2802.00,0.0016
2801.00,0.0015
2800.00,0.0015
2799.00,0.0015
2798.00,0.0015
2797.00,0.0014
2796.00,0.0014
2795.00,0.0014
2794.00,0.0014
2793.00,0.0013
2792.00,0.0013
2791.00,0.0013
2790.00,0.0013
2789.00,0.0013
2788.00,0.0013
2787.00,0.0013
2786.00,0.0013
2785.00,0.0013
2784.00,0.0013
2783.00,0.0013
2782.00,0.0013
2781.00,0.0013
2780.00,0.0013
2779.00,0.0013
2778.00,0.0013
2777.00,0.0013
2776.00,0.0013
2775.00,0.0013
2774.00,0.0013
2773.00,0.0013
2772.00,0.0012
2771.00,0.0012
2770.00,0.0012
2769.00,0.0012
2768.00,0.0012
2767.00,0.0012
2766.00,0.0012
2765.00,0.0012
2764.00,0.0012
2763.00,0.0011
2762.00,0.0011
2761.00,0.0012
2760.00,0.0012
2759.00,0.0012
2758.00,0.0012
2757.00,0.0011
