Created as New Dataset,Sample 584 By YargerLab Date Thursday, June 05 2025
cm-1,A
4000.00,0.0082
3999.00,0.0082
3998.00,0.0082
3997.00,0.0081
3996.00,0.0081
3995.00,0.0081
3994.00,0.0081
3993.00,0.0081
3992.00,0.0081
3991.00,0.0081
3990.00,0.0081
3989.00,0.0081
3988.00,0.0081
3987.00,0.0081
3986.00,0.0081
3985.00,0.0081
3984.00,0.0081
3983.00,0.0081
3982.00,0.0081
3981.00,0.0081
3980.00,0.0081
3979.00,0.0081
3978.00,0.0081
3977.00,0.0081
3976.00,0.0081
3975.00,0.0081
3974.00,0.0081
3973.00,0.0081
3972.00,0.0081
3971.00,0.0082
3970.00,0.0082
3969.00,0.0082
3968.00,0.0082
3967.00,0.0082
3966.00,0.0082
3965.00,0.0082
3964.00,0.0082
3963.00,0.0082
3962.00,0.0082
3961.00,0.0082
3960.00,0.0083
3959.00,0.0083
3958.00,0.0083
3957.00,0.0083
3956.00,0.0083
3955.00,0.0083
3954.00,0.0083
3953.00,0.0083
3952.00,0.0083
3951.00,0.0083
3950.00,0.0083
3949.00,0.0083
3948.00,0.0083
3947.00,0.0083
3946.00,0.0083
3945.00,0.0082
3944.00,0.0082
3943.00,0.0082
3942.00,0.0082
3941.00,0.0082
3940.00,0.0082
3939.00,0.0083
3938.00,0.0082
3937.00,0.0082
3936.00,0.0082
3935.00,0.0082
3934.00,0.0082
3933.00,0.0082
3932.00,0.0082
3931.00,0.0082
3930.00,0.0083
3929.00,0.0083
3928.00,0.0083
3927.00,0.0084
3926.00,0.0084
3925.00,0.0084
3924.00,0.0084
3923.00,0.0084
3922.00,0.0084
3921.00,0.0083
3920.00,0.0083
3919.00,0.0083
3918.00,0.0083
3917.00,0.0083
3916.00,0.0083
3915.00,0.0083
3914.00,0.0083
3913.00,0.0083
3912.00,0.0083
3911.00,0.0082
3910.00,0.0082
3909.00,0.0082
3908.00,0.0082
3907.00,0.0082
3906.00,0.0082
3905.00,0.0081
3904.00,0.0081
3903.00,0.0080
3902.00,0.0080
3901.00,0.0080
3900.00,0.0080
3899.00,0.0080
3898.00,0.0080
3897.00,0.0080
3896.00,0.0080
3895.00,0.0080
3894.00,0.0080
3893.00,0.0080
3892.00,0.0080
3891.00,0.0080
3890.00,0.0080
3889.00,0.0080
3888.00,0.0080
3887.00,0.0080
3886.00,0.0080
3885.00,0.0080
3884.00,0.0079
3883.00,0.0079
3882.00,0.0079
3881.00,0.0079
3880.00,0.0079
3879.00,0.0079
3878.00,0.0080
3877.00,0.0079
3876.00,0.0079
3875.00,0.0079
3874.00,0.0079
3873.00,0.0079
3872.00,0.0079
3871.00,0.0078
3870.00,0.0078
3869.00,0.0078
3868.00,0.0079
3867.00,0.0079
3866.00,0.0078
3865.00,0.0078
3864.00,0.0078
3863.00,0.0079
3862.00,0.0079
3861.00,0.0079
3860.00,0.0079
3859.00,0.0079
3858.00,0.0079
3857.00,0.0079
3856.00,0.0079
3855.00,0.0078
3854.00,0.0078
3853.00,0.0078
3852.00,0.0078
3851.00,0.0078
3850.00,0.0078
3849.00,0.0078
3848.00,0.0078
3847.00,0.0078
3846.00,0.0078
3845.00,0.0079
3844.00,0.0079
3843.00,0.0078
3842.00,0.0078
3841.00,0.0078
3840.00,0.0078
3839.00,0.0077
3838.00,0.0077
3837.00,0.0077
3836.00,0.0077
3835.00,0.0077
3834.00,0.0077
3833.00,0.0077
3832.00,0.0076
3831.00,0.0077
3830.00,0.0077
3829.00,0.0077
3828.00,0.0077
3827.00,0.0077
3826.00,0.0077
3825.00,0.0077
3824.00,0.0078
3823.00,0.0078
3822.00,0.0077
3821.00,0.0077
3820.00,0.0077
3819.00,0.0077
3818.00,0.0076
3817.00,0.0076
3816.00,0.0076
3815.00,0.0076
3814.00,0.0076
3813.00,0.0076
3812.00,0.0076
3811.00,0.0076
3810.00,0.0076
3809.00,0.0076
3808.00,0.0076
3807.00,0.0076
3806.00,0.0076
3805.00,0.0076
3804.00,0.0077
3803.00,0.0076
3802.00,0.0076
3801.00,0.0075
3800.00,0.0076
3799.00,0.0076
3798.00,0.0076
3797.00,0.0076
3796.00,0.0076
3795.00,0.0076
3794.00,0.0076
3793.00,0.0076
3792.00,0.0076
3791.00,0.0076
3790.00,0.0076
3789.00,0.0076
3788.00,0.0076
3787.00,0.0076
3786.00,0.0076
3785.00,0.0076
3784.00,0.0076
3783.00,0.0076
3782.00,0.0076
3781.00,0.0077
3780.00,0.0077
3779.00,0.0077
3778.00,0.0077
3777.00,0.0076
3776.00,0.0076
3775.00,0.0076
3774.00,0.0076
3773.00,0.0076
3772.00,0.0076
3771.00,0.0076
3770.00,0.0076
3769.00,0.0076
3768.00,0.0076
3767.00,0.0075
3766.00,0.0075
3765.00,0.0075
3764.00,0.0075
3763.00,0.0075
3762.00,0.0075
3761.00,0.0075
3760.00,0.0075
3759.00,0.0075
3758.00,0.0075
3757.00,0.0075
3756.00,0.0075
3755.00,0.0075
3754.00,0.0075
3753.00,0.0075
3752.00,0.0075
3751.00,0.0075
3750.00,0.0074
3749.00,0.0074
3748.00,0.0074
3747.00,0.0074
3746.00,0.0074
3745.00,0.0073
3744.00,0.0073
3743.00,0.0073
3742.00,0.0074
3741.00,0.0074
3740.00,0.0073
3739.00,0.0073
3738.00,0.0073
3737.00,0.0073
3736.00,0.0073
3735.00,0.0073
3734.00,0.0073
3733.00,0.0072
3732.00,0.0072
3731.00,0.0072
3730.00,0.0072
3729.00,0.0072
3728.00,0.0072
3727.00,0.0072
3726.00,0.0072
3725.00,0.0072
3724.00,0.0072
3723.00,0.0072
3722.00,0.0071
3721.00,0.0071
3720.00,0.0071
3719.00,0.0071
3718.00,0.0071
3717.00,0.0071
3716.00,0.0072
3715.00,0.0072
3714.00,0.0072
3713.00,0.0072
3712.00,0.0072
3711.00,0.0072
3710.00,0.0072
3709.00,0.0072
3708.00,0.0072
3707.00,0.0071
3706.00,0.0071
3705.00,0.0071
3704.00,0.0071
3703.00,0.0071
3702.00,0.0071
3701.00,0.0071
3700.00,0.0071
3699.00,0.0071
3698.00,0.0071
3697.00,0.0071
3696.00,0.0071
3695.00,0.0071
3694.00,0.0071
3693.00,0.0071
3692.00,0.0070
3691.00,0.0070
3690.00,0.0070
3689.00,0.0069
3688.00,0.0069
3687.00,0.0069
3686.00,0.0069
3685.00,0.0070
3684.00,0.0070
3683.00,0.0069
3682.00,0.0069
3681.00,0.0069
3680.00,0.0069
3679.00,0.0069
3678.00,0.0069
3677.00,0.0068
3676.00,0.0068
3675.00,0.0068
3674.00,0.0067
3673.00,0.0067
3672.00,0.0067
3671.00,0.0067
3670.00,0.0066
3669.00,0.0067
3668.00,0.0067
3667.00,0.0067
3666.00,0.0067
3665.00,0.0067
3664.00,0.0067
3663.00,0.0067
3662.00,0.0067
3661.00,0.0066
3660.00,0.0066
3659.00,0.0066
3658.00,0.0066
3657.00,0.0066
3656.00,0.0065
3655.00,0.0065
3654.00,0.0065
3653.00,0.0065
3652.00,0.0065
3651.00,0.0065
3650.00,0.0065
3649.00,0.0065
3648.00,0.0066
3647.00,0.0066
3646.00,0.0066
3645.00,0.0066
3644.00,0.0066
3643.00,0.0066
3642.00,0.0066
3641.00,0.0066
3640.00,0.0066
3639.00,0.0066
3638.00,0.0066
3637.00,0.0066
3636.00,0.0066
3635.00,0.0067
3634.00,0.0067
3633.00,0.0067
3632.00,0.0067
3631.00,0.0067
3630.00,0.0067
3629.00,0.0067
3628.00,0.0067
3627.00,0.0068
3626.00,0.0068
3625.00,0.0068
3624.00,0.0068
3623.00,0.0068
3622.00,0.0068
3621.00,0.0068
3620.00,0.0069
3619.00,0.0069
3618.00,0.0069
3617.00,0.0069
3616.00,0.0070
3615.00,0.0070
3614.00,0.0070
3613.00,0.0070
3612.00,0.0070
3611.00,0.0070
3610.00,0.0070
3609.00,0.0070
3608.00,0.0070
3607.00,0.0070
3606.00,0.0070
3605.00,0.0070
3604.00,0.0070
3603.00,0.0070
3602.00,0.0070
3601.00,0.0070
3600.00,0.0070
3599.00,0.0071
3598.00,0.0071
3597.00,0.0071
3596.00,0.0071
3595.00,0.0071
3594.00,0.0071
3593.00,0.0071
3592.00,0.0072
3591.00,0.0072
3590.00,0.0072
3589.00,0.0072
3588.00,0.0072
3587.00,0.0073
3586.00,0.0073
3585.00,0.0073
3584.00,0.0074
3583.00,0.0074
3582.00,0.0075
3581.00,0.0075
3580.00,0.0076
3579.00,0.0076
3578.00,0.0077
3577.00,0.0077
3576.00,0.0077
3575.00,0.0078
3574.00,0.0078
3573.00,0.0078
3572.00,0.0079
3571.00,0.0079
3570.00,0.0080
3569.00,0.0081
3568.00,0.0081
3567.00,0.0082
3566.00,0.0083
3565.00,0.0084
3564.00,0.0084
3563.00,0.0085
3562.00,0.0086
3561.00,0.0087
3560.00,0.0088
3559.00,0.0090
3558.00,0.0091
3557.00,0.0093
3556.00,0.0094
3555.00,0.0096
3554.00,0.0098
3553.00,0.0099
3552.00,0.0101
3551.00,0.0104
3550.00,0.0106
3549.00,0.0108
3548.00,0.0111
3547.00,0.0115
3546.00,0.0119
3545.00,0.0123
3544.00,0.0128
3543.00,0.0133
3542.00,0.0138
3541.00,0.0144
3540.00,0.0150
3539.00,0.0157
3538.00,0.0166
3537.00,0.0176
3536.00,0.0187
3535.00,0.0200
3534.00,0.0214
3533.00,0.0231
3532.00,0.0252
3531.00,0.0275
3530.00,0.0303
3529.00,0.0335
3528.00,0.0370
3527.00,0.0407
3526.00,0.0444
3525.00,0.0480
3524.00,0.0512
3523.00,0.0539
3522.00,0.0558
3521.00,0.0570
3520.00,0.0573
3519.00,0.0569
3518.00,0.0558
3517.00,0.0541
3516.00,0.0520
3515.00,0.0495
3514.00,0.0470
3513.00,0.0444
3512.00,0.0418
3511.00,0.0394
3510.00,0.0372
3509.00,0.0352
3508.00,0.0335
3507.00,0.0321
3506.00,0.0308
3505.00,0.0298
3504.00,0.0290
3503.00,0.0283
3502.00,0.0277
3501.00,0.0273
3500.00,0.0270
3499.00,0.0267
3498.00,0.0266
3497.00,0.0265
3496.00,0.0265
3495.00,0.0266
3494.00,0.0266
3493.00,0.0267
3492.00,0.0269
3491.00,0.0270
3490.00,0.0272
3489.00,0.0274
3488.00,0.0276
3487.00,0.0279
3486.00,0.0282
3485.00,0.0286
3484.00,0.0289
3483.00,0.0293
3482.00,0.0298
3481.00,0.0302
3480.00,0.0307
3479.00,0.0311
3478.00,0.0316
3477.00,0.0322
3476.00,0.0328
3475.00,0.0334
3474.00,0.0340
3473.00,0.0346
3472.00,0.0352
3471.00,0.0359
3470.00,0.0366
3469.00,0.0373
3468.00,0.0380
3467.00,0.0388
3466.00,0.0395
3465.00,0.0403
3464.00,0.0411
3463.00,0.0419
3462.00,0.0427
3461.00,0.0436
3460.00,0.0444
3459.00,0.0452
3458.00,0.0460
3457.00,0.0468
3456.00,0.0476
3455.00,0.0485
3454.00,0.0493
3453.00,0.0501
3452.00,0.0509
3451.00,0.0517
3450.00,0.0524
3449.00,0.0532
3448.00,0.0540
3447.00,0.0548
3446.00,0.0555
3445.00,0.0563
3444.00,0.0570
3443.00,0.0578
3442.00,0.0585
3441.00,0.0593
3440.00,0.0600
3439.00,0.0608
3438.00,0.0615
3437.00,0.0622
3436.00,0.0630
3435.00,0.0636
3434.00,0.0643
3433.00,0.0649
3432.00,0.0656
3431.00,0.0663
3430.00,0.0670
3429.00,0.0677
3428.00,0.0684
3427.00,0.0691
3426.00,0.0698
3425.00,0.0706
3424.00,0.0715
3423.00,0.0724
3422.00,0.0734
3421.00,0.0746
3420.00,0.0758
3419.00,0.0770
3418.00,0.0783
3417.00,0.0797
3416.00,0.0810
3415.00,0.0824
3414.00,0.0837
3413.00,0.0849
3412.00,0.0860
3411.00,0.0868
3410.00,0.0875
3409.00,0.0878
3408.00,0.0879
3407.00,0.0877
3406.00,0.0872
3405.00,0.0863
3404.00,0.0852
3403.00,0.0837
3402.00,0.0819
3401.00,0.0798
3400.00,0.0775
3399.00,0.0750
3398.00,0.0724
3397.00,0.0697
3396.00,0.0671
3395.00,0.0645
3394.00,0.0621
3393.00,0.0597
3392.00,0.0573
3391.00,0.0551
3390.00,0.0530
3389.00,0.0511
3388.00,0.0492
3387.00,0.0475
3386.00,0.0460
3385.00,0.0445
3384.00,0.0432
3383.00,0.0420
3382.00,0.0408
3381.00,0.0397
3380.00,0.0386
3379.00,0.0376
3378.00,0.0366
3377.00,0.0357
3376.00,0.0349
3375.00,0.0341
3374.00,0.0333
3373.00,0.0325
3372.00,0.0318
3371.00,0.0311
3370.00,0.0304
3369.00,0.0298
3368.00,0.0291
3367.00,0.0285
3366.00,0.0279
3365.00,0.0273
3364.00,0.0268
3363.00,0.0262
3362.00,0.0257
3361.00,0.0252
3360.00,0.0248
3359.00,0.0243
3358.00,0.0239
3357.00,0.0234
3356.00,0.0230
3355.00,0.0226
3354.00,0.0223
3353.00,0.0219
3352.00,0.0216
3351.00,0.0212
3350.00,0.0209
3349.00,0.0206
3348.00,0.0202
3347.00,0.0199
3346.00,0.0196
3345.00,0.0193
3344.00,0.0191
3343.00,0.0188
3342.00,0.0186
3341.00,0.0183
3340.00,0.0181
3339.00,0.0179
3338.00,0.0176
3337.00,0.0174
3336.00,0.0172
3335.00,0.0170
3334.00,0.0169
3333.00,0.0167
3332.00,0.0165
3331.00,0.0163
3330.00,0.0161
3329.00,0.0160
3328.00,0.0158
3327.00,0.0156
3326.00,0.0155
3325.00,0.0153
3324.00,0.0152
3323.00,0.0151
3322.00,0.0149
3321.00,0.0148
3320.00,0.0146
3319.00,0.0145
3318.00,0.0143
3317.00,0.0142
3316.00,0.0141
3315.00,0.0140
3314.00,0.0139
3313.00,0.0138
3312.00,0.0137
3311.00,0.0136
3310.00,0.0135
3309.00,0.0134
3308.00,0.0133
3307.00,0.0132
3306.00,0.0130
3305.00,0.0129
3304.00,0.0128
3303.00,0.0127
3302.00,0.0126
3301.00,0.0126
3300.00,0.0125
3299.00,0.0124
3298.00,0.0123
3297.00,0.0121
3296.00,0.0120
3295.00,0.0119
3294.00,0.0118
3293.00,0.0118
3292.00,0.0117
3291.00,0.0117
3290.00,0.0116
3289.00,0.0116
3288.00,0.0115
3287.00,0.0114
3286.00,0.0114
3285.00,0.0113
3284.00,0.0112
3283.00,0.0111
3282.00,0.0110
3281.00,0.0109
3280.00,0.0108
3279.00,0.0108
3278.00,0.0108
3277.00,0.0107
3276.00,0.0107
3275.00,0.0106
3274.00,0.0105
3273.00,0.0105
3272.00,0.0104
3271.00,0.0104
3270.00,0.0104
3269.00,0.0104
3268.00,0.0104
3267.00,0.0104
3266.00,0.0104
3265.00,0.0104
3264.00,0.0104
3263.00,0.0104
3262.00,0.0104
3261.00,0.0103
3260.00,0.0103
3259.00,0.0102
3258.00,0.0101
3257.00,0.0101
3256.00,0.0101
3255.00,0.0101
3254.00,0.0101
3253.00,0.0101
3252.00,0.0102
3251.00,0.0101
3250.00,0.0101
3249.00,0.0100
3248.00,0.0099
3247.00,0.0099
3246.00,0.0099
3245.00,0.0099
3244.00,0.0100
3243.00,0.0100
3242.00,0.0099
3241.00,0.0099
3240.00,0.0099
3239.00,0.0098
3238.00,0.0097
3237.00,0.0096
3236.00,0.0095
3235.00,0.0095
3234.00,0.0094
3233.00,0.0094
3232.00,0.0094
3231.00,0.0095
3230.00,0.0095
3229.00,0.0095
3228.00,0.0094
3227.00,0.0094
3226.00,0.0094
3225.00,0.0093
3224.00,0.0093
3223.00,0.0094
3222.00,0.0094
3221.00,0.0093
3220.00,0.0093
3219.00,0.0093
3218.00,0.0093
3217.00,0.0092
3216.00,0.0092
3215.00,0.0092
3214.00,0.0092
3213.00,0.0092
3212.00,0.0092
3211.00,0.0092
3210.00,0.0092
3209.00,0.0092
3208.00,0.0092
3207.00,0.0092
3206.00,0.0092
3205.00,0.0092
3204.00,0.0092
3203.00,0.0092
3202.00,0.0092
3201.00,0.0092
3200.00,0.0092
3199.00,0.0091
3198.00,0.0091
3197.00,0.0091
3196.00,0.0091
3195.00,0.0090
3194.00,0.0090
3193.00,0.0090
3192.00,0.0090
3191.00,0.0090
3190.00,0.0090
3189.00,0.0090
3188.00,0.0090
3187.00,0.0090
3186.00,0.0090
3185.00,0.0090
3184.00,0.0091
3183.00,0.0091
3182.00,0.0091
3181.00,0.0091
3180.00,0.0091
3179.00,0.0091
3178.00,0.0091
3177.00,0.0091
3176.00,0.0092
3175.00,0.0093
3174.00,0.0093
3173.00,0.0093
3172.00,0.0093
3171.00,0.0093
3170.00,0.0093
3169.00,0.0093
3168.00,0.0093
3167.00,0.0094
3166.00,0.0094
3165.00,0.0094
3164.00,0.0094
3163.00,0.0094
3162.00,0.0094
3161.00,0.0094
3160.00,0.0094
3159.00,0.0094
3158.00,0.0094
3157.00,0.0093
3156.00,0.0092
3155.00,0.0091
3154.00,0.0090
3153.00,0.0090
3152.00,0.0090
3151.00,0.0090
3150.00,0.0090
3149.00,0.0090
3148.00,0.0090
3147.00,0.0090
3146.00,0.0090
3145.00,0.0090
3144.00,0.0090
3143.00,0.0089
3142.00,0.0089
3141.00,0.0089
3140.00,0.0089
3139.00,0.0089
3138.00,0.0089
3137.00,0.0090
3136.00,0.0090
3135.00,0.0090
3134.00,0.0090
3133.00,0.0090
3132.00,0.0090
3131.00,0.0090
3130.00,0.0090
3129.00,0.0090
3128.00,0.0089
3127.00,0.0089
3126.00,0.0089
3125.00,0.0089
3124.00,0.0089
3123.00,0.0089
3122.00,0.0089
3121.00,0.0089
3120.00,0.0089
3119.00,0.0089
3118.00,0.0089
3117.00,0.0089
3116.00,0.0089
3115.00,0.0089
3114.00,0.0089
3113.00,0.0089
3112.00,0.0089
3111.00,0.0089
3110.00,0.0089
3109.00,0.0089
3108.00,0.0089
3107.00,0.0089
3106.00,0.0089
3105.00,0.0089
3104.00,0.0090
3103.00,0.0090
3102.00,0.0090
3101.00,0.0090
3100.00,0.0090
3099.00,0.0090
3098.00,0.0091
3097.00,0.0091
3096.00,0.0091
3095.00,0.0092
3094.00,0.0092
3093.00,0.0093
3092.00,0.0093
3091.00,0.0093
3090.00,0.0094
3089.00,0.0095
3088.00,0.0096
3087.00,0.0098
3086.00,0.0100
3085.00,0.0102
3084.00,0.0105
3083.00,0.0109
3082.00,0.0115
3081.00,0.0123
3080.00,0.0133
3079.00,0.0147
3078.00,0.0161
3077.00,0.0176
3076.00,0.0188
3075.00,0.0196
3074.00,0.0196
3073.00,0.0190
3072.00,0.0179
3071.00,0.0166
3070.00,0.0153
3069.00,0.0141
3068.00,0.0131
3067.00,0.0124
3066.00,0.0119
3065.00,0.0115
3064.00,0.0112
3063.00,0.0109
3062.00,0.0107
3061.00,0.0105
3060.00,0.0104
3059.00,0.0103
3058.00,0.0102
3057.00,0.0102
3056.00,0.0101
3055.00,0.0101
3054.00,0.0101
3053.00,0.0100
3052.00,0.0101
3051.00,0.0101
3050.00,0.0102
3049.00,0.0102
3048.00,0.0103
3047.00,0.0105
3046.00,0.0106
3045.00,0.0108
3044.00,0.0109
3043.00,0.0111
3042.00,0.0112
3041.00,0.0114
3040.00,0.0115
3039.00,0.0117
3038.00,0.0119
3037.00,0.0121
3036.00,0.0123
3035.00,0.0126
3034.00,0.0128
3033.00,0.0129
3032.00,0.0130
3031.00,0.0129
3030.00,0.0128
3029.00,0.0126
3028.00,0.0124
3027.00,0.0121
3026.00,0.0118
3025.00,0.0116
3024.00,0.0115
3023.00,0.0113
3022.00,0.0112
3021.00,0.0111
3020.00,0.0111
3019.00,0.0110
3018.00,0.0110
3017.00,0.0110
3016.00,0.0110
3015.00,0.0110
3014.00,0.0110
3013.00,0.0111
3012.00,0.0112
3011.00,0.0113
3010.00,0.0113
3009.00,0.0114
3008.00,0.0114
3007.00,0.0114
3006.00,0.0114
3005.00,0.0114
3004.00,0.0114
3003.00,0.0115
3002.00,0.0115
3001.00,0.0116
3000.00,0.0116
2999.00,0.0118
2998.00,0.0119
2997.00,0.0120
2996.00,0.0122
2995.00,0.0124
2994.00,0.0126
2993.00,0.0129
2992.00,0.0133
2991.00,0.0137
2990.00,0.0141
2989.00,0.0144
2988.00,0.0146
2987.00,0.0148
2986.00,0.0148
2985.00,0.0148
2984.00,0.0149
2983.00,0.0150
2982.00,0.0154
2981.00,0.0160
2980.00,0.0170
2979.00,0.0183
2978.00,0.0199
2977.00,0.0217
2976.00,0.0237
2975.00,0.0260
2974.00,0.0285
2973.00,0.0312
2972.00,0.0341
2971.00,0.0371
2970.00,0.0401
2969.00,0.0429
2968.00,0.0454
2967.00,0.0473
2966.00,0.0486
2965.00,0.0493
2964.00,0.0496
2963.00,0.0496
2962.00,0.0494
2961.00,0.0490
2960.00,0.0484
2959.00,0.0475
2958.00,0.0463
2957.00,0.0449
2956.00,0.0434
2955.00,0.0419
2954.00,0.0405
2953.00,0.0393
2952.00,0.0384
2951.00,0.0379
2950.00,0.0378
2949.00,0.0382
2948.00,0.0393
2947.00,0.0410
2946.00,0.0432
2945.00,0.0458
2944.00,0.0486
2943.00,0.0512
2942.00,0.0537
2941.00,0.0559
2940.00,0.0579
2939.00,0.0599
2938.00,0.0620
2937.00,0.0643
2936.00,0.0669
2935.00,0.0696
2934.00,0.0725
2933.00,0.0756
2932.00,0.0789
2931.00,0.0822
2930.00,0.0856
2929.00,0.0888
2928.00,0.0919
2927.00,0.0944
2926.00,0.0962
2925.00,0.0972
2924.00,0.0974
2923.00,0.0969
2922.00,0.0961
2921.00,0.0951
2920.00,0.0942
2919.00,0.0933
2918.00,0.0926
2917.00,0.0917
2916.00,0.0907
2915.00,0.0894
2914.00,0.0876
2913.00,0.0854
2912.00,0.0828
2911.00,0.0799
2910.00,0.0769
2909.00,0.0738
2908.00,0.0708
2907.00,0.0680
2906.00,0.0655
2905.00,0.0632
2904.00,0.0612
2903.00,0.0596
2902.00,0.0581
2901.00,0.0568
2900.00,0.0554
2899.00,0.0539
2898.00,0.0523
2897.00,0.0504
2896.00,0.0486
2895.00,0.0468
2894.00,0.0451
2893.00,0.0437
2892.00,0.0425
2891.00,0.0415
2890.00,0.0407
2889.00,0.0401
2888.00,0.0396
2887.00,0.0393
2886.00,0.0391
2885.00,0.0389
2884.00,0.0388
2883.00,0.0388
2882.00,0.0389
2881.00,0.0391
2880.00,0.0394
2879.00,0.0399
2878.00,0.0405
2877.00,0.0412
2876.00,0.0420
2875.00,0.0428
2874.00,0.0436
2873.00,0.0443
2872.00,0.0447
2871.00,0.0448
2870.00,0.0446
2869.00,0.0441
2868.00,0.0435
2867.00,0.0431
2866.00,0.0432
2865.00,0.0437
2864.00,0.0450
2863.00,0.0471
2862.00,0.0499
2861.00,0.0536
2860.00,0.0579
2859.00,0.0625
2858.00,0.0669
2857.00,0.0703
2856.00,0.0721
2855.00,0.0719
2854.00,0.0699
2853.00,0.0664
2852.00,0.0619
2851.00,0.0572
2850.00,0.0524
2849.00,0.0480
2848.00,0.0439
2847.00,0.0403
2846.00,0.0372
2845.00,0.0345
2844.00,0.0322
2843.00,0.0303
2842.00,0.0289
2841.00,0.0277
2840.00,0.0269
2839.00,0.0264
2838.00,0.0263
2837.00,0.0266
2836.00,0.0274
2835.00,0.0287
2834.00,0.0307
2833.00,0.0330
2832.00,0.0356
2831.00,0.0378
2830.00,0.0393
2829.00,0.0396
2828.00,0.0385
2827.00,0.0363
2826.00,0.0334
2825.00,0.0304
2824.00,0.0275
2823.00,0.0251
2822.00,0.0230
2821.00,0.0214
2820.00,0.0202
2819.00,0.0192
2818.00,0.0184
2817.00,0.0177
2816.00,0.0172
2815.00,0.0167
2814.00,0.0163
2813.00,0.0159
2812.00,0.0156
2811.00,0.0154
2810.00,0.0151
2809.00,0.0149
2808.00,0.0147
2807.00,0.0145
2806.00,0.0143
2805.00,0.0141
2804.00,0.0140
2803.00,0.0138
2802.00,0.0136
2801.00,0.0134
2800.00,0.0133
2799.00,0.0131
2798.00,0.0130
2797.00,0.0129
2796.00,0.0127
2795.00,0.0126
2794.00,0.0125
2793.00,0.0124
2792.00,0.0123
2791.00,0.0122
2790.00,0.0121
2789.00,0.0120
2788.00,0.0120
2787.00,0.0119
2786.00,0.0118
2785.00,0.0117
2784.00,0.0116
2783.00,0.0116
2782.00,0.0115
2781.00,0.0114
2780.00,0.0113
2779.00,0.0112
2778.00,0.0112
2777.00,0.0111
2776.00,0.0110
2775.00,0.0110
2774.00,0.0110
2773.00,0.0109
2772.00,0.0109
2771.00,0.0108
2770.00,0.0108
2769.00,0.0107
2768.00,0.0107
2767.00,0.0107
2766.00,0.0106
2765.00,0.0105
2764.00,0.0105
2763.00,0.0104
2762.00,0.0104
2761.00,0.0104
2760.00,0.0103
2759.00,0.0103
2758.00,0.0103
2757.00,0.0103
