Created as New Dataset,Sample 776 By YargerLab Date Monday, July 07 2025
cm-1,A
4000.00,0.0078
3999.00,0.0078
3998.00,0.0078
3997.00,0.0078
3996.00,0.0078
3995.00,0.0078
3994.00,0.0078
3993.00,0.0078
3992.00,0.0078
3991.00,0.0078
3990.00,0.0078
3989.00,0.0078
3988.00,0.0078
3987.00,0.0078
3986.00,0.0078
3985.00,0.0078
3984.00,0.0078
3983.00,0.0078
3982.00,0.0078
3981.00,0.0079
3980.00,0.0079
3979.00,0.0079
3978.00,0.0079
3977.00,0.0079
3976.00,0.0079
3975.00,0.0079
3974.00,0.0079
3973.00,0.0079
3972.00,0.0079
3971.00,0.0079
3970.00,0.0079
3969.00,0.0079
3968.00,0.0079
3967.00,0.0079
3966.00,0.0079
3965.00,0.0079
3964.00,0.0079
3963.00,0.0079
3962.00,0.0079
3961.00,0.0080
3960.00,0.0080
3959.00,0.0080
3958.00,0.0080
3957.00,0.0080
3956.00,0.0080
3955.00,0.0080
3954.00,0.0080
3953.00,0.0080
3952.00,0.0080
3951.00,0.0080
3950.00,0.0080
3949.00,0.0079
3948.00,0.0079
3947.00,0.0079
3946.00,0.0079
3945.00,0.0079
3944.00,0.0079
3943.00,0.0079
3942.00,0.0079
3941.00,0.0079
3940.00,0.0079
3939.00,0.0080
3938.00,0.0080
3937.00,0.0080
3936.00,0.0080
3935.00,0.0080
3934.00,0.0080
3933.00,0.0080
3932.00,0.0080
3931.00,0.0080
3930.00,0.0080
3929.00,0.0080
3928.00,0.0080
3927.00,0.0080
3926.00,0.0080
3925.00,0.0080
3924.00,0.0080
3923.00,0.0081
3922.00,0.0081
3921.00,0.0081
3920.00,0.0081
3919.00,0.0081
3918.00,0.0081
3917.00,0.0081
3916.00,0.0081
3915.00,0.0080
3914.00,0.0080
3913.00,0.0079
3912.00,0.0079
3911.00,0.0079
3910.00,0.0079
3909.00,0.0079
3908.00,0.0080
3907.00,0.0080
3906.00,0.0080
3905.00,0.0080
3904.00,0.0080
3903.00,0.0081
3902.00,0.0081
3901.00,0.0081
3900.00,0.0081
3899.00,0.0080
3898.00,0.0080
3897.00,0.0079
3896.00,0.0079
3895.00,0.0079
3894.00,0.0079
3893.00,0.0079
3892.00,0.0079
3891.00,0.0079
3890.00,0.0079
3889.00,0.0079
3888.00,0.0079
3887.00,0.0079
3886.00,0.0079
3885.00,0.0079
3884.00,0.0079
3883.00,0.0078
3882.00,0.0078
3881.00,0.0078
3880.00,0.0078
3879.00,0.0079
3878.00,0.0079
3877.00,0.0079
3876.00,0.0079
3875.00,0.0079
3874.00,0.0079
3873.00,0.0079
3872.00,0.0079
3871.00,0.0079
3870.00,0.0079
3869.00,0.0079
3868.00,0.0079
3867.00,0.0079
3866.00,0.0079
3865.00,0.0078
3864.00,0.0078
3863.00,0.0078
3862.00,0.0078
3861.00,0.0078
3860.00,0.0078
3859.00,0.0078
3858.00,0.0078
3857.00,0.0079
3856.00,0.0079
3855.00,0.0080
3854.00,0.0079
3853.00,0.0079
3852.00,0.0079
3851.00,0.0079
3850.00,0.0078
3849.00,0.0077
3848.00,0.0077
3847.00,0.0077
3846.00,0.0078
3845.00,0.0078
3844.00,0.0078
3843.00,0.0079
3842.00,0.0079
3841.00,0.0079
3840.00,0.0079
3839.00,0.0079
3838.00,0.0078
3837.00,0.0078
3836.00,0.0078
3835.00,0.0077
3834.00,0.0077
3833.00,0.0077
3832.00,0.0077
3831.00,0.0076
3830.00,0.0076
3829.00,0.0076
3828.00,0.0076
3827.00,0.0076
3826.00,0.0077
3825.00,0.0077
3824.00,0.0078
3823.00,0.0078
3822.00,0.0078
3821.00,0.0078
3820.00,0.0078
3819.00,0.0078
3818.00,0.0078
3817.00,0.0077
3816.00,0.0077
3815.00,0.0076
3814.00,0.0076
3813.00,0.0076
3812.00,0.0076
3811.00,0.0077
3810.00,0.0077
3809.00,0.0077
3808.00,0.0077
3807.00,0.0077
3806.00,0.0077
3805.00,0.0077
3804.00,0.0077
3803.00,0.0077
3802.00,0.0076
3801.00,0.0076
3800.00,0.0076
3799.00,0.0077
3798.00,0.0077
3797.00,0.0076
3796.00,0.0076
3795.00,0.0076
3794.00,0.0076
3793.00,0.0076
3792.00,0.0076
3791.00,0.0076
3790.00,0.0076
3789.00,0.0076
3788.00,0.0076
3787.00,0.0076
3786.00,0.0076
3785.00,0.0076
3784.00,0.0076
3783.00,0.0076
3782.00,0.0076
3781.00,0.0076
3780.00,0.0076
3779.00,0.0076
3778.00,0.0076
3777.00,0.0075
3776.00,0.0075
3775.00,0.0075
3774.00,0.0076
3773.00,0.0076
3772.00,0.0076
3771.00,0.0076
3770.00,0.0076
3769.00,0.0076
3768.00,0.0076
3767.00,0.0076
3766.00,0.0076
3765.00,0.0076
3764.00,0.0076
3763.00,0.0077
3762.00,0.0077
3761.00,0.0077
3760.00,0.0077
3759.00,0.0077
3758.00,0.0077
3757.00,0.0077
3756.00,0.0077
3755.00,0.0077
3754.00,0.0077
3753.00,0.0077
3752.00,0.0077
3751.00,0.0077
3750.00,0.0077
3749.00,0.0077
3748.00,0.0077
3747.00,0.0077
3746.00,0.0077
3745.00,0.0076
3744.00,0.0076
3743.00,0.0076
3742.00,0.0076
3741.00,0.0075
3740.00,0.0075
3739.00,0.0075
3738.00,0.0075
3737.00,0.0075
3736.00,0.0075
3735.00,0.0075
3734.00,0.0075
3733.00,0.0074
3732.00,0.0074
3731.00,0.0074
3730.00,0.0074
3729.00,0.0074
3728.00,0.0073
3727.00,0.0073
3726.00,0.0073
3725.00,0.0073
3724.00,0.0073
3723.00,0.0073
3722.00,0.0073
3721.00,0.0073
3720.00,0.0072
3719.00,0.0072
3718.00,0.0073
3717.00,0.0073
3716.00,0.0073
3715.00,0.0073
3714.00,0.0073
3713.00,0.0073
3712.00,0.0073
3711.00,0.0073
3710.00,0.0073
3709.00,0.0073
3708.00,0.0073
3707.00,0.0073
3706.00,0.0072
3705.00,0.0072
3704.00,0.0072
3703.00,0.0072
3702.00,0.0072
3701.00,0.0072
3700.00,0.0072
3699.00,0.0072
3698.00,0.0072
3697.00,0.0072
3696.00,0.0072
3695.00,0.0072
3694.00,0.0072
3693.00,0.0073
3692.00,0.0073
3691.00,0.0073
3690.00,0.0072
3689.00,0.0072
3688.00,0.0072
3687.00,0.0072
3686.00,0.0072
3685.00,0.0071
3684.00,0.0071
3683.00,0.0071
3682.00,0.0072
3681.00,0.0072
3680.00,0.0072
3679.00,0.0073
3678.00,0.0074
3677.00,0.0074
3676.00,0.0074
3675.00,0.0074
3674.00,0.0074
3673.00,0.0074
3672.00,0.0074
3671.00,0.0073
3670.00,0.0073
3669.00,0.0072
3668.00,0.0072
3667.00,0.0072
3666.00,0.0071
3665.00,0.0071
3664.00,0.0071
3663.00,0.0070
3662.00,0.0070
3661.00,0.0071
3660.00,0.0071
3659.00,0.0071
3658.00,0.0071
3657.00,0.0071
3656.00,0.0072
3655.00,0.0072
3654.00,0.0072
3653.00,0.0072
3652.00,0.0073
3651.00,0.0073
3650.00,0.0073
3649.00,0.0073
3648.00,0.0073
3647.00,0.0072
3646.00,0.0072
3645.00,0.0071
3644.00,0.0071
3643.00,0.0071
3642.00,0.0070
3641.00,0.0070
3640.00,0.0070
3639.00,0.0071
3638.00,0.0071
3637.00,0.0071
3636.00,0.0071
3635.00,0.0071
3634.00,0.0071
3633.00,0.0071
3632.00,0.0071
3631.00,0.0071
3630.00,0.0071
3629.00,0.0071
3628.00,0.0071
3627.00,0.0071
3626.00,0.0071
3625.00,0.0070
3624.00,0.0070
3623.00,0.0071
3622.00,0.0071
3621.00,0.0071
3620.00,0.0071
3619.00,0.0071
3618.00,0.0071
3617.00,0.0072
3616.00,0.0072
3615.00,0.0072
3614.00,0.0072
3613.00,0.0072
3612.00,0.0072
3611.00,0.0072
3610.00,0.0072
3609.00,0.0072
3608.00,0.0072
3607.00,0.0072
3606.00,0.0072
3605.00,0.0072
3604.00,0.0072
3603.00,0.0072
3602.00,0.0072
3601.00,0.0072
3600.00,0.0071
3599.00,0.0071
3598.00,0.0072
3597.00,0.0072
3596.00,0.0072
3595.00,0.0072
3594.00,0.0072
3593.00,0.0073
3592.00,0.0073
3591.00,0.0074
3590.00,0.0074
3589.00,0.0074
3588.00,0.0074
3587.00,0.0074
3586.00,0.0075
3585.00,0.0075
3584.00,0.0075
3583.00,0.0075
3582.00,0.0075
3581.00,0.0075
3580.00,0.0075
3579.00,0.0075
3578.00,0.0075
3577.00,0.0076
3576.00,0.0076
3575.00,0.0076
3574.00,0.0077
3573.00,0.0077
3572.00,0.0078
3571.00,0.0079
3570.00,0.0080
3569.00,0.0081
3568.00,0.0082
3567.00,0.0082
3566.00,0.0082
3565.00,0.0083
3564.00,0.0083
3563.00,0.0083
3562.00,0.0084
3561.00,0.0085
3560.00,0.0086
3559.00,0.0087
3558.00,0.0088
3557.00,0.0089
3556.00,0.0090
3555.00,0.0091
3554.00,0.0093
3553.00,0.0094
3552.00,0.0096
3551.00,0.0098
3550.00,0.0099
3549.00,0.0102
3548.00,0.0104
3547.00,0.0107
3546.00,0.0110
3545.00,0.0113
3544.00,0.0116
3543.00,0.0120
3542.00,0.0124
3541.00,0.0128
3540.00,0.0132
3539.00,0.0138
3538.00,0.0144
3537.00,0.0151
3536.00,0.0159
3535.00,0.0168
3534.00,0.0179
3533.00,0.0190
3532.00,0.0205
3531.00,0.0222
3530.00,0.0242
3529.00,0.0265
3528.00,0.0292
3527.00,0.0320
3526.00,0.0349
3525.00,0.0377
3524.00,0.0404
3523.00,0.0428
3522.00,0.0446
3521.00,0.0459
3520.00,0.0466
3519.00,0.0466
3518.00,0.0462
3517.00,0.0452
3516.00,0.0439
3515.00,0.0423
3514.00,0.0405
3513.00,0.0386
3512.00,0.0367
3511.00,0.0348
3510.00,0.0330
3509.00,0.0314
3508.00,0.0300
3507.00,0.0287
3506.00,0.0276
3505.00,0.0267
3504.00,0.0259
3503.00,0.0252
3502.00,0.0247
3501.00,0.0242
3500.00,0.0239
3499.00,0.0236
3498.00,0.0234
3497.00,0.0232
3496.00,0.0231
3495.00,0.0231
3494.00,0.0231
3493.00,0.0231
3492.00,0.0232
3491.00,0.0233
3490.00,0.0234
3489.00,0.0235
3488.00,0.0237
3487.00,0.0239
3486.00,0.0241
3485.00,0.0243
3484.00,0.0245
3483.00,0.0248
3482.00,0.0251
3481.00,0.0254
3480.00,0.0258
3479.00,0.0261
3478.00,0.0265
3477.00,0.0269
3476.00,0.0272
3475.00,0.0276
3474.00,0.0281
3473.00,0.0285
3472.00,0.0290
3471.00,0.0295
3470.00,0.0300
3469.00,0.0305
3468.00,0.0311
3467.00,0.0317
3466.00,0.0322
3465.00,0.0328
3464.00,0.0334
3463.00,0.0340
3462.00,0.0346
3461.00,0.0352
3460.00,0.0358
3459.00,0.0364
3458.00,0.0371
3457.00,0.0377
3456.00,0.0383
3455.00,0.0389
3454.00,0.0395
3453.00,0.0401
3452.00,0.0406
3451.00,0.0412
3450.00,0.0418
3449.00,0.0424
3448.00,0.0430
3447.00,0.0436
3446.00,0.0442
3445.00,0.0448
3444.00,0.0453
3443.00,0.0459
3442.00,0.0464
3441.00,0.0470
3440.00,0.0476
3439.00,0.0482
3438.00,0.0487
3437.00,0.0492
3436.00,0.0498
3435.00,0.0503
3434.00,0.0508
3433.00,0.0514
3432.00,0.0519
3431.00,0.0525
3430.00,0.0530
3429.00,0.0535
3428.00,0.0540
3427.00,0.0546
3426.00,0.0551
3425.00,0.0557
3424.00,0.0564
3423.00,0.0570
3422.00,0.0578
3421.00,0.0587
3420.00,0.0596
3419.00,0.0605
3418.00,0.0615
3417.00,0.0624
3416.00,0.0634
3415.00,0.0643
3414.00,0.0653
3413.00,0.0662
3412.00,0.0670
3411.00,0.0677
3410.00,0.0683
3409.00,0.0687
3408.00,0.0690
3407.00,0.0690
3406.00,0.0688
3405.00,0.0684
3404.00,0.0678
3403.00,0.0669
3402.00,0.0658
3401.00,0.0646
3400.00,0.0631
3399.00,0.0614
3398.00,0.0596
3397.00,0.0578
3396.00,0.0560
3395.00,0.0542
3394.00,0.0524
3393.00,0.0506
3392.00,0.0489
3391.00,0.0473
3390.00,0.0457
3389.00,0.0442
3388.00,0.0429
3387.00,0.0416
3386.00,0.0404
3385.00,0.0392
3384.00,0.0382
3383.00,0.0372
3382.00,0.0363
3381.00,0.0354
3380.00,0.0346
3379.00,0.0338
3378.00,0.0331
3377.00,0.0324
3376.00,0.0317
3375.00,0.0311
3374.00,0.0304
3373.00,0.0299
3372.00,0.0293
3371.00,0.0288
3370.00,0.0283
3369.00,0.0277
3368.00,0.0272
3367.00,0.0267
3366.00,0.0262
3365.00,0.0258
3364.00,0.0254
3363.00,0.0249
3362.00,0.0245
3361.00,0.0241
3360.00,0.0237
3359.00,0.0233
3358.00,0.0230
3357.00,0.0226
3356.00,0.0223
3355.00,0.0220
3354.00,0.0217
3353.00,0.0214
3352.00,0.0211
3351.00,0.0208
3350.00,0.0205
3349.00,0.0202
3348.00,0.0200
3347.00,0.0197
3346.00,0.0195
3345.00,0.0192
3344.00,0.0190
3343.00,0.0188
3342.00,0.0186
3341.00,0.0184
3340.00,0.0182
3339.00,0.0180
3338.00,0.0178
3337.00,0.0176
3336.00,0.0174
3335.00,0.0172
3334.00,0.0170
3333.00,0.0168
3332.00,0.0167
3331.00,0.0165
3330.00,0.0164
3329.00,0.0163
3328.00,0.0162
3327.00,0.0160
3326.00,0.0159
3325.00,0.0158
3324.00,0.0157
3323.00,0.0155
3322.00,0.0154
3321.00,0.0152
3320.00,0.0151
3319.00,0.0149
3318.00,0.0148
3317.00,0.0147
3316.00,0.0147
3315.00,0.0146
3314.00,0.0145
3313.00,0.0144
3312.00,0.0143
3311.00,0.0142
3310.00,0.0141
3309.00,0.0140
3308.00,0.0139
3307.00,0.0138
3306.00,0.0137
3305.00,0.0136
3304.00,0.0135
3303.00,0.0134
3302.00,0.0133
3301.00,0.0132
3300.00,0.0131
3299.00,0.0130
3298.00,0.0129
3297.00,0.0128
3296.00,0.0127
3295.00,0.0127
3294.00,0.0126
3293.00,0.0125
3292.00,0.0125
3291.00,0.0124
3290.00,0.0124
3289.00,0.0123
3288.00,0.0123
3287.00,0.0122
3286.00,0.0122
3285.00,0.0121
3284.00,0.0120
3283.00,0.0120
3282.00,0.0119
3281.00,0.0118
3280.00,0.0118
3279.00,0.0117
3278.00,0.0116
3277.00,0.0116
3276.00,0.0115
3275.00,0.0114
3274.00,0.0113
3273.00,0.0113
3272.00,0.0112
3271.00,0.0112
3270.00,0.0112
3269.00,0.0112
3268.00,0.0112
3267.00,0.0112
3266.00,0.0112
3265.00,0.0112
3264.00,0.0112
3263.00,0.0112
3262.00,0.0112
3261.00,0.0112
3260.00,0.0111
3259.00,0.0111
3258.00,0.0110
3257.00,0.0109
3256.00,0.0109
3255.00,0.0109
3254.00,0.0109
3253.00,0.0110
3252.00,0.0109
3251.00,0.0109
3250.00,0.0108
3249.00,0.0107
3248.00,0.0107
3247.00,0.0106
3246.00,0.0107
3245.00,0.0107
3244.00,0.0107
3243.00,0.0107
3242.00,0.0107
3241.00,0.0106
3240.00,0.0106
3239.00,0.0105
3238.00,0.0104
3237.00,0.0103
3236.00,0.0102
3235.00,0.0102
3234.00,0.0101
3233.00,0.0101
3232.00,0.0101
3231.00,0.0102
3230.00,0.0102
3229.00,0.0101
3228.00,0.0101
3227.00,0.0101
3226.00,0.0100
3225.00,0.0100
3224.00,0.0100
3223.00,0.0100
3222.00,0.0100
3221.00,0.0099
3220.00,0.0099
3219.00,0.0099
3218.00,0.0099
3217.00,0.0099
3216.00,0.0099
3215.00,0.0099
3214.00,0.0099
3213.00,0.0098
3212.00,0.0098
3211.00,0.0098
3210.00,0.0098
3209.00,0.0098
3208.00,0.0098
3207.00,0.0098
3206.00,0.0098
3205.00,0.0098
3204.00,0.0098
3203.00,0.0098
3202.00,0.0098
3201.00,0.0098
3200.00,0.0098
3199.00,0.0098
3198.00,0.0097
3197.00,0.0097
3196.00,0.0097
3195.00,0.0096
3194.00,0.0096
3193.00,0.0096
3192.00,0.0095
3191.00,0.0095
3190.00,0.0095
3189.00,0.0095
3188.00,0.0095
3187.00,0.0095
3186.00,0.0095
3185.00,0.0095
3184.00,0.0095
3183.00,0.0096
3182.00,0.0096
3181.00,0.0096
3180.00,0.0096
3179.00,0.0096
3178.00,0.0096
3177.00,0.0097
3176.00,0.0097
3175.00,0.0097
3174.00,0.0097
3173.00,0.0097
3172.00,0.0098
3171.00,0.0098
3170.00,0.0098
3169.00,0.0098
3168.00,0.0098
3167.00,0.0098
3166.00,0.0098
3165.00,0.0098
3164.00,0.0098
3163.00,0.0098
3162.00,0.0098
3161.00,0.0098
3160.00,0.0098
3159.00,0.0097
3158.00,0.0097
3157.00,0.0096
3156.00,0.0095
3155.00,0.0095
3154.00,0.0094
3153.00,0.0093
3152.00,0.0093
3151.00,0.0093
3150.00,0.0094
3149.00,0.0094
3148.00,0.0094
3147.00,0.0094
3146.00,0.0094
3145.00,0.0094
3144.00,0.0094
3143.00,0.0093
3142.00,0.0093
3141.00,0.0093
3140.00,0.0093
3139.00,0.0093
3138.00,0.0093
3137.00,0.0093
3136.00,0.0093
3135.00,0.0092
3134.00,0.0092
3133.00,0.0092
3132.00,0.0093
3131.00,0.0092
3130.00,0.0092
3129.00,0.0092
3128.00,0.0092
3127.00,0.0092
3126.00,0.0092
3125.00,0.0092
3124.00,0.0092
3123.00,0.0092
3122.00,0.0091
3121.00,0.0091
3120.00,0.0091
3119.00,0.0091
3118.00,0.0091
3117.00,0.0091
3116.00,0.0091
3115.00,0.0091
3114.00,0.0091
3113.00,0.0091
3112.00,0.0091
3111.00,0.0091
3110.00,0.0091
3109.00,0.0091
3108.00,0.0091
3107.00,0.0091
3106.00,0.0091
3105.00,0.0091
3104.00,0.0091
3103.00,0.0091
3102.00,0.0091
3101.00,0.0091
3100.00,0.0092
3099.00,0.0092
3098.00,0.0092
3097.00,0.0092
3096.00,0.0093
3095.00,0.0093
3094.00,0.0093
3093.00,0.0094
3092.00,0.0094
3091.00,0.0095
3090.00,0.0095
3089.00,0.0096
3088.00,0.0097
3087.00,0.0099
3086.00,0.0100
3085.00,0.0103
3084.00,0.0106
3083.00,0.0110
3082.00,0.0116
3081.00,0.0123
3080.00,0.0132
3079.00,0.0143
3078.00,0.0154
3077.00,0.0164
3076.00,0.0172
3075.00,0.0175
3074.00,0.0173
3073.00,0.0167
3072.00,0.0158
3071.00,0.0147
3070.00,0.0137
3069.00,0.0129
3068.00,0.0122
3067.00,0.0117
3066.00,0.0113
3065.00,0.0110
3064.00,0.0108
3063.00,0.0106
3062.00,0.0104
3061.00,0.0103
3060.00,0.0102
3059.00,0.0101
3058.00,0.0100
3057.00,0.0100
3056.00,0.0099
3055.00,0.0099
3054.00,0.0099
3053.00,0.0099
3052.00,0.0099
3051.00,0.0099
3050.00,0.0100
3049.00,0.0101
3048.00,0.0102
3047.00,0.0103
3046.00,0.0104
3045.00,0.0105
3044.00,0.0106
3043.00,0.0107
3042.00,0.0108
3041.00,0.0109
3040.00,0.0110
3039.00,0.0112
3038.00,0.0113
3037.00,0.0115
3036.00,0.0116
3035.00,0.0118
3034.00,0.0119
3033.00,0.0120
3032.00,0.0120
3031.00,0.0119
3030.00,0.0118
3029.00,0.0116
3028.00,0.0114
3027.00,0.0113
3026.00,0.0111
3025.00,0.0110
3024.00,0.0109
3023.00,0.0108
3022.00,0.0107
3021.00,0.0107
3020.00,0.0107
3019.00,0.0107
3018.00,0.0107
3017.00,0.0107
3016.00,0.0108
3015.00,0.0108
3014.00,0.0109
3013.00,0.0110
3012.00,0.0110
3011.00,0.0112
3010.00,0.0113
3009.00,0.0114
3008.00,0.0115
3007.00,0.0116
3006.00,0.0117
3005.00,0.0118
3004.00,0.0119
3003.00,0.0120
3002.00,0.0121
3001.00,0.0123
3000.00,0.0124
2999.00,0.0126
2998.00,0.0127
2997.00,0.0129
2996.00,0.0131
2995.00,0.0133
2994.00,0.0136
2993.00,0.0139
2992.00,0.0142
2991.00,0.0146
2990.00,0.0149
2989.00,0.0152
2988.00,0.0155
2987.00,0.0157
2986.00,0.0160
2985.00,0.0163
2984.00,0.0166
2983.00,0.0171
2982.00,0.0177
2981.00,0.0184
2980.00,0.0193
2979.00,0.0203
2978.00,0.0215
2977.00,0.0228
2976.00,0.0244
2975.00,0.0262
2974.00,0.0281
2973.00,0.0302
2972.00,0.0323
2971.00,0.0345
2970.00,0.0367
2969.00,0.0386
2968.00,0.0403
2967.00,0.0416
2966.00,0.0424
2965.00,0.0428
2964.00,0.0428
2963.00,0.0426
2962.00,0.0423
2961.00,0.0418
2960.00,0.0411
2959.00,0.0403
2958.00,0.0393
2957.00,0.0382
2956.00,0.0371
2955.00,0.0360
2954.00,0.0351
2953.00,0.0344
2952.00,0.0338
2951.00,0.0336
2950.00,0.0338
2949.00,0.0343
2948.00,0.0353
2947.00,0.0367
2946.00,0.0383
2945.00,0.0402
2944.00,0.0421
2943.00,0.0440
2942.00,0.0457
2941.00,0.0474
2940.00,0.0489
2939.00,0.0506
2938.00,0.0523
2937.00,0.0542
2936.00,0.0562
2935.00,0.0583
2934.00,0.0606
2933.00,0.0629
2932.00,0.0653
2931.00,0.0676
2930.00,0.0699
2929.00,0.0721
2928.00,0.0740
2927.00,0.0756
2926.00,0.0767
2925.00,0.0773
2924.00,0.0773
2923.00,0.0769
2922.00,0.0763
2921.00,0.0757
2920.00,0.0750
2919.00,0.0744
2918.00,0.0739
2917.00,0.0733
2916.00,0.0725
2915.00,0.0715
2914.00,0.0702
2913.00,0.0685
2912.00,0.0667
2911.00,0.0646
2910.00,0.0624
2909.00,0.0603
2908.00,0.0582
2907.00,0.0562
2906.00,0.0543
2905.00,0.0526
2904.00,0.0512
2903.00,0.0499
2902.00,0.0488
2901.00,0.0477
2900.00,0.0466
2899.00,0.0454
2898.00,0.0441
2897.00,0.0428
2896.00,0.0414
2895.00,0.0401
2894.00,0.0389
2893.00,0.0379
2892.00,0.0371
2891.00,0.0364
2890.00,0.0358
2889.00,0.0354
2888.00,0.0350
2887.00,0.0348
2886.00,0.0346
2885.00,0.0344
2884.00,0.0343
2883.00,0.0343
2882.00,0.0343
2881.00,0.0345
2880.00,0.0347
2879.00,0.0350
2878.00,0.0354
2877.00,0.0360
2876.00,0.0365
2875.00,0.0372
2874.00,0.0378
2873.00,0.0383
2872.00,0.0386
2871.00,0.0387
2870.00,0.0385
2869.00,0.0381
2868.00,0.0377
2867.00,0.0375
2866.00,0.0376
2865.00,0.0381
2864.00,0.0392
2863.00,0.0409
2862.00,0.0431
2861.00,0.0459
2860.00,0.0492
2859.00,0.0525
2858.00,0.0555
2857.00,0.0578
2856.00,0.0588
2855.00,0.0584
2854.00,0.0567
2853.00,0.0540
2852.00,0.0507
2851.00,0.0472
2850.00,0.0437
2849.00,0.0404
2848.00,0.0374
2847.00,0.0347
2846.00,0.0323
2845.00,0.0302
2844.00,0.0285
2843.00,0.0271
2842.00,0.0259
2841.00,0.0250
2840.00,0.0243
2839.00,0.0239
2838.00,0.0239
2837.00,0.0241
2836.00,0.0247
2835.00,0.0258
2834.00,0.0272
2833.00,0.0290
2832.00,0.0309
2831.00,0.0326
2830.00,0.0336
2829.00,0.0337
2828.00,0.0328
2827.00,0.0311
2826.00,0.0289
2825.00,0.0266
2824.00,0.0244
2823.00,0.0226
2822.00,0.0211
2821.00,0.0199
2820.00,0.0189
2819.00,0.0182
2818.00,0.0176
2817.00,0.0171
2816.00,0.0166
2815.00,0.0162
2814.00,0.0159
2813.00,0.0156
2812.00,0.0153
2811.00,0.0151
2810.00,0.0149
2809.00,0.0147
2808.00,0.0145
2807.00,0.0144
2806.00,0.0142
2805.00,0.0140
2804.00,0.0139
2803.00,0.0137
2802.00,0.0136
2801.00,0.0134
2800.00,0.0133
2799.00,0.0131
2798.00,0.0130
2797.00,0.0129
2796.00,0.0128
2795.00,0.0127
2794.00,0.0126
2793.00,0.0125
2792.00,0.0125
2791.00,0.0124
2790.00,0.0123
2789.00,0.0123
2788.00,0.0122
2787.00,0.0121
2786.00,0.0120
2785.00,0.0119
2784.00,0.0119
2783.00,0.0118
2782.00,0.0117
2781.00,0.0117
2780.00,0.0116
2779.00,0.0115
2778.00,0.0114
2777.00,0.0114
2776.00,0.0113
2775.00,0.0113
2774.00,0.0113
2773.00,0.0112
2772.00,0.0112
2771.00,0.0112
2770.00,0.0111
2769.00,0.0111
2768.00,0.0110
2767.00,0.0110
2766.00,0.0109
2765.00,0.0109
2764.00,0.0109
2763.00,0.0108
2762.00,0.0108
2761.00,0.0107
2760.00,0.0107
2759.00,0.0107
2758.00,0.0106
2757.00,0.0106
