Created as New Dataset,Sample 1092 By YargerLab Date Wednesday, August 06 2025
cm-1,A
4000.00,0.0003
3999.00,0.0003
3998.00,0.0003
3997.00,0.0003
3996.00,0.0003
3995.00,0.0003
3994.00,0.0003
3993.00,0.0003
3992.00,0.0003
3991.00,0.0003
3990.00,0.0003
3989.00,0.0003
3988.00,0.0003
3987.00,0.0003
3986.00,0.0003
3985.00,0.0003
3984.00,0.0003
3983.00,0.0002
3982.00,0.0002
3981.00,0.0003
3980.00,0.0003
3979.00,0.0003
3978.00,0.0003
3977.00,0.0003
3976.00,0.0003
3975.00,0.0003
3974.00,0.0003
3973.00,0.0003
3972.00,0.0003
3971.00,0.0003
3970.00,0.0003
3969.00,0.0003
3968.00,0.0003
3967.00,0.0003
3966.00,0.0003
3965.00,0.0003
3964.00,0.0003
3963.00,0.0003
3962.00,0.0003
3961.00,0.0003
3960.00,0.0003
3959.00,0.0003
3958.00,0.0003
3957.00,0.0003
3956.00,0.0003
3955.00,0.0003
3954.00,0.0003
3953.00,0.0003
3952.00,0.0003
3951.00,0.0003
3950.00,0.0003
3949.00,0.0003
3948.00,0.0003
3947.00,0.0003
3946.00,0.0003
3945.00,0.0003
3944.00,0.0003
3943.00,0.0003
3942.00,0.0003
3941.00,0.0003
3940.00,0.0003
3939.00,0.0003
3938.00,0.0003
3937.00,0.0003
3936.00,0.0004
3935.00,0.0004
3934.00,0.0004
3933.00,0.0004
3932.00,0.0004
3931.00,0.0004
3930.00,0.0004
3929.00,0.0004
3928.00,0.0004
3927.00,0.0004
3926.00,0.0004
3925.00,0.0004
3924.00,0.0003
3923.00,0.0003
3922.00,0.0003
3921.00,0.0004
3920.00,0.0004
3919.00,0.0004
3918.00,0.0004
3917.00,0.0004
3916.00,0.0004
3915.00,0.0004
3914.00,0.0004
3913.00,0.0004
3912.00,0.0004
3911.00,0.0003
3910.00,0.0003
3909.00,0.0004
3908.00,0.0004
3907.00,0.0004
3906.00,0.0005
3905.00,0.0005
3904.00,0.0006
3903.00,0.0006
3902.00,0.0007
3901.00,0.0007
3900.00,0.0007
3899.00,0.0006
3898.00,0.0006
3897.00,0.0005
3896.00,0.0005
3895.00,0.0005
3894.00,0.0005
3893.00,0.0005
3892.00,0.0005
3891.00,0.0005
3890.00,0.0005
3889.00,0.0006
3888.00,0.0006
3887.00,0.0006
3886.00,0.0005
3885.00,0.0004
3884.00,0.0004
3883.00,0.0004
3882.00,0.0004
3881.00,0.0004
3880.00,0.0004
3879.00,0.0004
3878.00,0.0004
3877.00,0.0004
3876.00,0.0005
3875.00,0.0005
3874.00,0.0005
3873.00,0.0005
3872.00,0.0006
3871.00,0.0006
3870.00,0.0006
3869.00,0.0006
3868.00,0.0006
3867.00,0.0006
3866.00,0.0006
3865.00,0.0006
3864.00,0.0006
3863.00,0.0006
3862.00,0.0006
3861.00,0.0005
3860.00,0.0005
3859.00,0.0005
3858.00,0.0006
3857.00,0.0006
3856.00,0.0008
3855.00,0.0009
3854.00,0.0009
3853.00,0.0009
3852.00,0.0009
3851.00,0.0009
3850.00,0.0008
3849.00,0.0007
3848.00,0.0006
3847.00,0.0006
3846.00,0.0005
3845.00,0.0006
3844.00,0.0006
3843.00,0.0006
3842.00,0.0006
3841.00,0.0006
3840.00,0.0007
3839.00,0.0007
3838.00,0.0007
3837.00,0.0006
3836.00,0.0007
3835.00,0.0007
3834.00,0.0007
3833.00,0.0006
3832.00,0.0006
3831.00,0.0006
3830.00,0.0005
3829.00,0.0005
3828.00,0.0005
3827.00,0.0005
3826.00,0.0005
3825.00,0.0005
3824.00,0.0006
3823.00,0.0006
3822.00,0.0006
3821.00,0.0006
3820.00,0.0006
3819.00,0.0007
3818.00,0.0007
3817.00,0.0006
3816.00,0.0006
3815.00,0.0005
3814.00,0.0005
3813.00,0.0005
3812.00,0.0005
3811.00,0.0004
3810.00,0.0004
3809.00,0.0004
3808.00,0.0005
3807.00,0.0005
3806.00,0.0005
3805.00,0.0006
3804.00,0.0007
3803.00,0.0007
3802.00,0.0007
3801.00,0.0007
3800.00,0.0006
3799.00,0.0006
3798.00,0.0006
3797.00,0.0005
3796.00,0.0004
3795.00,0.0004
3794.00,0.0003
3793.00,0.0003
3792.00,0.0003
3791.00,0.0003
3790.00,0.0003
3789.00,0.0004
3788.00,0.0004
3787.00,0.0004
3786.00,0.0005
3785.00,0.0004
3784.00,0.0004
3783.00,0.0004
3782.00,0.0004
3781.00,0.0004
3780.00,0.0004
3779.00,0.0004
3778.00,0.0004
3777.00,0.0004
3776.00,0.0004
3775.00,0.0004
3774.00,0.0004
3773.00,0.0004
3772.00,0.0005
3771.00,0.0005
3770.00,0.0005
3769.00,0.0005
3768.00,0.0005
3767.00,0.0004
3766.00,0.0004
3765.00,0.0004
3764.00,0.0005
3763.00,0.0005
3762.00,0.0005
3761.00,0.0005
3760.00,0.0005
3759.00,0.0005
3758.00,0.0005
3757.00,0.0006
3756.00,0.0006
3755.00,0.0007
3754.00,0.0008
3753.00,0.0008
3752.00,0.0009
3751.00,0.0009
3750.00,0.0009
3749.00,0.0009
3748.00,0.0010
3747.00,0.0010
3746.00,0.0010
3745.00,0.0009
3744.00,0.0009
3743.00,0.0009
3742.00,0.0009
3741.00,0.0009
3740.00,0.0008
3739.00,0.0008
3738.00,0.0008
3737.00,0.0008
3736.00,0.0008
3735.00,0.0008
3734.00,0.0007
3733.00,0.0007
3732.00,0.0007
3731.00,0.0006
3730.00,0.0006
3729.00,0.0005
3728.00,0.0005
3727.00,0.0005
3726.00,0.0004
3725.00,0.0004
3724.00,0.0004
3723.00,0.0004
3722.00,0.0004
3721.00,0.0004
3720.00,0.0004
3719.00,0.0004
3718.00,0.0004
3717.00,0.0004
3716.00,0.0004
3715.00,0.0004
3714.00,0.0005
3713.00,0.0006
3712.00,0.0007
3711.00,0.0007
3710.00,0.0006
3709.00,0.0006
3708.00,0.0005
3707.00,0.0005
3706.00,0.0004
3705.00,0.0004
3704.00,0.0003
3703.00,0.0003
3702.00,0.0003
3701.00,0.0003
3700.00,0.0003
3699.00,0.0003
3698.00,0.0003
3697.00,0.0002
3696.00,0.0002
3695.00,0.0002
3694.00,0.0003
3693.00,0.0003
3692.00,0.0004
3691.00,0.0005
3690.00,0.0005
3689.00,0.0006
3688.00,0.0005
3687.00,0.0005
3686.00,0.0005
3685.00,0.0004
3684.00,0.0004
3683.00,0.0003
3682.00,0.0003
3681.00,0.0003
3680.00,0.0004
3679.00,0.0005
3678.00,0.0006
3677.00,0.0007
3676.00,0.0007
3675.00,0.0007
3674.00,0.0008
3673.00,0.0008
3672.00,0.0008
3671.00,0.0008
3670.00,0.0007
3669.00,0.0006
3668.00,0.0006
3667.00,0.0006
3666.00,0.0005
3665.00,0.0004
3664.00,0.0004
3663.00,0.0003
3662.00,0.0003
3661.00,0.0004
3660.00,0.0004
3659.00,0.0005
3658.00,0.0005
3657.00,0.0005
3656.00,0.0005
3655.00,0.0006
3654.00,0.0006
3653.00,0.0007
3652.00,0.0008
3651.00,0.0008
3650.00,0.0008
3649.00,0.0008
3648.00,0.0008
3647.00,0.0008
3646.00,0.0008
3645.00,0.0007
3644.00,0.0006
3643.00,0.0006
3642.00,0.0006
3641.00,0.0005
3640.00,0.0005
3639.00,0.0005
3638.00,0.0005
3637.00,0.0005
3636.00,0.0006
3635.00,0.0006
3634.00,0.0006
3633.00,0.0007
3632.00,0.0007
3631.00,0.0008
3630.00,0.0009
3629.00,0.0009
3628.00,0.0009
3627.00,0.0009
3626.00,0.0009
3625.00,0.0008
3624.00,0.0008
3623.00,0.0007
3622.00,0.0007
3621.00,0.0008
3620.00,0.0008
3619.00,0.0009
3618.00,0.0010
3617.00,0.0010
3616.00,0.0010
3615.00,0.0010
3614.00,0.0010
3613.00,0.0011
3612.00,0.0011
3611.00,0.0011
3610.00,0.0011
3609.00,0.0011
3608.00,0.0011
3607.00,0.0011
3606.00,0.0011
3605.00,0.0011
3604.00,0.0010
3603.00,0.0010
3602.00,0.0010
3601.00,0.0010
3600.00,0.0010
3599.00,0.0010
3598.00,0.0011
3597.00,0.0011
3596.00,0.0011
3595.00,0.0011
3594.00,0.0011
3593.00,0.0011
3592.00,0.0012
3591.00,0.0012
3590.00,0.0013
3589.00,0.0013
3588.00,0.0013
3587.00,0.0013
3586.00,0.0013
3585.00,0.0013
3584.00,0.0014
3583.00,0.0014
3582.00,0.0013
3581.00,0.0013
3580.00,0.0013
3579.00,0.0013
3578.00,0.0013
3577.00,0.0013
3576.00,0.0014
3575.00,0.0014
3574.00,0.0014
3573.00,0.0014
3572.00,0.0015
3571.00,0.0016
3570.00,0.0017
3569.00,0.0018
3568.00,0.0018
3567.00,0.0018
3566.00,0.0018
3565.00,0.0018
3564.00,0.0019
3563.00,0.0019
3562.00,0.0018
3561.00,0.0018
3560.00,0.0018
3559.00,0.0018
3558.00,0.0018
3557.00,0.0018
3556.00,0.0018
3555.00,0.0019
3554.00,0.0019
3553.00,0.0019
3552.00,0.0020
3551.00,0.0020
3550.00,0.0020
3549.00,0.0021
3548.00,0.0021
3547.00,0.0021
3546.00,0.0021
3545.00,0.0021
3544.00,0.0022
3543.00,0.0022
3542.00,0.0022
3541.00,0.0022
3540.00,0.0022
3539.00,0.0023
3538.00,0.0023
3537.00,0.0023
3536.00,0.0023
3535.00,0.0024
3534.00,0.0024
3533.00,0.0024
3532.00,0.0024
3531.00,0.0024
3530.00,0.0024
3529.00,0.0025
3528.00,0.0025
3527.00,0.0025
3526.00,0.0026
3525.00,0.0026
3524.00,0.0026
3523.00,0.0026
3522.00,0.0026
3521.00,0.0026
3520.00,0.0026
3519.00,0.0026
3518.00,0.0026
3517.00,0.0026
3516.00,0.0026
3515.00,0.0026
3514.00,0.0027
3513.00,0.0027
3512.00,0.0028
3511.00,0.0028
3510.00,0.0028
3509.00,0.0028
3508.00,0.0028
3507.00,0.0028
3506.00,0.0028
3505.00,0.0029
3504.00,0.0029
3503.00,0.0029
3502.00,0.0029
3501.00,0.0029
3500.00,0.0029
3499.00,0.0029
3498.00,0.0029
3497.00,0.0030
3496.00,0.0030
3495.00,0.0030
3494.00,0.0030
3493.00,0.0030
3492.00,0.0030
3491.00,0.0030
3490.00,0.0030
3489.00,0.0030
3488.00,0.0030
3487.00,0.0030
3486.00,0.0030
3485.00,0.0031
3484.00,0.0031
3483.00,0.0031
3482.00,0.0032
3481.00,0.0032
3480.00,0.0032
3479.00,0.0032
3478.00,0.0032
3477.00,0.0032
3476.00,0.0032
3475.00,0.0032
3474.00,0.0033
3473.00,0.0033
3472.00,0.0033
3471.00,0.0034
3470.00,0.0034
3469.00,0.0034
3468.00,0.0034
3467.00,0.0034
3466.00,0.0034
3465.00,0.0034
3464.00,0.0034
3463.00,0.0035
3462.00,0.0035
3461.00,0.0035
3460.00,0.0035
3459.00,0.0035
3458.00,0.0035
3457.00,0.0035
3456.00,0.0036
3455.00,0.0036
3454.00,0.0036
3453.00,0.0036
3452.00,0.0037
3451.00,0.0037
3450.00,0.0037
3449.00,0.0038
3448.00,0.0038
3447.00,0.0038
3446.00,0.0038
3445.00,0.0038
3444.00,0.0038
3443.00,0.0038
3442.00,0.0038
3441.00,0.0039
3440.00,0.0039
3439.00,0.0039
3438.00,0.0040
3437.00,0.0040
3436.00,0.0040
3435.00,0.0040
3434.00,0.0041
3433.00,0.0041
3432.00,0.0041
3431.00,0.0041
3430.00,0.0041
3429.00,0.0041
3428.00,0.0041
3427.00,0.0042
3426.00,0.0042
3425.00,0.0042
3424.00,0.0043
3423.00,0.0043
3422.00,0.0043
3421.00,0.0044
3420.00,0.0044
3419.00,0.0044
3418.00,0.0045
3417.00,0.0045
3416.00,0.0046
3415.00,0.0046
3414.00,0.0046
3413.00,0.0046
3412.00,0.0047
3411.00,0.0047
3410.00,0.0047
3409.00,0.0048
3408.00,0.0048
3407.00,0.0049
3406.00,0.0049
3405.00,0.0050
3404.00,0.0050
3403.00,0.0050
3402.00,0.0051
3401.00,0.0051
3400.00,0.0051
3399.00,0.0052
3398.00,0.0052
3397.00,0.0052
3396.00,0.0052
3395.00,0.0052
3394.00,0.0052
3393.00,0.0052
3392.00,0.0052
3391.00,0.0051
3390.00,0.0051
3389.00,0.0051
3388.00,0.0051
3387.00,0.0051
3386.00,0.0050
3385.00,0.0050
3384.00,0.0050
3383.00,0.0050
3382.00,0.0050
3381.00,0.0049
3380.00,0.0049
3379.00,0.0048
3378.00,0.0048
3377.00,0.0047
3376.00,0.0047
3375.00,0.0046
3374.00,0.0046
3373.00,0.0046
3372.00,0.0045
3371.00,0.0045
3370.00,0.0045
3369.00,0.0044
3368.00,0.0044
3367.00,0.0044
3366.00,0.0043
3365.00,0.0043
3364.00,0.0042
3363.00,0.0042
3362.00,0.0042
3361.00,0.0041
3360.00,0.0041
3359.00,0.0041
3358.00,0.0041
3357.00,0.0040
3356.00,0.0040
3355.00,0.0039
3354.00,0.0039
3353.00,0.0039
3352.00,0.0038
3351.00,0.0038
3350.00,0.0037
3349.00,0.0037
3348.00,0.0037
3347.00,0.0036
3346.00,0.0036
3345.00,0.0036
3344.00,0.0036
3343.00,0.0036
3342.00,0.0036
3341.00,0.0035
3340.00,0.0035
3339.00,0.0035
3338.00,0.0035
3337.00,0.0035
3336.00,0.0034
3335.00,0.0034
3334.00,0.0034
3333.00,0.0034
3332.00,0.0034
3331.00,0.0033
3330.00,0.0033
3329.00,0.0033
3328.00,0.0033
3327.00,0.0032
3326.00,0.0032
3325.00,0.0032
3324.00,0.0032
3323.00,0.0032
3322.00,0.0032
3321.00,0.0032
3320.00,0.0032
3319.00,0.0032
3318.00,0.0032
3317.00,0.0032
3316.00,0.0032
3315.00,0.0032
3314.00,0.0032
3313.00,0.0032
3312.00,0.0032
3311.00,0.0031
3310.00,0.0031
3309.00,0.0031
3308.00,0.0031
3307.00,0.0031
3306.00,0.0031
3305.00,0.0031
3304.00,0.0031
3303.00,0.0031
3302.00,0.0031
3301.00,0.0032
3300.00,0.0032
3299.00,0.0032
3298.00,0.0032
3297.00,0.0032
3296.00,0.0032
3295.00,0.0032
3294.00,0.0032
3293.00,0.0032
3292.00,0.0032
3291.00,0.0033
3290.00,0.0033
3289.00,0.0033
3288.00,0.0033
3287.00,0.0033
3286.00,0.0032
3285.00,0.0033
3284.00,0.0033
3283.00,0.0033
3282.00,0.0033
3281.00,0.0033
3280.00,0.0034
3279.00,0.0034
3278.00,0.0034
3277.00,0.0034
3276.00,0.0034
3275.00,0.0034
3274.00,0.0034
3273.00,0.0034
3272.00,0.0034
3271.00,0.0034
3270.00,0.0034
3269.00,0.0034
3268.00,0.0035
3267.00,0.0035
3266.00,0.0035
3265.00,0.0035
3264.00,0.0035
3263.00,0.0035
3262.00,0.0035
3261.00,0.0035
3260.00,0.0035
3259.00,0.0035
3258.00,0.0035
3257.00,0.0035
3256.00,0.0035
3255.00,0.0036
3254.00,0.0036
3253.00,0.0036
3252.00,0.0036
3251.00,0.0036
3250.00,0.0036
3249.00,0.0036
3248.00,0.0036
3247.00,0.0036
3246.00,0.0036
3245.00,0.0036
3244.00,0.0036
3243.00,0.0036
3242.00,0.0036
3241.00,0.0037
3240.00,0.0037
3239.00,0.0038
3238.00,0.0038
3237.00,0.0038
3236.00,0.0038
3235.00,0.0038
3234.00,0.0038
3233.00,0.0038
3232.00,0.0038
3231.00,0.0038
3230.00,0.0038
3229.00,0.0038
3228.00,0.0038
3227.00,0.0038
3226.00,0.0038
3225.00,0.0038
3224.00,0.0038
3223.00,0.0038
3222.00,0.0039
3221.00,0.0039
3220.00,0.0039
3219.00,0.0039
3218.00,0.0039
3217.00,0.0039
3216.00,0.0039
3215.00,0.0039
3214.00,0.0039
3213.00,0.0039
3212.00,0.0038
3211.00,0.0038
3210.00,0.0038
3209.00,0.0038
3208.00,0.0037
3207.00,0.0037
3206.00,0.0037
3205.00,0.0037
3204.00,0.0037
3203.00,0.0037
3202.00,0.0037
3201.00,0.0037
3200.00,0.0036
3199.00,0.0036
3198.00,0.0035
3197.00,0.0035
3196.00,0.0034
3195.00,0.0034
3194.00,0.0034
3193.00,0.0034
3192.00,0.0033
3191.00,0.0034
3190.00,0.0034
3189.00,0.0034
3188.00,0.0034
3187.00,0.0033
3186.00,0.0033
3185.00,0.0033
3184.00,0.0033
3183.00,0.0033
3182.00,0.0032
3181.00,0.0032
3180.00,0.0032
3179.00,0.0031
3178.00,0.0030
3177.00,0.0030
3176.00,0.0030
3175.00,0.0029
3174.00,0.0029
3173.00,0.0029
3172.00,0.0029
3171.00,0.0028
3170.00,0.0028
3169.00,0.0028
3168.00,0.0027
3167.00,0.0027
3166.00,0.0026
3165.00,0.0026
3164.00,0.0026
3163.00,0.0026
3162.00,0.0025
3161.00,0.0025
3160.00,0.0025
3159.00,0.0025
3158.00,0.0025
3157.00,0.0025
3156.00,0.0024
3155.00,0.0024
3154.00,0.0024
3153.00,0.0023
3152.00,0.0023
3151.00,0.0023
3150.00,0.0022
3149.00,0.0022
3148.00,0.0022
3147.00,0.0021
3146.00,0.0021
3145.00,0.0022
3144.00,0.0022
3143.00,0.0022
3142.00,0.0021
3141.00,0.0021
3140.00,0.0021
3139.00,0.0020
3138.00,0.0020
3137.00,0.0020
3136.00,0.0019
3135.00,0.0019
3134.00,0.0019
3133.00,0.0019
3132.00,0.0019
3131.00,0.0019
3130.00,0.0019
3129.00,0.0018
3128.00,0.0018
3127.00,0.0018
3126.00,0.0018
3125.00,0.0018
3124.00,0.0018
3123.00,0.0018
3122.00,0.0017
3121.00,0.0017
3120.00,0.0017
3119.00,0.0017
3118.00,0.0017
3117.00,0.0017
3116.00,0.0016
3115.00,0.0016
3114.00,0.0016
3113.00,0.0016
3112.00,0.0016
3111.00,0.0016
3110.00,0.0015
3109.00,0.0015
3108.00,0.0015
3107.00,0.0015
3106.00,0.0015
3105.00,0.0014
3104.00,0.0014
3103.00,0.0014
3102.00,0.0014
3101.00,0.0014
3100.00,0.0014
3099.00,0.0014
3098.00,0.0014
3097.00,0.0014
3096.00,0.0014
3095.00,0.0014
3094.00,0.0014
3093.00,0.0013
3092.00,0.0013
3091.00,0.0013
3090.00,0.0013
3089.00,0.0013
3088.00,0.0013
3087.00,0.0013
3086.00,0.0013
3085.00,0.0013
3084.00,0.0013
3083.00,0.0013
3082.00,0.0013
3081.00,0.0013
3080.00,0.0012
3079.00,0.0012
3078.00,0.0012
3077.00,0.0012
3076.00,0.0012
3075.00,0.0012
3074.00,0.0012
3073.00,0.0011
3072.00,0.0011
3071.00,0.0011
3070.00,0.0011
3069.00,0.0011
3068.00,0.0012
3067.00,0.0012
3066.00,0.0012
3065.00,0.0012
3064.00,0.0012
3063.00,0.0012
3062.00,0.0011
3061.00,0.0011
3060.00,0.0011
3059.00,0.0011
3058.00,0.0011
3057.00,0.0012
3056.00,0.0011
3055.00,0.0011
3054.00,0.0011
3053.00,0.0011
3052.00,0.0011
3051.00,0.0011
3050.00,0.0011
3049.00,0.0011
3048.00,0.0011
3047.00,0.0011
3046.00,0.0011
3045.00,0.0011
3044.00,0.0011
3043.00,0.0011
3042.00,0.0011
3041.00,0.0011
3040.00,0.0011
3039.00,0.0011
3038.00,0.0011
3037.00,0.0011
3036.00,0.0012
3035.00,0.0011
3034.00,0.0011
3033.00,0.0012
3032.00,0.0012
3031.00,0.0011
3030.00,0.0011
3029.00,0.0011
3028.00,0.0011
3027.00,0.0011
3026.00,0.0011
3025.00,0.0011
3024.00,0.0011
3023.00,0.0011
3022.00,0.0011
3021.00,0.0011
3020.00,0.0010
3019.00,0.0010
3018.00,0.0010
3017.00,0.0010
3016.00,0.0011
3015.00,0.0011
3014.00,0.0011
3013.00,0.0012
3012.00,0.0012
3011.00,0.0012
3010.00,0.0012
3009.00,0.0012
3008.00,0.0013
3007.00,0.0014
3006.00,0.0015
3005.00,0.0015
3004.00,0.0016
3003.00,0.0016
3002.00,0.0017
3001.00,0.0018
3000.00,0.0019
2999.00,0.0020
2998.00,0.0021
2997.00,0.0022
2996.00,0.0023
2995.00,0.0023
2994.00,0.0023
2993.00,0.0023
2992.00,0.0023
2991.00,0.0023
2990.00,0.0023
2989.00,0.0023
2988.00,0.0023
2987.00,0.0023
2986.00,0.0023
2985.00,0.0024
2984.00,0.0025
2983.00,0.0025
2982.00,0.0026
2981.00,0.0027
2980.00,0.0028
2979.00,0.0028
2978.00,0.0029
2977.00,0.0030
2976.00,0.0031
2975.00,0.0032
2974.00,0.0033
2973.00,0.0035
2972.00,0.0037
2971.00,0.0038
2970.00,0.0039
2969.00,0.0040
2968.00,0.0041
2967.00,0.0042
2966.00,0.0043
2965.00,0.0045
2964.00,0.0046
2963.00,0.0047
2962.00,0.0047
2961.00,0.0047
2960.00,0.0046
2959.00,0.0044
2958.00,0.0042
2957.00,0.0041
2956.00,0.0040
2955.00,0.0039
2954.00,0.0039
2953.00,0.0039
2952.00,0.0040
2951.00,0.0040
2950.00,0.0040
2949.00,0.0041
2948.00,0.0042
2947.00,0.0043
2946.00,0.0043
2945.00,0.0044
2944.00,0.0044
2943.00,0.0045
2942.00,0.0045
2941.00,0.0046
2940.00,0.0047
2939.00,0.0048
2938.00,0.0050
2937.00,0.0052
2936.00,0.0054
2935.00,0.0057
2934.00,0.0060
2933.00,0.0063
2932.00,0.0065
2931.00,0.0067
2930.00,0.0069
2929.00,0.0071
2928.00,0.0071
2927.00,0.0072
2926.00,0.0072
2925.00,0.0071
2924.00,0.0069
2923.00,0.0068
2922.00,0.0066
2921.00,0.0064
2920.00,0.0062
2919.00,0.0060
2918.00,0.0058
2917.00,0.0056
2916.00,0.0054
2915.00,0.0053
2914.00,0.0051
2913.00,0.0050
2912.00,0.0049
2911.00,0.0048
2910.00,0.0047
2909.00,0.0047
2908.00,0.0046
2907.00,0.0045
2906.00,0.0044
2905.00,0.0043
2904.00,0.0043
2903.00,0.0042
2902.00,0.0041
2901.00,0.0041
2900.00,0.0040
2899.00,0.0040
2898.00,0.0039
2897.00,0.0039
2896.00,0.0039
2895.00,0.0038
2894.00,0.0038
2893.00,0.0038
2892.00,0.0038
2891.00,0.0037
2890.00,0.0037
2889.00,0.0037
2888.00,0.0036
2887.00,0.0036
2886.00,0.0036
2885.00,0.0036
2884.00,0.0036
2883.00,0.0036
2882.00,0.0036
2881.00,0.0036
2880.00,0.0036
2879.00,0.0036
2878.00,0.0037
2877.00,0.0037
2876.00,0.0038
2875.00,0.0038
2874.00,0.0038
2873.00,0.0038
2872.00,0.0038
2871.00,0.0037
2870.00,0.0037
2869.00,0.0037
2868.00,0.0038
2867.00,0.0038
2866.00,0.0038
2865.00,0.0039
2864.00,0.0040
2863.00,0.0042
2862.00,0.0044
2861.00,0.0046
2860.00,0.0048
2859.00,0.0049
2858.00,0.0050
2857.00,0.0050
2856.00,0.0050
2855.00,0.0049
2854.00,0.0049
2853.00,0.0048
2852.00,0.0047
2851.00,0.0047
2850.00,0.0045
2849.00,0.0044
2848.00,0.0041
2847.00,0.0039
2846.00,0.0036
2845.00,0.0034
2844.00,0.0032
2843.00,0.0031
2842.00,0.0029
2841.00,0.0028
2840.00,0.0026
2839.00,0.0025
2838.00,0.0024
2837.00,0.0023
2836.00,0.0022
2835.00,0.0022
2834.00,0.0021
2833.00,0.0020
2832.00,0.0020
2831.00,0.0019
2830.00,0.0019
2829.00,0.0018
2828.00,0.0018
2827.00,0.0017
2826.00,0.0017
2825.00,0.0016
2824.00,0.0016
2823.00,0.0016
2822.00,0.0016
2821.00,0.0015
2820.00,0.0015
2819.00,0.0015
2818.00,0.0014
2817.00,0.0014
2816.00,0.0014
2815.00,0.0013
2814.00,0.0013
2813.00,0.0013
2812.00,0.0013
2811.00,0.0013
2810.00,0.0013
2809.00,0.0012
2808.00,0.0012
2807.00,0.0012
2806.00,0.0012
2805.00,0.0012
2804.00,0.0012
2803.00,0.0012
2802.00,0.0012
2801.00,0.0012
2800.00,0.0011
2799.00,0.0011
2798.00,0.0011
2797.00,0.0011
2796.00,0.0011
2795.00,0.0011
2794.00,0.0011
2793.00,0.0011
2792.00,0.0011
2791.00,0.0011
2790.00,0.0010
2789.00,0.0010
2788.00,0.0010
2787.00,0.0010
2786.00,0.0010
2785.00,0.0010
2784.00,0.0010
2783.00,0.0010
2782.00,0.0010
2781.00,0.0010
2780.00,0.0010
2779.00,0.0010
2778.00,0.0010
2777.00,0.0010
2776.00,0.0010
2775.00,0.0010
2774.00,0.0010
2773.00,0.0010
2772.00,0.0010
2771.00,0.0010
2770.00,0.0009
2769.00,0.0009
2768.00,0.0009
2767.00,0.0009
2766.00,0.0009
2765.00,0.0009
2764.00,0.0009
2763.00,0.0009
2762.00,0.0009
2761.00,0.0009
2760.00,0.0009
2759.00,0.0009
2758.00,0.0009
2757.00,0.0009
