Created as New Dataset,Sample 615 By YargerLab Date Friday, June 06 2025
cm-1,A
4000.00,0.0082
3999.00,0.0082
3998.00,0.0082
3997.00,0.0083
3996.00,0.0083
3995.00,0.0083
3994.00,0.0083
3993.00,0.0083
3992.00,0.0083
3991.00,0.0083
3990.00,0.0083
3989.00,0.0083
3988.00,0.0083
3987.00,0.0083
3986.00,0.0083
3985.00,0.0083
3984.00,0.0083
3983.00,0.0083
3982.00,0.0082
3981.00,0.0082
3980.00,0.0082
3979.00,0.0082
3978.00,0.0082
3977.00,0.0082
3976.00,0.0083
3975.00,0.0083
3974.00,0.0083
3973.00,0.0083
3972.00,0.0083
3971.00,0.0083
3970.00,0.0083
3969.00,0.0083
3968.00,0.0083
3967.00,0.0083
3966.00,0.0083
3965.00,0.0083
3964.00,0.0083
3963.00,0.0083
3962.00,0.0083
3961.00,0.0083
3960.00,0.0083
3959.00,0.0083
3958.00,0.0083
3957.00,0.0083
3956.00,0.0084
3955.00,0.0084
3954.00,0.0084
3953.00,0.0083
3952.00,0.0083
3951.00,0.0083
3950.00,0.0083
3949.00,0.0083
3948.00,0.0083
3947.00,0.0083
3946.00,0.0083
3945.00,0.0084
3944.00,0.0084
3943.00,0.0084
3942.00,0.0084
3941.00,0.0083
3940.00,0.0083
3939.00,0.0083
3938.00,0.0083
3937.00,0.0083
3936.00,0.0083
3935.00,0.0083
3934.00,0.0083
3933.00,0.0083
3932.00,0.0083
3931.00,0.0083
3930.00,0.0083
3929.00,0.0083
3928.00,0.0083
3927.00,0.0083
3926.00,0.0083
3925.00,0.0083
3924.00,0.0083
3923.00,0.0083
3922.00,0.0083
3921.00,0.0083
3920.00,0.0082
3919.00,0.0082
3918.00,0.0082
3917.00,0.0082
3916.00,0.0082
3915.00,0.0082
3914.00,0.0082
3913.00,0.0082
3912.00,0.0082
3911.00,0.0082
3910.00,0.0082
3909.00,0.0082
3908.00,0.0082
3907.00,0.0082
3906.00,0.0082
3905.00,0.0082
3904.00,0.0082
3903.00,0.0082
3902.00,0.0082
3901.00,0.0082
3900.00,0.0082
3899.00,0.0082
3898.00,0.0082
3897.00,0.0082
3896.00,0.0082
3895.00,0.0082
3894.00,0.0082
3893.00,0.0082
3892.00,0.0081
3891.00,0.0081
3890.00,0.0081
3889.00,0.0082
3888.00,0.0082
3887.00,0.0082
3886.00,0.0082
3885.00,0.0081
3884.00,0.0081
3883.00,0.0082
3882.00,0.0082
3881.00,0.0082
3880.00,0.0082
3879.00,0.0081
3878.00,0.0081
3877.00,0.0081
3876.00,0.0082
3875.00,0.0081
3874.00,0.0081
3873.00,0.0082
3872.00,0.0082
3871.00,0.0082
3870.00,0.0082
3869.00,0.0082
3868.00,0.0082
3867.00,0.0083
3866.00,0.0083
3865.00,0.0082
3864.00,0.0082
3863.00,0.0081
3862.00,0.0081
3861.00,0.0081
3860.00,0.0081
3859.00,0.0081
3858.00,0.0081
3857.00,0.0081
3856.00,0.0081
3855.00,0.0081
3854.00,0.0081
3853.00,0.0081
3852.00,0.0082
3851.00,0.0082
3850.00,0.0082
3849.00,0.0082
3848.00,0.0081
3847.00,0.0081
3846.00,0.0081
3845.00,0.0081
3844.00,0.0081
3843.00,0.0081
3842.00,0.0081
3841.00,0.0081
3840.00,0.0081
3839.00,0.0081
3838.00,0.0081
3837.00,0.0081
3836.00,0.0081
3835.00,0.0081
3834.00,0.0081
3833.00,0.0081
3832.00,0.0081
3831.00,0.0081
3830.00,0.0081
3829.00,0.0081
3828.00,0.0081
3827.00,0.0081
3826.00,0.0081
3825.00,0.0081
3824.00,0.0081
3823.00,0.0081
3822.00,0.0081
3821.00,0.0081
3820.00,0.0081
3819.00,0.0081
3818.00,0.0081
3817.00,0.0081
3816.00,0.0080
3815.00,0.0080
3814.00,0.0080
3813.00,0.0081
3812.00,0.0080
3811.00,0.0080
3810.00,0.0080
3809.00,0.0081
3808.00,0.0081
3807.00,0.0080
3806.00,0.0080
3805.00,0.0080
3804.00,0.0080
3803.00,0.0080
3802.00,0.0080
3801.00,0.0080
3800.00,0.0081
3799.00,0.0081
3798.00,0.0081
3797.00,0.0081
3796.00,0.0081
3795.00,0.0081
3794.00,0.0081
3793.00,0.0081
3792.00,0.0080
3791.00,0.0080
3790.00,0.0081
3789.00,0.0081
3788.00,0.0081
3787.00,0.0081
3786.00,0.0081
3785.00,0.0081
3784.00,0.0081
3783.00,0.0080
3782.00,0.0081
3781.00,0.0081
3780.00,0.0081
3779.00,0.0081
3778.00,0.0081
3777.00,0.0081
3776.00,0.0081
3775.00,0.0081
3774.00,0.0081
3773.00,0.0081
3772.00,0.0081
3771.00,0.0081
3770.00,0.0081
3769.00,0.0081
3768.00,0.0081
3767.00,0.0081
3766.00,0.0081
3765.00,0.0081
3764.00,0.0081
3763.00,0.0081
3762.00,0.0081
3761.00,0.0081
3760.00,0.0081
3759.00,0.0081
3758.00,0.0081
3757.00,0.0081
3756.00,0.0081
3755.00,0.0081
3754.00,0.0081
3753.00,0.0081
3752.00,0.0081
3751.00,0.0081
3750.00,0.0081
3749.00,0.0081
3748.00,0.0081
3747.00,0.0081
3746.00,0.0081
3745.00,0.0081
3744.00,0.0080
3743.00,0.0080
3742.00,0.0080
3741.00,0.0080
3740.00,0.0080
3739.00,0.0080
3738.00,0.0080
3737.00,0.0080
3736.00,0.0080
3735.00,0.0081
3734.00,0.0081
3733.00,0.0081
3732.00,0.0080
3731.00,0.0079
3730.00,0.0079
3729.00,0.0079
3728.00,0.0079
3727.00,0.0079
3726.00,0.0079
3725.00,0.0080
3724.00,0.0080
3723.00,0.0080
3722.00,0.0079
3721.00,0.0079
3720.00,0.0079
3719.00,0.0079
3718.00,0.0079
3717.00,0.0079
3716.00,0.0079
3715.00,0.0079
3714.00,0.0079
3713.00,0.0079
3712.00,0.0079
3711.00,0.0079
3710.00,0.0079
3709.00,0.0079
3708.00,0.0079
3707.00,0.0079
3706.00,0.0079
3705.00,0.0079
3704.00,0.0078
3703.00,0.0078
3702.00,0.0078
3701.00,0.0078
3700.00,0.0078
3699.00,0.0078
3698.00,0.0079
3697.00,0.0079
3696.00,0.0078
3695.00,0.0078
3694.00,0.0078
3693.00,0.0078
3692.00,0.0077
3691.00,0.0077
3690.00,0.0077
3689.00,0.0077
3688.00,0.0078
3687.00,0.0078
3686.00,0.0078
3685.00,0.0079
3684.00,0.0079
3683.00,0.0079
3682.00,0.0079
3681.00,0.0079
3680.00,0.0079
3679.00,0.0079
3678.00,0.0079
3677.00,0.0080
3676.00,0.0079
3675.00,0.0079
3674.00,0.0079
3673.00,0.0079
3672.00,0.0079
3671.00,0.0079
3670.00,0.0079
3669.00,0.0079
3668.00,0.0079
3667.00,0.0079
3666.00,0.0079
3665.00,0.0079
3664.00,0.0079
3663.00,0.0079
3662.00,0.0079
3661.00,0.0079
3660.00,0.0079
3659.00,0.0079
3658.00,0.0079
3657.00,0.0079
3656.00,0.0079
3655.00,0.0079
3654.00,0.0080
3653.00,0.0080
3652.00,0.0080
3651.00,0.0080
3650.00,0.0080
3649.00,0.0080
3648.00,0.0081
3647.00,0.0080
3646.00,0.0080
3645.00,0.0080
3644.00,0.0079
3643.00,0.0079
3642.00,0.0079
3641.00,0.0079
3640.00,0.0079
3639.00,0.0079
3638.00,0.0079
3637.00,0.0079
3636.00,0.0079
3635.00,0.0079
3634.00,0.0079
3633.00,0.0078
3632.00,0.0079
3631.00,0.0079
3630.00,0.0079
3629.00,0.0079
3628.00,0.0079
3627.00,0.0079
3626.00,0.0079
3625.00,0.0079
3624.00,0.0079
3623.00,0.0079
3622.00,0.0079
3621.00,0.0079
3620.00,0.0079
3619.00,0.0079
3618.00,0.0079
3617.00,0.0079
3616.00,0.0079
3615.00,0.0080
3614.00,0.0080
3613.00,0.0080
3612.00,0.0080
3611.00,0.0080
3610.00,0.0080
3609.00,0.0080
3608.00,0.0080
3607.00,0.0080
3606.00,0.0080
3605.00,0.0079
3604.00,0.0079
3603.00,0.0079
3602.00,0.0079
3601.00,0.0079
3600.00,0.0079
3599.00,0.0079
3598.00,0.0079
3597.00,0.0079
3596.00,0.0079
3595.00,0.0079
3594.00,0.0079
3593.00,0.0079
3592.00,0.0079
3591.00,0.0080
3590.00,0.0080
3589.00,0.0080
3588.00,0.0080
3587.00,0.0080
3586.00,0.0079
3585.00,0.0079
3584.00,0.0079
3583.00,0.0079
3582.00,0.0079
3581.00,0.0079
3580.00,0.0079
3579.00,0.0079
3578.00,0.0079
3577.00,0.0079
3576.00,0.0079
3575.00,0.0079
3574.00,0.0079
3573.00,0.0079
3572.00,0.0079
3571.00,0.0080
3570.00,0.0080
3569.00,0.0080
3568.00,0.0079
3567.00,0.0079
3566.00,0.0079
3565.00,0.0079
3564.00,0.0079
3563.00,0.0079
3562.00,0.0079
3561.00,0.0079
3560.00,0.0079
3559.00,0.0079
3558.00,0.0079
3557.00,0.0079
3556.00,0.0079
3555.00,0.0080
3554.00,0.0080
3553.00,0.0080
3552.00,0.0080
3551.00,0.0080
3550.00,0.0080
3549.00,0.0079
3548.00,0.0079
3547.00,0.0079
3546.00,0.0079
3545.00,0.0079
3544.00,0.0079
3543.00,0.0080
3542.00,0.0080
3541.00,0.0080
3540.00,0.0079
3539.00,0.0079
3538.00,0.0079
3537.00,0.0079
3536.00,0.0079
3535.00,0.0079
3534.00,0.0079
3533.00,0.0079
3532.00,0.0079
3531.00,0.0078
3530.00,0.0078
3529.00,0.0078
3528.00,0.0079
3527.00,0.0078
3526.00,0.0078
3525.00,0.0078
3524.00,0.0078
3523.00,0.0078
3522.00,0.0078
3521.00,0.0078
3520.00,0.0078
3519.00,0.0078
3518.00,0.0078
3517.00,0.0078
3516.00,0.0078
3515.00,0.0078
3514.00,0.0078
3513.00,0.0077
3512.00,0.0077
3511.00,0.0077
3510.00,0.0077
3509.00,0.0076
3508.00,0.0076
3507.00,0.0076
3506.00,0.0076
3505.00,0.0076
3504.00,0.0076
3503.00,0.0076
3502.00,0.0076
3501.00,0.0076
3500.00,0.0075
3499.00,0.0075
3498.00,0.0075
3497.00,0.0074
3496.00,0.0074
3495.00,0.0074
3494.00,0.0074
3493.00,0.0074
3492.00,0.0073
3491.00,0.0073
3490.00,0.0072
3489.00,0.0072
3488.00,0.0072
3487.00,0.0072
3486.00,0.0071
3485.00,0.0071
3484.00,0.0071
3483.00,0.0070
3482.00,0.0070
3481.00,0.0069
3480.00,0.0069
3479.00,0.0069
3478.00,0.0068
3477.00,0.0068
3476.00,0.0068
3475.00,0.0067
3474.00,0.0067
3473.00,0.0066
3472.00,0.0065
3471.00,0.0065
3470.00,0.0064
3469.00,0.0063
3468.00,0.0062
3467.00,0.0061
3466.00,0.0060
3465.00,0.0059
3464.00,0.0058
3463.00,0.0056
3462.00,0.0055
3461.00,0.0053
3460.00,0.0051
3459.00,0.0048
3458.00,0.0045
3457.00,0.0043
3456.00,0.0040
3455.00,0.0037
3454.00,0.0034
3453.00,0.0032
3452.00,0.0029
3451.00,0.0027
3450.00,0.0026
3449.00,0.0026
3448.00,0.0027
3447.00,0.0029
3446.00,0.0032
3445.00,0.0034
3444.00,0.0037
3443.00,0.0040
3442.00,0.0043
3441.00,0.0046
3440.00,0.0049
3439.00,0.0051
3438.00,0.0054
3437.00,0.0056
3436.00,0.0059
3435.00,0.0061
3434.00,0.0063
3433.00,0.0064
3432.00,0.0065
3431.00,0.0066
3430.00,0.0068
3429.00,0.0069
3428.00,0.0070
3427.00,0.0071
3426.00,0.0072
3425.00,0.0073
3424.00,0.0074
3423.00,0.0075
3422.00,0.0076
3421.00,0.0077
3420.00,0.0078
3419.00,0.0079
3418.00,0.0080
3417.00,0.0081
3416.00,0.0082
3415.00,0.0082
3414.00,0.0083
3413.00,0.0085
3412.00,0.0086
3411.00,0.0087
3410.00,0.0089
3409.00,0.0091
3408.00,0.0092
3407.00,0.0094
3406.00,0.0095
3405.00,0.0096
3404.00,0.0096
3403.00,0.0097
3402.00,0.0097
3401.00,0.0099
3400.00,0.0101
3399.00,0.0103
3398.00,0.0106
3397.00,0.0108
3396.00,0.0110
3395.00,0.0111
3394.00,0.0111
3393.00,0.0113
3392.00,0.0114
3391.00,0.0116
3390.00,0.0119
3389.00,0.0123
3388.00,0.0126
3387.00,0.0129
3386.00,0.0131
3385.00,0.0134
3384.00,0.0137
3383.00,0.0140
3382.00,0.0143
3381.00,0.0147
3380.00,0.0151
3379.00,0.0156
3378.00,0.0161
3377.00,0.0167
3376.00,0.0174
3375.00,0.0182
3374.00,0.0191
3373.00,0.0200
3372.00,0.0211
3371.00,0.0224
3370.00,0.0240
3369.00,0.0258
3368.00,0.0280
3367.00,0.0303
3366.00,0.0329
3365.00,0.0357
3364.00,0.0384
3363.00,0.0410
3362.00,0.0435
3361.00,0.0456
3360.00,0.0472
3359.00,0.0484
3358.00,0.0490
3357.00,0.0490
3356.00,0.0486
3355.00,0.0477
3354.00,0.0465
3353.00,0.0451
3352.00,0.0436
3351.00,0.0420
3350.00,0.0405
3349.00,0.0391
3348.00,0.0378
3347.00,0.0365
3346.00,0.0353
3345.00,0.0342
3344.00,0.0333
3343.00,0.0325
3342.00,0.0318
3341.00,0.0311
3340.00,0.0306
3339.00,0.0302
3338.00,0.0298
3337.00,0.0295
3336.00,0.0293
3335.00,0.0290
3334.00,0.0287
3333.00,0.0284
3332.00,0.0282
3331.00,0.0279
3330.00,0.0276
3329.00,0.0273
3328.00,0.0270
3327.00,0.0267
3326.00,0.0265
3325.00,0.0263
3324.00,0.0261
3323.00,0.0259
3322.00,0.0256
3321.00,0.0254
3320.00,0.0251
3319.00,0.0248
3318.00,0.0245
3317.00,0.0242
3316.00,0.0238
3315.00,0.0234
3314.00,0.0231
3313.00,0.0227
3312.00,0.0224
3311.00,0.0220
3310.00,0.0216
3309.00,0.0213
3308.00,0.0210
3307.00,0.0207
3306.00,0.0204
3305.00,0.0202
3304.00,0.0200
3303.00,0.0198
3302.00,0.0196
3301.00,0.0194
3300.00,0.0191
3299.00,0.0189
3298.00,0.0186
3297.00,0.0184
3296.00,0.0181
3295.00,0.0178
3294.00,0.0175
3293.00,0.0172
3292.00,0.0169
3291.00,0.0167
3290.00,0.0165
3289.00,0.0163
3288.00,0.0161
3287.00,0.0159
3286.00,0.0156
3285.00,0.0154
3284.00,0.0151
3283.00,0.0149
3282.00,0.0147
3281.00,0.0145
3280.00,0.0144
3279.00,0.0142
3278.00,0.0140
3277.00,0.0139
3276.00,0.0137
3275.00,0.0136
3274.00,0.0135
3273.00,0.0134
3272.00,0.0133
3271.00,0.0132
3270.00,0.0132
3269.00,0.0131
3268.00,0.0131
3267.00,0.0131
3266.00,0.0130
3265.00,0.0129
3264.00,0.0129
3263.00,0.0128
3262.00,0.0128
3261.00,0.0127
3260.00,0.0127
3259.00,0.0126
3258.00,0.0125
3257.00,0.0125
3256.00,0.0125
3255.00,0.0125
3254.00,0.0125
3253.00,0.0125
3252.00,0.0125
3251.00,0.0124
3250.00,0.0124
3249.00,0.0123
3248.00,0.0123
3247.00,0.0123
3246.00,0.0124
3245.00,0.0125
3244.00,0.0125
3243.00,0.0126
3242.00,0.0126
3241.00,0.0127
3240.00,0.0127
3239.00,0.0127
3238.00,0.0127
3237.00,0.0126
3236.00,0.0125
3235.00,0.0124
3234.00,0.0123
3233.00,0.0122
3232.00,0.0122
3231.00,0.0122
3230.00,0.0122
3229.00,0.0121
3228.00,0.0120
3227.00,0.0119
3226.00,0.0118
3225.00,0.0117
3224.00,0.0116
3223.00,0.0114
3222.00,0.0113
3221.00,0.0111
3220.00,0.0110
3219.00,0.0109
3218.00,0.0108
3217.00,0.0107
3216.00,0.0106
3215.00,0.0104
3214.00,0.0103
3213.00,0.0102
3212.00,0.0101
3211.00,0.0101
3210.00,0.0100
3209.00,0.0099
3208.00,0.0098
3207.00,0.0097
3206.00,0.0096
3205.00,0.0096
3204.00,0.0095
3203.00,0.0094
3202.00,0.0093
3201.00,0.0092
3200.00,0.0092
3199.00,0.0091
3198.00,0.0091
3197.00,0.0090
3196.00,0.0090
3195.00,0.0089
3194.00,0.0089
3193.00,0.0088
3192.00,0.0088
3191.00,0.0088
3190.00,0.0087
3189.00,0.0087
3188.00,0.0086
3187.00,0.0086
3186.00,0.0086
3185.00,0.0086
3184.00,0.0085
3183.00,0.0085
3182.00,0.0085
3181.00,0.0084
3180.00,0.0084
3179.00,0.0083
3178.00,0.0083
3177.00,0.0082
3176.00,0.0082
3175.00,0.0082
3174.00,0.0081
3173.00,0.0081
3172.00,0.0081
3171.00,0.0081
3170.00,0.0080
3169.00,0.0080
3168.00,0.0080
3167.00,0.0080
3166.00,0.0080
3165.00,0.0080
3164.00,0.0080
3163.00,0.0080
3162.00,0.0080
3161.00,0.0080
3160.00,0.0080
3159.00,0.0080
3158.00,0.0080
3157.00,0.0080
3156.00,0.0080
3155.00,0.0080
3154.00,0.0080
3153.00,0.0080
3152.00,0.0080
3151.00,0.0080
3150.00,0.0080
3149.00,0.0080
3148.00,0.0080
3147.00,0.0080
3146.00,0.0080
3145.00,0.0080
3144.00,0.0079
3143.00,0.0079
3142.00,0.0079
3141.00,0.0079
3140.00,0.0079
3139.00,0.0080
3138.00,0.0080
3137.00,0.0080
3136.00,0.0081
3135.00,0.0081
3134.00,0.0081
3133.00,0.0081
3132.00,0.0081
3131.00,0.0081
3130.00,0.0081
3129.00,0.0082
3128.00,0.0082
3127.00,0.0083
3126.00,0.0083
3125.00,0.0084
3124.00,0.0084
3123.00,0.0085
3122.00,0.0086
3121.00,0.0086
3120.00,0.0087
3119.00,0.0088
3118.00,0.0089
3117.00,0.0090
3116.00,0.0091
3115.00,0.0093
3114.00,0.0094
3113.00,0.0095
3112.00,0.0097
3111.00,0.0098
3110.00,0.0099
3109.00,0.0101
3108.00,0.0102
3107.00,0.0103
3106.00,0.0104
3105.00,0.0104
3104.00,0.0105
3103.00,0.0105
3102.00,0.0105
3101.00,0.0105
3100.00,0.0105
3099.00,0.0105
3098.00,0.0104
3097.00,0.0103
3096.00,0.0103
3095.00,0.0102
3094.00,0.0101
3093.00,0.0100
3092.00,0.0099
3091.00,0.0098
3090.00,0.0097
3089.00,0.0097
3088.00,0.0097
3087.00,0.0096
3086.00,0.0096
3085.00,0.0096
3084.00,0.0096
3083.00,0.0096
3082.00,0.0096
3081.00,0.0095
3080.00,0.0094
3079.00,0.0093
3078.00,0.0092
3077.00,0.0091
3076.00,0.0091
3075.00,0.0090
3074.00,0.0089
3073.00,0.0088
3072.00,0.0088
3071.00,0.0087
3070.00,0.0087
3069.00,0.0086
3068.00,0.0086
3067.00,0.0086
3066.00,0.0086
3065.00,0.0087
3064.00,0.0087
3063.00,0.0087
3062.00,0.0088
3061.00,0.0088
3060.00,0.0087
3059.00,0.0087
3058.00,0.0086
3057.00,0.0086
3056.00,0.0086
3055.00,0.0086
3054.00,0.0086
3053.00,0.0086
3052.00,0.0086
3051.00,0.0087
3050.00,0.0087
3049.00,0.0088
3048.00,0.0088
3047.00,0.0087
3046.00,0.0086
3045.00,0.0086
3044.00,0.0086
3043.00,0.0086
3042.00,0.0087
3041.00,0.0089
3040.00,0.0090
3039.00,0.0091
3038.00,0.0092
3037.00,0.0092
3036.00,0.0092
3035.00,0.0093
3034.00,0.0093
3033.00,0.0094
3032.00,0.0094
3031.00,0.0095
3030.00,0.0096
3029.00,0.0096
3028.00,0.0097
3027.00,0.0097
3026.00,0.0098
3025.00,0.0099
3024.00,0.0100
3023.00,0.0101
3022.00,0.0103
3021.00,0.0104
3020.00,0.0104
3019.00,0.0105
3018.00,0.0105
3017.00,0.0105
3016.00,0.0105
3015.00,0.0105
3014.00,0.0105
3013.00,0.0106
3012.00,0.0106
3011.00,0.0108
3010.00,0.0109
3009.00,0.0111
3008.00,0.0113
3007.00,0.0114
3006.00,0.0116
3005.00,0.0118
3004.00,0.0120
3003.00,0.0123
3002.00,0.0125
3001.00,0.0128
3000.00,0.0131
2999.00,0.0133
2998.00,0.0135
2997.00,0.0138
2996.00,0.0140
2995.00,0.0142
2994.00,0.0143
2993.00,0.0145
2992.00,0.0147
2991.00,0.0148
2990.00,0.0150
2989.00,0.0151
2988.00,0.0152
2987.00,0.0151
2986.00,0.0149
2985.00,0.0146
2984.00,0.0142
2983.00,0.0138
2982.00,0.0134
2981.00,0.0130
2980.00,0.0127
2979.00,0.0124
2978.00,0.0121
2977.00,0.0119
2976.00,0.0117
2975.00,0.0115
2974.00,0.0114
2973.00,0.0114
2972.00,0.0114
2971.00,0.0114
2970.00,0.0115
2969.00,0.0115
2968.00,0.0116
2967.00,0.0117
2966.00,0.0119
2965.00,0.0120
2964.00,0.0123
2963.00,0.0126
2962.00,0.0130
2961.00,0.0135
2960.00,0.0140
2959.00,0.0147
2958.00,0.0154
2957.00,0.0162
2956.00,0.0170
2955.00,0.0178
2954.00,0.0186
2953.00,0.0192
2952.00,0.0195
2951.00,0.0196
2950.00,0.0194
2949.00,0.0189
2948.00,0.0183
2947.00,0.0176
2946.00,0.0169
2945.00,0.0162
2944.00,0.0156
2943.00,0.0150
2942.00,0.0144
2941.00,0.0139
2940.00,0.0134
2939.00,0.0130
2938.00,0.0125
2937.00,0.0122
2936.00,0.0119
2935.00,0.0116
2934.00,0.0113
2933.00,0.0110
2932.00,0.0107
2931.00,0.0104
2930.00,0.0101
2929.00,0.0099
2928.00,0.0096
2927.00,0.0094
2926.00,0.0091
2925.00,0.0089
2924.00,0.0088
2923.00,0.0087
2922.00,0.0086
2921.00,0.0086
2920.00,0.0085
2919.00,0.0085
2918.00,0.0086
2917.00,0.0086
2916.00,0.0086
2915.00,0.0086
2914.00,0.0087
2913.00,0.0087
2912.00,0.0088
2911.00,0.0090
2910.00,0.0091
2909.00,0.0092
2908.00,0.0094
2907.00,0.0096
2906.00,0.0097
2905.00,0.0097
2904.00,0.0097
2903.00,0.0097
2902.00,0.0097
2901.00,0.0096
2900.00,0.0096
2899.00,0.0095
2898.00,0.0095
2897.00,0.0094
2896.00,0.0094
2895.00,0.0094
2894.00,0.0094
2893.00,0.0095
2892.00,0.0095
2891.00,0.0095
2890.00,0.0095
2889.00,0.0095
2888.00,0.0095
2887.00,0.0095
2886.00,0.0095
2885.00,0.0096
2884.00,0.0096
2883.00,0.0096
2882.00,0.0095
2881.00,0.0095
2880.00,0.0095
2879.00,0.0094
2878.00,0.0094
2877.00,0.0093
2876.00,0.0092
2875.00,0.0091
2874.00,0.0090
2873.00,0.0089
2872.00,0.0089
2871.00,0.0089
2870.00,0.0090
2869.00,0.0090
2868.00,0.0091
2867.00,0.0092
2866.00,0.0093
2865.00,0.0094
2864.00,0.0095
2863.00,0.0094
2862.00,0.0093
2861.00,0.0092
2860.00,0.0091
2859.00,0.0089
2858.00,0.0088
2857.00,0.0088
2856.00,0.0087
2855.00,0.0088
2854.00,0.0088
2853.00,0.0089
2852.00,0.0090
2851.00,0.0092
2850.00,0.0093
2849.00,0.0094
2848.00,0.0096
2847.00,0.0098
2846.00,0.0099
2845.00,0.0101
2844.00,0.0103
2843.00,0.0104
2842.00,0.0106
2841.00,0.0107
2840.00,0.0107
2839.00,0.0107
2838.00,0.0107
2837.00,0.0105
2836.00,0.0102
2835.00,0.0099
2834.00,0.0097
2833.00,0.0095
2832.00,0.0093
2831.00,0.0092
2830.00,0.0091
2829.00,0.0091
2828.00,0.0091
2827.00,0.0091
2826.00,0.0091
2825.00,0.0092
2824.00,0.0092
2823.00,0.0093
2822.00,0.0094
2821.00,0.0094
2820.00,0.0095
2819.00,0.0095
2818.00,0.0095
2817.00,0.0096
2816.00,0.0096
2815.00,0.0096
2814.00,0.0097
2813.00,0.0097
2812.00,0.0097
2811.00,0.0097
2810.00,0.0097
2809.00,0.0097
2808.00,0.0097
2807.00,0.0097
2806.00,0.0097
2805.00,0.0097
2804.00,0.0096
2803.00,0.0096
2802.00,0.0095
2801.00,0.0094
2800.00,0.0094
2799.00,0.0093
2798.00,0.0093
2797.00,0.0092
2796.00,0.0092
2795.00,0.0091
2794.00,0.0091
2793.00,0.0090
2792.00,0.0090
2791.00,0.0089
2790.00,0.0089
2789.00,0.0088
2788.00,0.0088
2787.00,0.0088
2786.00,0.0087
2785.00,0.0087
2784.00,0.0086
2783.00,0.0086
2782.00,0.0086
2781.00,0.0085
2780.00,0.0085
2779.00,0.0084
2778.00,0.0084
2777.00,0.0083
2776.00,0.0083
2775.00,0.0083
2774.00,0.0083
2773.00,0.0083
2772.00,0.0082
2771.00,0.0082
2770.00,0.0082
2769.00,0.0082
2768.00,0.0082
2767.00,0.0081
2766.00,0.0081
2765.00,0.0081
2764.00,0.0081
2763.00,0.0081
2762.00,0.0081
2761.00,0.0081
2760.00,0.0080
2759.00,0.0080
2758.00,0.0080
2757.00,0.0080
