Created as New Dataset,Sample 050 By YargerLab Date Tuesday, August 12 2025
cm-1,A
4000.00,0.0088
3999.00,0.0088
3998.00,0.0088
3997.00,0.0088
3996.00,0.0088
3995.00,0.0088
3994.00,0.0088
3993.00,0.0087
3992.00,0.0087
3991.00,0.0088
3990.00,0.0088
3989.00,0.0088
3988.00,0.0088
3987.00,0.0088
3986.00,0.0088
3985.00,0.0088
3984.00,0.0088
3983.00,0.0088
3982.00,0.0088
3981.00,0.0088
3980.00,0.0088
3979.00,0.0088
3978.00,0.0088
3977.00,0.0088
3976.00,0.0088
3975.00,0.0088
3974.00,0.0088
3973.00,0.0088
3972.00,0.0088
3971.00,0.0087
3970.00,0.0088
3969.00,0.0088
3968.00,0.0088
3967.00,0.0088
3966.00,0.0088
3965.00,0.0088
3964.00,0.0088
3963.00,0.0088
3962.00,0.0087
3961.00,0.0087
3960.00,0.0087
3959.00,0.0087
3958.00,0.0087
3957.00,0.0087
3956.00,0.0087
3955.00,0.0087
3954.00,0.0087
3953.00,0.0087
3952.00,0.0087
3951.00,0.0086
3950.00,0.0086
3949.00,0.0086
3948.00,0.0087
3947.00,0.0087
3946.00,0.0087
3945.00,0.0087
3944.00,0.0087
3943.00,0.0087
3942.00,0.0086
3941.00,0.0086
3940.00,0.0087
3939.00,0.0087
3938.00,0.0087
3937.00,0.0087
3936.00,0.0087
3935.00,0.0087
3934.00,0.0087
3933.00,0.0087
3932.00,0.0086
3931.00,0.0086
3930.00,0.0086
3929.00,0.0086
3928.00,0.0087
3927.00,0.0087
3926.00,0.0087
3925.00,0.0087
3924.00,0.0087
3923.00,0.0087
3922.00,0.0087
3921.00,0.0087
3920.00,0.0087
3919.00,0.0087
3918.00,0.0087
3917.00,0.0087
3916.00,0.0087
3915.00,0.0087
3914.00,0.0087
3913.00,0.0087
3912.00,0.0087
3911.00,0.0087
3910.00,0.0087
3909.00,0.0087
3908.00,0.0087
3907.00,0.0087
3906.00,0.0087
3905.00,0.0087
3904.00,0.0086
3903.00,0.0086
3902.00,0.0086
3901.00,0.0086
3900.00,0.0085
3899.00,0.0085
3898.00,0.0085
3897.00,0.0086
3896.00,0.0086
3895.00,0.0086
3894.00,0.0086
3893.00,0.0087
3892.00,0.0086
3891.00,0.0086
3890.00,0.0086
3889.00,0.0086
3888.00,0.0086
3887.00,0.0086
3886.00,0.0086
3885.00,0.0086
3884.00,0.0086
3883.00,0.0086
3882.00,0.0086
3881.00,0.0086
3880.00,0.0086
3879.00,0.0086
3878.00,0.0086
3877.00,0.0086
3876.00,0.0086
3875.00,0.0086
3874.00,0.0086
3873.00,0.0086
3872.00,0.0085
3871.00,0.0085
3870.00,0.0085
3869.00,0.0086
3868.00,0.0086
3867.00,0.0086
3866.00,0.0086
3865.00,0.0086
3864.00,0.0086
3863.00,0.0086
3862.00,0.0086
3861.00,0.0086
3860.00,0.0086
3859.00,0.0086
3858.00,0.0086
3857.00,0.0086
3856.00,0.0086
3855.00,0.0086
3854.00,0.0086
3853.00,0.0086
3852.00,0.0085
3851.00,0.0085
3850.00,0.0085
3849.00,0.0086
3848.00,0.0086
3847.00,0.0086
3846.00,0.0087
3845.00,0.0087
3844.00,0.0087
3843.00,0.0087
3842.00,0.0086
3841.00,0.0086
3840.00,0.0086
3839.00,0.0086
3838.00,0.0086
3837.00,0.0086
3836.00,0.0086
3835.00,0.0086
3834.00,0.0086
3833.00,0.0086
3832.00,0.0086
3831.00,0.0086
3830.00,0.0087
3829.00,0.0087
3828.00,0.0087
3827.00,0.0087
3826.00,0.0087
3825.00,0.0087
3824.00,0.0087
3823.00,0.0087
3822.00,0.0086
3821.00,0.0086
3820.00,0.0086
3819.00,0.0086
3818.00,0.0086
3817.00,0.0086
3816.00,0.0086
3815.00,0.0086
3814.00,0.0086
3813.00,0.0086
3812.00,0.0086
3811.00,0.0086
3810.00,0.0086
3809.00,0.0086
3808.00,0.0086
3807.00,0.0086
3806.00,0.0087
3805.00,0.0087
3804.00,0.0087
3803.00,0.0087
3802.00,0.0087
3801.00,0.0086
3800.00,0.0086
3799.00,0.0086
3798.00,0.0086
3797.00,0.0086
3796.00,0.0086
3795.00,0.0086
3794.00,0.0086
3793.00,0.0086
3792.00,0.0086
3791.00,0.0086
3790.00,0.0086
3789.00,0.0086
3788.00,0.0086
3787.00,0.0086
3786.00,0.0086
3785.00,0.0086
3784.00,0.0086
3783.00,0.0086
3782.00,0.0086
3781.00,0.0086
3780.00,0.0086
3779.00,0.0086
3778.00,0.0086
3777.00,0.0086
3776.00,0.0086
3775.00,0.0086
3774.00,0.0086
3773.00,0.0086
3772.00,0.0086
3771.00,0.0086
3770.00,0.0086
3769.00,0.0086
3768.00,0.0086
3767.00,0.0086
3766.00,0.0086
3765.00,0.0086
3764.00,0.0086
3763.00,0.0086
3762.00,0.0086
3761.00,0.0086
3760.00,0.0086
3759.00,0.0086
3758.00,0.0086
3757.00,0.0086
3756.00,0.0086
3755.00,0.0086
3754.00,0.0086
3753.00,0.0086
3752.00,0.0086
3751.00,0.0086
3750.00,0.0085
3749.00,0.0085
3748.00,0.0085
3747.00,0.0085
3746.00,0.0085
3745.00,0.0085
3744.00,0.0085
3743.00,0.0085
3742.00,0.0085
3741.00,0.0085
3740.00,0.0085
3739.00,0.0084
3738.00,0.0084
3737.00,0.0084
3736.00,0.0084
3735.00,0.0084
3734.00,0.0084
3733.00,0.0084
3732.00,0.0083
3731.00,0.0083
3730.00,0.0083
3729.00,0.0083
3728.00,0.0083
3727.00,0.0083
3726.00,0.0083
3725.00,0.0083
3724.00,0.0083
3723.00,0.0083
3722.00,0.0083
3721.00,0.0083
3720.00,0.0083
3719.00,0.0083
3718.00,0.0084
3717.00,0.0084
3716.00,0.0084
3715.00,0.0084
3714.00,0.0085
3713.00,0.0084
3712.00,0.0084
3711.00,0.0084
3710.00,0.0084
3709.00,0.0084
3708.00,0.0084
3707.00,0.0084
3706.00,0.0084
3705.00,0.0084
3704.00,0.0084
3703.00,0.0084
3702.00,0.0084
3701.00,0.0084
3700.00,0.0085
3699.00,0.0085
3698.00,0.0085
3697.00,0.0085
3696.00,0.0085
3695.00,0.0085
3694.00,0.0085
3693.00,0.0085
3692.00,0.0085
3691.00,0.0086
3690.00,0.0086
3689.00,0.0086
3688.00,0.0087
3687.00,0.0087
3686.00,0.0087
3685.00,0.0087
3684.00,0.0088
3683.00,0.0088
3682.00,0.0089
3681.00,0.0089
3680.00,0.0090
3679.00,0.0090
3678.00,0.0091
3677.00,0.0091
3676.00,0.0091
3675.00,0.0090
3674.00,0.0090
3673.00,0.0090
3672.00,0.0090
3671.00,0.0090
3670.00,0.0091
3669.00,0.0091
3668.00,0.0092
3667.00,0.0092
3666.00,0.0092
3665.00,0.0093
3664.00,0.0093
3663.00,0.0094
3662.00,0.0094
3661.00,0.0094
3660.00,0.0094
3659.00,0.0094
3658.00,0.0095
3657.00,0.0095
3656.00,0.0095
3655.00,0.0096
3654.00,0.0096
3653.00,0.0096
3652.00,0.0097
3651.00,0.0098
3650.00,0.0098
3649.00,0.0099
3648.00,0.0099
3647.00,0.0100
3646.00,0.0100
3645.00,0.0101
3644.00,0.0102
3643.00,0.0102
3642.00,0.0103
3641.00,0.0104
3640.00,0.0104
3639.00,0.0105
3638.00,0.0105
3637.00,0.0105
3636.00,0.0106
3635.00,0.0107
3634.00,0.0107
3633.00,0.0108
3632.00,0.0109
3631.00,0.0109
3630.00,0.0110
3629.00,0.0111
3628.00,0.0112
3627.00,0.0113
3626.00,0.0114
3625.00,0.0115
3624.00,0.0115
3623.00,0.0116
3622.00,0.0116
3621.00,0.0117
3620.00,0.0118
3619.00,0.0120
3618.00,0.0121
3617.00,0.0122
3616.00,0.0123
3615.00,0.0124
3614.00,0.0125
3613.00,0.0126
3612.00,0.0127
3611.00,0.0128
3610.00,0.0128
3609.00,0.0129
3608.00,0.0130
3607.00,0.0131
3606.00,0.0132
3605.00,0.0133
3604.00,0.0134
3603.00,0.0136
3602.00,0.0137
3601.00,0.0138
3600.00,0.0139
3599.00,0.0140
3598.00,0.0141
3597.00,0.0142
3596.00,0.0143
3595.00,0.0144
3594.00,0.0146
3593.00,0.0147
3592.00,0.0148
3591.00,0.0148
3590.00,0.0149
3589.00,0.0150
3588.00,0.0151
3587.00,0.0153
3586.00,0.0155
3585.00,0.0157
3584.00,0.0159
3583.00,0.0160
3582.00,0.0161
3581.00,0.0163
3580.00,0.0164
3579.00,0.0166
3578.00,0.0167
3577.00,0.0169
3576.00,0.0170
3575.00,0.0172
3574.00,0.0173
3573.00,0.0175
3572.00,0.0176
3571.00,0.0177
3570.00,0.0178
3569.00,0.0179
3568.00,0.0180
3567.00,0.0182
3566.00,0.0184
3565.00,0.0186
3564.00,0.0188
3563.00,0.0190
3562.00,0.0191
3561.00,0.0192
3560.00,0.0194
3559.00,0.0196
3558.00,0.0197
3557.00,0.0199
3556.00,0.0200
3555.00,0.0202
3554.00,0.0203
3553.00,0.0204
3552.00,0.0206
3551.00,0.0208
3550.00,0.0209
3549.00,0.0210
3548.00,0.0211
3547.00,0.0213
3546.00,0.0214
3545.00,0.0216
3544.00,0.0218
3543.00,0.0219
3542.00,0.0221
3541.00,0.0222
3540.00,0.0223
3539.00,0.0224
3538.00,0.0226
3537.00,0.0227
3536.00,0.0228
3535.00,0.0230
3534.00,0.0231
3533.00,0.0232
3532.00,0.0233
3531.00,0.0234
3530.00,0.0235
3529.00,0.0237
3528.00,0.0238
3527.00,0.0239
3526.00,0.0241
3525.00,0.0242
3524.00,0.0243
3523.00,0.0244
3522.00,0.0245
3521.00,0.0247
3520.00,0.0248
3519.00,0.0249
3518.00,0.0250
3517.00,0.0251
3516.00,0.0252
3515.00,0.0253
3514.00,0.0254
3513.00,0.0255
3512.00,0.0255
3511.00,0.0256
3510.00,0.0258
3509.00,0.0259
3508.00,0.0260
3507.00,0.0261
3506.00,0.0262
3505.00,0.0264
3504.00,0.0265
3503.00,0.0266
3502.00,0.0267
3501.00,0.0268
3500.00,0.0269
3499.00,0.0270
3498.00,0.0271
3497.00,0.0272
3496.00,0.0273
3495.00,0.0274
3494.00,0.0275
3493.00,0.0276
3492.00,0.0277
3491.00,0.0278
3490.00,0.0279
3489.00,0.0280
3488.00,0.0281
3487.00,0.0282
3486.00,0.0283
3485.00,0.0284
3484.00,0.0285
3483.00,0.0286
3482.00,0.0288
3481.00,0.0289
3480.00,0.0290
3479.00,0.0291
3478.00,0.0292
3477.00,0.0294
3476.00,0.0295
3475.00,0.0296
3474.00,0.0298
3473.00,0.0299
3472.00,0.0301
3471.00,0.0302
3470.00,0.0303
3469.00,0.0304
3468.00,0.0306
3467.00,0.0307
3466.00,0.0308
3465.00,0.0309
3464.00,0.0311
3463.00,0.0312
3462.00,0.0313
3461.00,0.0314
3460.00,0.0316
3459.00,0.0317
3458.00,0.0318
3457.00,0.0319
3456.00,0.0321
3455.00,0.0322
3454.00,0.0323
3453.00,0.0324
3452.00,0.0325
3451.00,0.0326
3450.00,0.0328
3449.00,0.0329
3448.00,0.0330
3447.00,0.0332
3446.00,0.0334
3445.00,0.0335
3444.00,0.0336
3443.00,0.0338
3442.00,0.0339
3441.00,0.0341
3440.00,0.0343
3439.00,0.0345
3438.00,0.0347
3437.00,0.0348
3436.00,0.0350
3435.00,0.0352
3434.00,0.0353
3433.00,0.0355
3432.00,0.0357
3431.00,0.0358
3430.00,0.0360
3429.00,0.0362
3428.00,0.0363
3427.00,0.0365
3426.00,0.0367
3425.00,0.0369
3424.00,0.0371
3423.00,0.0373
3422.00,0.0375
3421.00,0.0377
3420.00,0.0379
3419.00,0.0380
3418.00,0.0382
3417.00,0.0384
3416.00,0.0386
3415.00,0.0388
3414.00,0.0390
3413.00,0.0391
3412.00,0.0393
3411.00,0.0394
3410.00,0.0395
3409.00,0.0396
3408.00,0.0397
3407.00,0.0398
3406.00,0.0399
3405.00,0.0400
3404.00,0.0400
3403.00,0.0401
3402.00,0.0401
3401.00,0.0402
3400.00,0.0402
3399.00,0.0402
3398.00,0.0401
3397.00,0.0401
3396.00,0.0400
3395.00,0.0400
3394.00,0.0399
3393.00,0.0398
3392.00,0.0398
3391.00,0.0397
3390.00,0.0396
3389.00,0.0395
3388.00,0.0393
3387.00,0.0392
3386.00,0.0391
3385.00,0.0389
3384.00,0.0388
3383.00,0.0387
3382.00,0.0385
3381.00,0.0384
3380.00,0.0382
3379.00,0.0381
3378.00,0.0379
3377.00,0.0378
3376.00,0.0376
3375.00,0.0375
3374.00,0.0373
3373.00,0.0372
3372.00,0.0370
3371.00,0.0368
3370.00,0.0366
3369.00,0.0364
3368.00,0.0363
3367.00,0.0362
3366.00,0.0360
3365.00,0.0359
3364.00,0.0358
3363.00,0.0357
3362.00,0.0355
3361.00,0.0354
3360.00,0.0353
3359.00,0.0352
3358.00,0.0351
3357.00,0.0350
3356.00,0.0349
3355.00,0.0348
3354.00,0.0347
3353.00,0.0345
3352.00,0.0344
3351.00,0.0343
3350.00,0.0342
3349.00,0.0341
3348.00,0.0341
3347.00,0.0340
3346.00,0.0339
3345.00,0.0338
3344.00,0.0337
3343.00,0.0336
3342.00,0.0336
3341.00,0.0335
3340.00,0.0334
3339.00,0.0333
3338.00,0.0333
3337.00,0.0333
3336.00,0.0333
3335.00,0.0333
3334.00,0.0333
3333.00,0.0333
3332.00,0.0332
3331.00,0.0332
3330.00,0.0332
3329.00,0.0331
3328.00,0.0330
3327.00,0.0330
3326.00,0.0329
3325.00,0.0329
3324.00,0.0330
3323.00,0.0330
3322.00,0.0330
3321.00,0.0331
3320.00,0.0331
3319.00,0.0331
3318.00,0.0331
3317.00,0.0331
3316.00,0.0331
3315.00,0.0331
3314.00,0.0331
3313.00,0.0331
3312.00,0.0331
3311.00,0.0330
3310.00,0.0329
3309.00,0.0329
3308.00,0.0328
3307.00,0.0328
3306.00,0.0329
3305.00,0.0330
3304.00,0.0331
3303.00,0.0333
3302.00,0.0334
3301.00,0.0335
3300.00,0.0335
3299.00,0.0335
3298.00,0.0335
3297.00,0.0334
3296.00,0.0334
3295.00,0.0334
3294.00,0.0335
3293.00,0.0335
3292.00,0.0336
3291.00,0.0338
3290.00,0.0339
3289.00,0.0340
3288.00,0.0341
3287.00,0.0341
3286.00,0.0341
3285.00,0.0342
3284.00,0.0342
3283.00,0.0343
3282.00,0.0343
3281.00,0.0344
3280.00,0.0344
3279.00,0.0343
3278.00,0.0343
3277.00,0.0343
3276.00,0.0343
3275.00,0.0343
3274.00,0.0343
3273.00,0.0343
3272.00,0.0343
3271.00,0.0344
3270.00,0.0344
3269.00,0.0345
3268.00,0.0346
3267.00,0.0347
3266.00,0.0347
3265.00,0.0348
3264.00,0.0348
3263.00,0.0348
3262.00,0.0348
3261.00,0.0348
3260.00,0.0348
3259.00,0.0348
3258.00,0.0347
3257.00,0.0347
3256.00,0.0347
3255.00,0.0347
3254.00,0.0348
3253.00,0.0348
3252.00,0.0348
3251.00,0.0348
3250.00,0.0348
3249.00,0.0347
3248.00,0.0347
3247.00,0.0346
3246.00,0.0347
3245.00,0.0347
3244.00,0.0347
3243.00,0.0348
3242.00,0.0348
3241.00,0.0347
3240.00,0.0347
3239.00,0.0347
3238.00,0.0346
3237.00,0.0345
3236.00,0.0344
3235.00,0.0343
3234.00,0.0342
3233.00,0.0342
3232.00,0.0342
3231.00,0.0341
3230.00,0.0341
3229.00,0.0340
3228.00,0.0339
3227.00,0.0339
3226.00,0.0338
3225.00,0.0337
3224.00,0.0336
3223.00,0.0335
3222.00,0.0334
3221.00,0.0333
3220.00,0.0332
3219.00,0.0330
3218.00,0.0329
3217.00,0.0328
3216.00,0.0327
3215.00,0.0325
3214.00,0.0324
3213.00,0.0322
3212.00,0.0321
3211.00,0.0319
3210.00,0.0318
3209.00,0.0317
3208.00,0.0315
3207.00,0.0314
3206.00,0.0312
3205.00,0.0311
3204.00,0.0309
3203.00,0.0308
3202.00,0.0306
3201.00,0.0304
3200.00,0.0303
3199.00,0.0301
3198.00,0.0299
3197.00,0.0297
3196.00,0.0296
3195.00,0.0294
3194.00,0.0292
3193.00,0.0291
3192.00,0.0289
3191.00,0.0287
3190.00,0.0286
3189.00,0.0284
3188.00,0.0282
3187.00,0.0281
3186.00,0.0279
3185.00,0.0277
3184.00,0.0275
3183.00,0.0274
3182.00,0.0272
3181.00,0.0270
3180.00,0.0269
3179.00,0.0267
3178.00,0.0266
3177.00,0.0264
3176.00,0.0263
3175.00,0.0261
3174.00,0.0259
3173.00,0.0258
3172.00,0.0256
3171.00,0.0254
3170.00,0.0252
3169.00,0.0251
3168.00,0.0249
3167.00,0.0247
3166.00,0.0246
3165.00,0.0245
3164.00,0.0243
3163.00,0.0241
3162.00,0.0240
3161.00,0.0238
3160.00,0.0236
3159.00,0.0235
3158.00,0.0233
3157.00,0.0231
3156.00,0.0230
3155.00,0.0228
3154.00,0.0226
3153.00,0.0225
3152.00,0.0224
3151.00,0.0222
3150.00,0.0221
3149.00,0.0220
3148.00,0.0219
3147.00,0.0217
3146.00,0.0216
3145.00,0.0214
3144.00,0.0213
3143.00,0.0212
3142.00,0.0210
3141.00,0.0209
3140.00,0.0208
3139.00,0.0207
3138.00,0.0206
3137.00,0.0205
3136.00,0.0204
3135.00,0.0203
3134.00,0.0201
3133.00,0.0200
3132.00,0.0199
3131.00,0.0198
3130.00,0.0198
3129.00,0.0197
3128.00,0.0196
3127.00,0.0195
3126.00,0.0194
3125.00,0.0193
3124.00,0.0192
3123.00,0.0191
3122.00,0.0190
3121.00,0.0189
3120.00,0.0189
3119.00,0.0188
3118.00,0.0187
3117.00,0.0186
3116.00,0.0185
3115.00,0.0185
3114.00,0.0184
3113.00,0.0183
3112.00,0.0181
3111.00,0.0180
3110.00,0.0180
3109.00,0.0179
3108.00,0.0178
3107.00,0.0177
3106.00,0.0176
3105.00,0.0175
3104.00,0.0174
3103.00,0.0173
3102.00,0.0173
3101.00,0.0172
3100.00,0.0171
3099.00,0.0171
3098.00,0.0170
3097.00,0.0170
3096.00,0.0169
3095.00,0.0169
3094.00,0.0168
3093.00,0.0168
3092.00,0.0168
3091.00,0.0168
3090.00,0.0168
3089.00,0.0168
3088.00,0.0168
3087.00,0.0168
3086.00,0.0168
3085.00,0.0167
3084.00,0.0167
3083.00,0.0166
3082.00,0.0166
3081.00,0.0166
3080.00,0.0165
3079.00,0.0165
3078.00,0.0164
3077.00,0.0164
3076.00,0.0163
3075.00,0.0162
3074.00,0.0162
3073.00,0.0161
3072.00,0.0161
3071.00,0.0160
3070.00,0.0160
3069.00,0.0160
3068.00,0.0160
3067.00,0.0160
3066.00,0.0159
3065.00,0.0159
3064.00,0.0159
3063.00,0.0158
3062.00,0.0158
3061.00,0.0158
3060.00,0.0158
3059.00,0.0158
3058.00,0.0158
3057.00,0.0158
3056.00,0.0158
3055.00,0.0158
3054.00,0.0158
3053.00,0.0158
3052.00,0.0157
3051.00,0.0157
3050.00,0.0156
3049.00,0.0156
3048.00,0.0156
3047.00,0.0156
3046.00,0.0155
3045.00,0.0155
3044.00,0.0155
3043.00,0.0155
3042.00,0.0155
3041.00,0.0155
3040.00,0.0156
3039.00,0.0156
3038.00,0.0157
3037.00,0.0158
3036.00,0.0158
3035.00,0.0159
3034.00,0.0159
3033.00,0.0159
3032.00,0.0159
3031.00,0.0159
3030.00,0.0158
3029.00,0.0158
3028.00,0.0157
3027.00,0.0156
3026.00,0.0156
3025.00,0.0155
3024.00,0.0154
3023.00,0.0153
3022.00,0.0153
3021.00,0.0152
3020.00,0.0152
3019.00,0.0152
3018.00,0.0152
3017.00,0.0152
3016.00,0.0152
3015.00,0.0152
3014.00,0.0153
3013.00,0.0154
3012.00,0.0155
3011.00,0.0156
3010.00,0.0158
3009.00,0.0160
3008.00,0.0162
3007.00,0.0164
3006.00,0.0166
3005.00,0.0169
3004.00,0.0172
3003.00,0.0175
3002.00,0.0179
3001.00,0.0183
3000.00,0.0188
2999.00,0.0193
2998.00,0.0198
2997.00,0.0204
2996.00,0.0210
2995.00,0.0216
2994.00,0.0221
2993.00,0.0227
2992.00,0.0232
2991.00,0.0237
2990.00,0.0241
2989.00,0.0246
2988.00,0.0251
2987.00,0.0256
2986.00,0.0261
2985.00,0.0267
2984.00,0.0274
2983.00,0.0281
2982.00,0.0289
2981.00,0.0298
2980.00,0.0306
2979.00,0.0313
2978.00,0.0318
2977.00,0.0322
2976.00,0.0325
2975.00,0.0331
2974.00,0.0338
2973.00,0.0347
2972.00,0.0358
2971.00,0.0368
2970.00,0.0377
2969.00,0.0383
2968.00,0.0389
2967.00,0.0393
2966.00,0.0398
2965.00,0.0403
2964.00,0.0410
2963.00,0.0416
2962.00,0.0422
2961.00,0.0427
2960.00,0.0430
2959.00,0.0431
2958.00,0.0429
2957.00,0.0424
2956.00,0.0418
2955.00,0.0411
2954.00,0.0403
2953.00,0.0396
2952.00,0.0389
2951.00,0.0384
2950.00,0.0379
2949.00,0.0376
2948.00,0.0375
2947.00,0.0374
2946.00,0.0375
2945.00,0.0378
2944.00,0.0381
2943.00,0.0385
2942.00,0.0390
2941.00,0.0397
2940.00,0.0404
2939.00,0.0412
2938.00,0.0423
2937.00,0.0435
2936.00,0.0448
2935.00,0.0464
2934.00,0.0480
2933.00,0.0497
2932.00,0.0514
2931.00,0.0530
2930.00,0.0545
2929.00,0.0557
2928.00,0.0566
2927.00,0.0571
2926.00,0.0572
2925.00,0.0569
2924.00,0.0563
2923.00,0.0555
2922.00,0.0545
2921.00,0.0534
2920.00,0.0522
2919.00,0.0509
2918.00,0.0496
2917.00,0.0483
2916.00,0.0470
2915.00,0.0457
2914.00,0.0445
2913.00,0.0433
2912.00,0.0423
2911.00,0.0413
2910.00,0.0404
2909.00,0.0396
2908.00,0.0389
2907.00,0.0382
2906.00,0.0375
2905.00,0.0369
2904.00,0.0364
2903.00,0.0359
2902.00,0.0354
2901.00,0.0350
2900.00,0.0346
2899.00,0.0342
2898.00,0.0339
2897.00,0.0335
2896.00,0.0332
2895.00,0.0329
2894.00,0.0327
2893.00,0.0325
2892.00,0.0322
2891.00,0.0320
2890.00,0.0318
2889.00,0.0316
2888.00,0.0314
2887.00,0.0312
2886.00,0.0310
2885.00,0.0309
2884.00,0.0308
2883.00,0.0308
2882.00,0.0308
2881.00,0.0309
2880.00,0.0311
2879.00,0.0313
2878.00,0.0317
2877.00,0.0322
2876.00,0.0327
2875.00,0.0331
2874.00,0.0335
2873.00,0.0338
2872.00,0.0340
2871.00,0.0339
2870.00,0.0338
2869.00,0.0336
2868.00,0.0334
2867.00,0.0333
2866.00,0.0334
2865.00,0.0336
2864.00,0.0342
2863.00,0.0349
2862.00,0.0359
2861.00,0.0370
2860.00,0.0382
2859.00,0.0393
2858.00,0.0403
2857.00,0.0409
2856.00,0.0411
2855.00,0.0411
2854.00,0.0408
2853.00,0.0403
2852.00,0.0395
2851.00,0.0384
2850.00,0.0371
2849.00,0.0355
2848.00,0.0339
2847.00,0.0323
2846.00,0.0307
2845.00,0.0293
2844.00,0.0280
2843.00,0.0268
2842.00,0.0257
2841.00,0.0248
2840.00,0.0239
2839.00,0.0232
2838.00,0.0226
2837.00,0.0220
2836.00,0.0216
2835.00,0.0212
2834.00,0.0208
2833.00,0.0204
2832.00,0.0201
2831.00,0.0197
2830.00,0.0194
2829.00,0.0191
2828.00,0.0188
2827.00,0.0186
2826.00,0.0183
2825.00,0.0180
2824.00,0.0178
2823.00,0.0176
2822.00,0.0174
2821.00,0.0172
2820.00,0.0170
2819.00,0.0169
2818.00,0.0167
2817.00,0.0165
2816.00,0.0164
2815.00,0.0162
2814.00,0.0161
2813.00,0.0160
2812.00,0.0159
2811.00,0.0158
2810.00,0.0157
2809.00,0.0156
2808.00,0.0155
2807.00,0.0155
2806.00,0.0154
2805.00,0.0153
2804.00,0.0152
2803.00,0.0152
2802.00,0.0151
2801.00,0.0150
2800.00,0.0149
2799.00,0.0148
2798.00,0.0148
2797.00,0.0147
2796.00,0.0146
2795.00,0.0146
2794.00,0.0146
2793.00,0.0145
2792.00,0.0145
2791.00,0.0144
2790.00,0.0143
2789.00,0.0143
2788.00,0.0142
2787.00,0.0142
2786.00,0.0141
2785.00,0.0141
2784.00,0.0141
2783.00,0.0140
2782.00,0.0139
2781.00,0.0139
2780.00,0.0138
2779.00,0.0138
2778.00,0.0138
2777.00,0.0137
2776.00,0.0137
2775.00,0.0137
2774.00,0.0136
2773.00,0.0136
2772.00,0.0136
2771.00,0.0136
2770.00,0.0135
2769.00,0.0135
2768.00,0.0135
2767.00,0.0135
2766.00,0.0135
2765.00,0.0134
2764.00,0.0134
2763.00,0.0134
2762.00,0.0134
2761.00,0.0134
2760.00,0.0134
2759.00,0.0134
2758.00,0.0134
2757.00,0.0134
