Created as New Dataset,Sample 981 By YargerLab Date Wednesday, July 30 2025
cm-1,A
4000.00,0.0057
3999.00,0.0057
3998.00,0.0057
3997.00,0.0057
3996.00,0.0057
3995.00,0.0056
3994.00,0.0056
3993.00,0.0056
3992.00,0.0056
3991.00,0.0057
3990.00,0.0057
3989.00,0.0057
3988.00,0.0057
3987.00,0.0057
3986.00,0.0057
3985.00,0.0057
3984.00,0.0057
3983.00,0.0057
3982.00,0.0057
3981.00,0.0057
3980.00,0.0056
3979.00,0.0056
3978.00,0.0056
3977.00,0.0056
3976.00,0.0056
3975.00,0.0056
3974.00,0.0056
3973.00,0.0056
3972.00,0.0056
3971.00,0.0056
3970.00,0.0056
3969.00,0.0056
3968.00,0.0057
3967.00,0.0057
3966.00,0.0057
3965.00,0.0057
3964.00,0.0057
3963.00,0.0057
3962.00,0.0057
3961.00,0.0056
3960.00,0.0056
3959.00,0.0056
3958.00,0.0056
3957.00,0.0056
3956.00,0.0057
3955.00,0.0057
3954.00,0.0057
3953.00,0.0057
3952.00,0.0057
3951.00,0.0057
3950.00,0.0057
3949.00,0.0057
3948.00,0.0057
3947.00,0.0057
3946.00,0.0057
3945.00,0.0057
3944.00,0.0057
3943.00,0.0057
3942.00,0.0057
3941.00,0.0057
3940.00,0.0056
3939.00,0.0056
3938.00,0.0056
3937.00,0.0056
3936.00,0.0057
3935.00,0.0057
3934.00,0.0057
3933.00,0.0057
3932.00,0.0057
3931.00,0.0057
3930.00,0.0057
3929.00,0.0057
3928.00,0.0057
3927.00,0.0056
3926.00,0.0056
3925.00,0.0056
3924.00,0.0056
3923.00,0.0056
3922.00,0.0057
3921.00,0.0057
3920.00,0.0057
3919.00,0.0057
3918.00,0.0057
3917.00,0.0057
3916.00,0.0057
3915.00,0.0057
3914.00,0.0057
3913.00,0.0057
3912.00,0.0057
3911.00,0.0057
3910.00,0.0057
3909.00,0.0057
3908.00,0.0057
3907.00,0.0057
3906.00,0.0057
3905.00,0.0057
3904.00,0.0057
3903.00,0.0058
3902.00,0.0058
3901.00,0.0058
3900.00,0.0057
3899.00,0.0057
3898.00,0.0057
3897.00,0.0057
3896.00,0.0057
3895.00,0.0057
3894.00,0.0057
3893.00,0.0057
3892.00,0.0057
3891.00,0.0057
3890.00,0.0058
3889.00,0.0058
3888.00,0.0058
3887.00,0.0058
3886.00,0.0057
3885.00,0.0057
3884.00,0.0057
3883.00,0.0057
3882.00,0.0057
3881.00,0.0057
3880.00,0.0057
3879.00,0.0057
3878.00,0.0057
3877.00,0.0057
3876.00,0.0057
3875.00,0.0057
3874.00,0.0057
3873.00,0.0058
3872.00,0.0058
3871.00,0.0058
3870.00,0.0058
3869.00,0.0058
3868.00,0.0058
3867.00,0.0058
3866.00,0.0057
3865.00,0.0057
3864.00,0.0057
3863.00,0.0057
3862.00,0.0058
3861.00,0.0058
3860.00,0.0058
3859.00,0.0058
3858.00,0.0058
3857.00,0.0058
3856.00,0.0058
3855.00,0.0058
3854.00,0.0057
3853.00,0.0057
3852.00,0.0057
3851.00,0.0057
3850.00,0.0057
3849.00,0.0057
3848.00,0.0057
3847.00,0.0057
3846.00,0.0057
3845.00,0.0057
3844.00,0.0057
3843.00,0.0058
3842.00,0.0058
3841.00,0.0058
3840.00,0.0058
3839.00,0.0058
3838.00,0.0058
3837.00,0.0058
3836.00,0.0058
3835.00,0.0058
3834.00,0.0058
3833.00,0.0057
3832.00,0.0057
3831.00,0.0057
3830.00,0.0057
3829.00,0.0057
3828.00,0.0057
3827.00,0.0058
3826.00,0.0058
3825.00,0.0058
3824.00,0.0059
3823.00,0.0059
3822.00,0.0059
3821.00,0.0059
3820.00,0.0059
3819.00,0.0059
3818.00,0.0058
3817.00,0.0058
3816.00,0.0057
3815.00,0.0057
3814.00,0.0057
3813.00,0.0057
3812.00,0.0056
3811.00,0.0056
3810.00,0.0057
3809.00,0.0057
3808.00,0.0057
3807.00,0.0057
3806.00,0.0057
3805.00,0.0058
3804.00,0.0058
3803.00,0.0057
3802.00,0.0057
3801.00,0.0057
3800.00,0.0057
3799.00,0.0057
3798.00,0.0057
3797.00,0.0057
3796.00,0.0057
3795.00,0.0057
3794.00,0.0057
3793.00,0.0057
3792.00,0.0057
3791.00,0.0057
3790.00,0.0057
3789.00,0.0057
3788.00,0.0057
3787.00,0.0057
3786.00,0.0056
3785.00,0.0056
3784.00,0.0056
3783.00,0.0056
3782.00,0.0057
3781.00,0.0057
3780.00,0.0057
3779.00,0.0057
3778.00,0.0057
3777.00,0.0057
3776.00,0.0057
3775.00,0.0057
3774.00,0.0057
3773.00,0.0057
3772.00,0.0057
3771.00,0.0058
3770.00,0.0058
3769.00,0.0058
3768.00,0.0058
3767.00,0.0058
3766.00,0.0057
3765.00,0.0057
3764.00,0.0057
3763.00,0.0057
3762.00,0.0057
3761.00,0.0057
3760.00,0.0057
3759.00,0.0057
3758.00,0.0057
3757.00,0.0057
3756.00,0.0058
3755.00,0.0058
3754.00,0.0059
3753.00,0.0059
3752.00,0.0059
3751.00,0.0059
3750.00,0.0059
3749.00,0.0059
3748.00,0.0059
3747.00,0.0059
3746.00,0.0059
3745.00,0.0058
3744.00,0.0058
3743.00,0.0057
3742.00,0.0057
3741.00,0.0057
3740.00,0.0057
3739.00,0.0058
3738.00,0.0058
3737.00,0.0058
3736.00,0.0058
3735.00,0.0058
3734.00,0.0058
3733.00,0.0057
3732.00,0.0057
3731.00,0.0057
3730.00,0.0057
3729.00,0.0057
3728.00,0.0056
3727.00,0.0056
3726.00,0.0056
3725.00,0.0056
3724.00,0.0056
3723.00,0.0056
3722.00,0.0056
3721.00,0.0056
3720.00,0.0055
3719.00,0.0055
3718.00,0.0055
3717.00,0.0055
3716.00,0.0056
3715.00,0.0056
3714.00,0.0057
3713.00,0.0057
3712.00,0.0058
3711.00,0.0058
3710.00,0.0057
3709.00,0.0057
3708.00,0.0056
3707.00,0.0056
3706.00,0.0055
3705.00,0.0055
3704.00,0.0055
3703.00,0.0055
3702.00,0.0055
3701.00,0.0055
3700.00,0.0055
3699.00,0.0055
3698.00,0.0055
3697.00,0.0055
3696.00,0.0055
3695.00,0.0056
3694.00,0.0056
3693.00,0.0057
3692.00,0.0057
3691.00,0.0058
3690.00,0.0058
3689.00,0.0058
3688.00,0.0059
3687.00,0.0059
3686.00,0.0059
3685.00,0.0059
3684.00,0.0059
3683.00,0.0059
3682.00,0.0059
3681.00,0.0060
3680.00,0.0060
3679.00,0.0061
3678.00,0.0062
3677.00,0.0062
3676.00,0.0062
3675.00,0.0062
3674.00,0.0063
3673.00,0.0063
3672.00,0.0063
3671.00,0.0062
3670.00,0.0062
3669.00,0.0062
3668.00,0.0062
3667.00,0.0062
3666.00,0.0062
3665.00,0.0062
3664.00,0.0062
3663.00,0.0063
3662.00,0.0063
3661.00,0.0063
3660.00,0.0064
3659.00,0.0064
3658.00,0.0064
3657.00,0.0065
3656.00,0.0065
3655.00,0.0066
3654.00,0.0066
3653.00,0.0067
3652.00,0.0067
3651.00,0.0068
3650.00,0.0068
3649.00,0.0069
3648.00,0.0069
3647.00,0.0069
3646.00,0.0069
3645.00,0.0069
3644.00,0.0069
3643.00,0.0069
3642.00,0.0069
3641.00,0.0069
3640.00,0.0069
3639.00,0.0070
3638.00,0.0070
3637.00,0.0071
3636.00,0.0071
3635.00,0.0071
3634.00,0.0072
3633.00,0.0072
3632.00,0.0073
3631.00,0.0073
3630.00,0.0073
3629.00,0.0074
3628.00,0.0074
3627.00,0.0074
3626.00,0.0075
3625.00,0.0075
3624.00,0.0075
3623.00,0.0076
3622.00,0.0076
3621.00,0.0076
3620.00,0.0076
3619.00,0.0077
3618.00,0.0078
3617.00,0.0079
3616.00,0.0080
3615.00,0.0080
3614.00,0.0081
3613.00,0.0082
3612.00,0.0082
3611.00,0.0083
3610.00,0.0084
3609.00,0.0084
3608.00,0.0084
3607.00,0.0085
3606.00,0.0085
3605.00,0.0085
3604.00,0.0085
3603.00,0.0086
3602.00,0.0086
3601.00,0.0087
3600.00,0.0088
3599.00,0.0089
3598.00,0.0089
3597.00,0.0090
3596.00,0.0091
3595.00,0.0091
3594.00,0.0092
3593.00,0.0093
3592.00,0.0094
3591.00,0.0094
3590.00,0.0095
3589.00,0.0096
3588.00,0.0097
3587.00,0.0098
3586.00,0.0099
3585.00,0.0100
3584.00,0.0100
3583.00,0.0101
3582.00,0.0101
3581.00,0.0102
3580.00,0.0103
3579.00,0.0104
3578.00,0.0105
3577.00,0.0105
3576.00,0.0106
3575.00,0.0107
3574.00,0.0107
3573.00,0.0108
3572.00,0.0109
3571.00,0.0110
3570.00,0.0111
3569.00,0.0112
3568.00,0.0113
3567.00,0.0114
3566.00,0.0116
3565.00,0.0116
3564.00,0.0117
3563.00,0.0118
3562.00,0.0118
3561.00,0.0118
3560.00,0.0119
3559.00,0.0120
3558.00,0.0120
3557.00,0.0121
3556.00,0.0121
3555.00,0.0122
3554.00,0.0123
3553.00,0.0124
3552.00,0.0125
3551.00,0.0126
3550.00,0.0127
3549.00,0.0127
3548.00,0.0128
3547.00,0.0129
3546.00,0.0130
3545.00,0.0130
3544.00,0.0130
3543.00,0.0131
3542.00,0.0131
3541.00,0.0131
3540.00,0.0132
3539.00,0.0133
3538.00,0.0133
3537.00,0.0134
3536.00,0.0135
3535.00,0.0135
3534.00,0.0136
3533.00,0.0136
3532.00,0.0137
3531.00,0.0137
3530.00,0.0138
3529.00,0.0138
3528.00,0.0139
3527.00,0.0140
3526.00,0.0140
3525.00,0.0141
3524.00,0.0141
3523.00,0.0141
3522.00,0.0142
3521.00,0.0142
3520.00,0.0143
3519.00,0.0143
3518.00,0.0143
3517.00,0.0144
3516.00,0.0145
3515.00,0.0145
3514.00,0.0146
3513.00,0.0146
3512.00,0.0146
3511.00,0.0147
3510.00,0.0147
3509.00,0.0148
3508.00,0.0148
3507.00,0.0148
3506.00,0.0149
3505.00,0.0150
3504.00,0.0150
3503.00,0.0151
3502.00,0.0152
3501.00,0.0152
3500.00,0.0152
3499.00,0.0153
3498.00,0.0153
3497.00,0.0153
3496.00,0.0153
3495.00,0.0154
3494.00,0.0154
3493.00,0.0154
3492.00,0.0155
3491.00,0.0155
3490.00,0.0155
3489.00,0.0156
3488.00,0.0156
3487.00,0.0157
3486.00,0.0157
3485.00,0.0158
3484.00,0.0158
3483.00,0.0158
3482.00,0.0159
3481.00,0.0159
3480.00,0.0160
3479.00,0.0161
3478.00,0.0161
3477.00,0.0161
3476.00,0.0161
3475.00,0.0162
3474.00,0.0162
3473.00,0.0162
3472.00,0.0163
3471.00,0.0163
3470.00,0.0164
3469.00,0.0164
3468.00,0.0164
3467.00,0.0165
3466.00,0.0165
3465.00,0.0165
3464.00,0.0165
3463.00,0.0165
3462.00,0.0165
3461.00,0.0165
3460.00,0.0166
3459.00,0.0166
3458.00,0.0166
3457.00,0.0167
3456.00,0.0167
3455.00,0.0167
3454.00,0.0167
3453.00,0.0168
3452.00,0.0168
3451.00,0.0168
3450.00,0.0168
3449.00,0.0168
3448.00,0.0169
3447.00,0.0169
3446.00,0.0169
3445.00,0.0169
3444.00,0.0169
3443.00,0.0169
3442.00,0.0169
3441.00,0.0169
3440.00,0.0169
3439.00,0.0169
3438.00,0.0170
3437.00,0.0170
3436.00,0.0170
3435.00,0.0170
3434.00,0.0170
3433.00,0.0170
3432.00,0.0170
3431.00,0.0170
3430.00,0.0170
3429.00,0.0170
3428.00,0.0170
3427.00,0.0170
3426.00,0.0170
3425.00,0.0170
3424.00,0.0170
3423.00,0.0170
3422.00,0.0170
3421.00,0.0170
3420.00,0.0170
3419.00,0.0170
3418.00,0.0169
3417.00,0.0169
3416.00,0.0169
3415.00,0.0169
3414.00,0.0169
3413.00,0.0169
3412.00,0.0169
3411.00,0.0169
3410.00,0.0169
3409.00,0.0169
3408.00,0.0169
3407.00,0.0169
3406.00,0.0168
3405.00,0.0168
3404.00,0.0168
3403.00,0.0168
3402.00,0.0168
3401.00,0.0168
3400.00,0.0168
3399.00,0.0168
3398.00,0.0168
3397.00,0.0168
3396.00,0.0167
3395.00,0.0167
3394.00,0.0167
3393.00,0.0167
3392.00,0.0166
3391.00,0.0166
3390.00,0.0166
3389.00,0.0166
3388.00,0.0167
3387.00,0.0166
3386.00,0.0166
3385.00,0.0166
3384.00,0.0166
3383.00,0.0166
3382.00,0.0166
3381.00,0.0165
3380.00,0.0165
3379.00,0.0165
3378.00,0.0165
3377.00,0.0165
3376.00,0.0165
3375.00,0.0164
3374.00,0.0164
3373.00,0.0164
3372.00,0.0163
3371.00,0.0162
3370.00,0.0162
3369.00,0.0161
3368.00,0.0161
3367.00,0.0162
3366.00,0.0162
3365.00,0.0162
3364.00,0.0162
3363.00,0.0162
3362.00,0.0162
3361.00,0.0162
3360.00,0.0162
3359.00,0.0162
3358.00,0.0162
3357.00,0.0162
3356.00,0.0162
3355.00,0.0161
3354.00,0.0161
3353.00,0.0160
3352.00,0.0159
3351.00,0.0159
3350.00,0.0159
3349.00,0.0159
3348.00,0.0160
3347.00,0.0160
3346.00,0.0159
3345.00,0.0159
3344.00,0.0159
3343.00,0.0158
3342.00,0.0158
3341.00,0.0158
3340.00,0.0158
3339.00,0.0158
3338.00,0.0158
3337.00,0.0158
3336.00,0.0158
3335.00,0.0159
3334.00,0.0159
3333.00,0.0159
3332.00,0.0158
3331.00,0.0158
3330.00,0.0158
3329.00,0.0158
3328.00,0.0157
3327.00,0.0156
3326.00,0.0156
3325.00,0.0156
3324.00,0.0156
3323.00,0.0157
3322.00,0.0157
3321.00,0.0157
3320.00,0.0157
3319.00,0.0156
3318.00,0.0156
3317.00,0.0156
3316.00,0.0156
3315.00,0.0156
3314.00,0.0156
3313.00,0.0155
3312.00,0.0155
3311.00,0.0154
3310.00,0.0153
3309.00,0.0152
3308.00,0.0151
3307.00,0.0151
3306.00,0.0151
3305.00,0.0152
3304.00,0.0152
3303.00,0.0153
3302.00,0.0154
3301.00,0.0154
3300.00,0.0154
3299.00,0.0154
3298.00,0.0153
3297.00,0.0152
3296.00,0.0152
3295.00,0.0152
3294.00,0.0152
3293.00,0.0152
3292.00,0.0152
3291.00,0.0153
3290.00,0.0153
3289.00,0.0153
3288.00,0.0153
3287.00,0.0153
3286.00,0.0153
3285.00,0.0153
3284.00,0.0152
3283.00,0.0152
3282.00,0.0152
3281.00,0.0152
3280.00,0.0152
3279.00,0.0152
3278.00,0.0151
3277.00,0.0151
3276.00,0.0150
3275.00,0.0150
3274.00,0.0150
3273.00,0.0150
3272.00,0.0150
3271.00,0.0150
3270.00,0.0150
3269.00,0.0150
3268.00,0.0150
3267.00,0.0150
3266.00,0.0150
3265.00,0.0150
3264.00,0.0149
3263.00,0.0149
3262.00,0.0149
3261.00,0.0149
3260.00,0.0148
3259.00,0.0148
3258.00,0.0148
3257.00,0.0148
3256.00,0.0147
3255.00,0.0147
3254.00,0.0147
3253.00,0.0147
3252.00,0.0147
3251.00,0.0147
3250.00,0.0147
3249.00,0.0146
3248.00,0.0146
3247.00,0.0146
3246.00,0.0145
3245.00,0.0146
3244.00,0.0146
3243.00,0.0146
3242.00,0.0146
3241.00,0.0146
3240.00,0.0146
3239.00,0.0145
3238.00,0.0145
3237.00,0.0145
3236.00,0.0144
3235.00,0.0144
3234.00,0.0144
3233.00,0.0143
3232.00,0.0143
3231.00,0.0143
3230.00,0.0143
3229.00,0.0143
3228.00,0.0143
3227.00,0.0142
3226.00,0.0142
3225.00,0.0142
3224.00,0.0142
3223.00,0.0142
3222.00,0.0141
3221.00,0.0141
3220.00,0.0141
3219.00,0.0141
3218.00,0.0141
3217.00,0.0141
3216.00,0.0141
3215.00,0.0141
3214.00,0.0141
3213.00,0.0140
3212.00,0.0140
3211.00,0.0140
3210.00,0.0139
3209.00,0.0139
3208.00,0.0139
3207.00,0.0138
3206.00,0.0138
3205.00,0.0138
3204.00,0.0138
3203.00,0.0137
3202.00,0.0137
3201.00,0.0137
3200.00,0.0137
3199.00,0.0137
3198.00,0.0136
3197.00,0.0136
3196.00,0.0136
3195.00,0.0135
3194.00,0.0135
3193.00,0.0135
3192.00,0.0135
3191.00,0.0135
3190.00,0.0135
3189.00,0.0135
3188.00,0.0135
3187.00,0.0135
3186.00,0.0134
3185.00,0.0134
3184.00,0.0134
3183.00,0.0134
3182.00,0.0134
3181.00,0.0133
3180.00,0.0133
3179.00,0.0133
3178.00,0.0133
3177.00,0.0133
3176.00,0.0133
3175.00,0.0133
3174.00,0.0133
3173.00,0.0133
3172.00,0.0132
3171.00,0.0132
3170.00,0.0132
3169.00,0.0132
3168.00,0.0131
3167.00,0.0131
3166.00,0.0131
3165.00,0.0131
3164.00,0.0131
3163.00,0.0131
3162.00,0.0131
3161.00,0.0130
3160.00,0.0130
3159.00,0.0130
3158.00,0.0129
3157.00,0.0129
3156.00,0.0129
3155.00,0.0128
3154.00,0.0128
3153.00,0.0128
3152.00,0.0128
3151.00,0.0128
3150.00,0.0128
3149.00,0.0128
3148.00,0.0127
3147.00,0.0127
3146.00,0.0127
3145.00,0.0127
3144.00,0.0127
3143.00,0.0127
3142.00,0.0126
3141.00,0.0126
3140.00,0.0126
3139.00,0.0126
3138.00,0.0126
3137.00,0.0126
3136.00,0.0125
3135.00,0.0125
3134.00,0.0125
3133.00,0.0125
3132.00,0.0124
3131.00,0.0124
3130.00,0.0124
3129.00,0.0124
3128.00,0.0124
3127.00,0.0124
3126.00,0.0124
3125.00,0.0124
3124.00,0.0124
3123.00,0.0124
3122.00,0.0124
3121.00,0.0124
3120.00,0.0124
3119.00,0.0124
3118.00,0.0124
3117.00,0.0123
3116.00,0.0123
3115.00,0.0123
3114.00,0.0123
3113.00,0.0123
3112.00,0.0123
3111.00,0.0122
3110.00,0.0122
3109.00,0.0121
3108.00,0.0121
3107.00,0.0121
3106.00,0.0120
3105.00,0.0120
3104.00,0.0120
3103.00,0.0120
3102.00,0.0120
3101.00,0.0120
3100.00,0.0120
3099.00,0.0119
3098.00,0.0119
3097.00,0.0119
3096.00,0.0119
3095.00,0.0119
3094.00,0.0119
3093.00,0.0119
3092.00,0.0119
3091.00,0.0119
3090.00,0.0119
3089.00,0.0119
3088.00,0.0119
3087.00,0.0119
3086.00,0.0119
3085.00,0.0119
3084.00,0.0119
3083.00,0.0119
3082.00,0.0119
3081.00,0.0119
3080.00,0.0119
3079.00,0.0119
3078.00,0.0119
3077.00,0.0119
3076.00,0.0119
3075.00,0.0119
3074.00,0.0119
3073.00,0.0118
3072.00,0.0118
3071.00,0.0118
3070.00,0.0118
3069.00,0.0118
3068.00,0.0118
3067.00,0.0117
3066.00,0.0117
3065.00,0.0117
3064.00,0.0117
3063.00,0.0116
3062.00,0.0116
3061.00,0.0116
3060.00,0.0116
3059.00,0.0116
3058.00,0.0115
3057.00,0.0115
3056.00,0.0115
3055.00,0.0115
3054.00,0.0115
3053.00,0.0115
3052.00,0.0115
3051.00,0.0114
3050.00,0.0114
3049.00,0.0114
3048.00,0.0113
3047.00,0.0113
3046.00,0.0113
3045.00,0.0114
3044.00,0.0114
3043.00,0.0113
3042.00,0.0113
3041.00,0.0113
3040.00,0.0113
3039.00,0.0112
3038.00,0.0112
3037.00,0.0112
3036.00,0.0112
3035.00,0.0112
3034.00,0.0113
3033.00,0.0113
3032.00,0.0113
3031.00,0.0113
3030.00,0.0112
3029.00,0.0112
3028.00,0.0112
3027.00,0.0112
3026.00,0.0111
3025.00,0.0111
3024.00,0.0111
3023.00,0.0111
3022.00,0.0111
3021.00,0.0112
3020.00,0.0112
3019.00,0.0112
3018.00,0.0112
3017.00,0.0112
3016.00,0.0113
3015.00,0.0113
3014.00,0.0114
3013.00,0.0114
3012.00,0.0115
3011.00,0.0116
3010.00,0.0117
3009.00,0.0118
3008.00,0.0120
3007.00,0.0121
3006.00,0.0123
3005.00,0.0124
3004.00,0.0127
3003.00,0.0129
3002.00,0.0131
3001.00,0.0134
3000.00,0.0136
2999.00,0.0139
2998.00,0.0142
2997.00,0.0146
2996.00,0.0149
2995.00,0.0153
2994.00,0.0157
2993.00,0.0161
2992.00,0.0165
2991.00,0.0170
2990.00,0.0174
2989.00,0.0179
2988.00,0.0183
2987.00,0.0187
2986.00,0.0192
2985.00,0.0196
2984.00,0.0200
2983.00,0.0204
2982.00,0.0208
2981.00,0.0211
2980.00,0.0214
2979.00,0.0216
2978.00,0.0219
2977.00,0.0221
2976.00,0.0223
2975.00,0.0225
2974.00,0.0227
2973.00,0.0230
2972.00,0.0232
2971.00,0.0234
2970.00,0.0236
2969.00,0.0238
2968.00,0.0240
2967.00,0.0242
2966.00,0.0245
2965.00,0.0247
2964.00,0.0250
2963.00,0.0252
2962.00,0.0255
2961.00,0.0257
2960.00,0.0259
2959.00,0.0262
2958.00,0.0263
2957.00,0.0265
2956.00,0.0267
2955.00,0.0268
2954.00,0.0269
2953.00,0.0269
2952.00,0.0269
2951.00,0.0269
2950.00,0.0268
2949.00,0.0267
2948.00,0.0266
2947.00,0.0265
2946.00,0.0264
2945.00,0.0263
2944.00,0.0263
2943.00,0.0262
2942.00,0.0262
2941.00,0.0263
2940.00,0.0263
2939.00,0.0264
2938.00,0.0266
2937.00,0.0267
2936.00,0.0269
2935.00,0.0271
2934.00,0.0273
2933.00,0.0275
2932.00,0.0277
2931.00,0.0279
2930.00,0.0281
2929.00,0.0283
2928.00,0.0285
2927.00,0.0286
2926.00,0.0287
2925.00,0.0287
2924.00,0.0287
2923.00,0.0287
2922.00,0.0286
2921.00,0.0284
2920.00,0.0283
2919.00,0.0281
2918.00,0.0278
2917.00,0.0276
2916.00,0.0272
2915.00,0.0268
2914.00,0.0264
2913.00,0.0259
2912.00,0.0255
2911.00,0.0250
2910.00,0.0246
2909.00,0.0242
2908.00,0.0239
2907.00,0.0236
2906.00,0.0233
2905.00,0.0230
2904.00,0.0228
2903.00,0.0226
2902.00,0.0225
2901.00,0.0224
2900.00,0.0223
2899.00,0.0222
2898.00,0.0222
2897.00,0.0221
2896.00,0.0221
2895.00,0.0221
2894.00,0.0221
2893.00,0.0221
2892.00,0.0221
2891.00,0.0220
2890.00,0.0220
2889.00,0.0219
2888.00,0.0219
2887.00,0.0219
2886.00,0.0219
2885.00,0.0219
2884.00,0.0219
2883.00,0.0219
2882.00,0.0219
2881.00,0.0219
2880.00,0.0220
2879.00,0.0220
2878.00,0.0221
2877.00,0.0222
2876.00,0.0222
2875.00,0.0223
2874.00,0.0224
2873.00,0.0224
2872.00,0.0225
2871.00,0.0225
2870.00,0.0225
2869.00,0.0225
2868.00,0.0224
2867.00,0.0223
2866.00,0.0223
2865.00,0.0222
2864.00,0.0222
2863.00,0.0222
2862.00,0.0222
2861.00,0.0222
2860.00,0.0222
2859.00,0.0222
2858.00,0.0221
2857.00,0.0219
2856.00,0.0217
2855.00,0.0215
2854.00,0.0212
2853.00,0.0209
2852.00,0.0206
2851.00,0.0202
2850.00,0.0198
2849.00,0.0193
2848.00,0.0189
2847.00,0.0184
2846.00,0.0180
2845.00,0.0176
2844.00,0.0172
2843.00,0.0168
2842.00,0.0164
2841.00,0.0161
2840.00,0.0157
2839.00,0.0155
2838.00,0.0152
2837.00,0.0150
2836.00,0.0148
2835.00,0.0146
2834.00,0.0143
2833.00,0.0142
2832.00,0.0140
2831.00,0.0138
2830.00,0.0136
2829.00,0.0135
2828.00,0.0133
2827.00,0.0131
2826.00,0.0130
2825.00,0.0128
2824.00,0.0127
2823.00,0.0125
2822.00,0.0124
2821.00,0.0123
2820.00,0.0121
2819.00,0.0120
2818.00,0.0119
2817.00,0.0118
2816.00,0.0117
2815.00,0.0117
2814.00,0.0116
2813.00,0.0115
2812.00,0.0114
2811.00,0.0113
2810.00,0.0113
2809.00,0.0112
2808.00,0.0111
2807.00,0.0111
2806.00,0.0110
2805.00,0.0109
2804.00,0.0109
2803.00,0.0108
2802.00,0.0108
2801.00,0.0107
2800.00,0.0107
2799.00,0.0106
2798.00,0.0106
2797.00,0.0105
2796.00,0.0105
2795.00,0.0105
2794.00,0.0104
2793.00,0.0104
2792.00,0.0104
2791.00,0.0103
2790.00,0.0103
2789.00,0.0102
2788.00,0.0102
2787.00,0.0102
2786.00,0.0102
2785.00,0.0101
2784.00,0.0101
2783.00,0.0101
2782.00,0.0100
2781.00,0.0100
2780.00,0.0100
2779.00,0.0100
2778.00,0.0099
2777.00,0.0099
2776.00,0.0099
2775.00,0.0098
2774.00,0.0098
2773.00,0.0098
2772.00,0.0098
2771.00,0.0098
2770.00,0.0097
2769.00,0.0097
2768.00,0.0097
2767.00,0.0097
2766.00,0.0097
2765.00,0.0097
2764.00,0.0097
2763.00,0.0097
2762.00,0.0097
2761.00,0.0097
2760.00,0.0097
2759.00,0.0097
2758.00,0.0096
2757.00,0.0096
