Created as New Dataset,Sample 532 By YargerLab Date Wednesday, June 04 2025
cm-1,A
4000.00,-0.0241
3999.00,-0.0241
3998.00,-0.0241
3997.00,-0.0241
3996.00,-0.0242
3995.00,-0.0242
3994.00,-0.0242
3993.00,-0.0242
3992.00,-0.0241
3991.00,-0.0241
3990.00,-0.0241
3989.00,-0.0241
3988.00,-0.0241
3987.00,-0.0241
3986.00,-0.0242
3985.00,-0.0242
3984.00,-0.0242
3983.00,-0.0242
3982.00,-0.0241
3981.00,-0.0242
3980.00,-0.0242
3979.00,-0.0242
3978.00,-0.0242
3977.00,-0.0242
3976.00,-0.0242
3975.00,-0.0242
3974.00,-0.0242
3973.00,-0.0242
3972.00,-0.0242
3971.00,-0.0242
3970.00,-0.0242
3969.00,-0.0242
3968.00,-0.0243
3967.00,-0.0243
3966.00,-0.0243
3965.00,-0.0243
3964.00,-0.0243
3963.00,-0.0243
3962.00,-0.0243
3961.00,-0.0243
3960.00,-0.0243
3959.00,-0.0243
3958.00,-0.0243
3957.00,-0.0243
3956.00,-0.0243
3955.00,-0.0243
3954.00,-0.0243
3953.00,-0.0243
3952.00,-0.0243
3951.00,-0.0243
3950.00,-0.0243
3949.00,-0.0243
3948.00,-0.0243
3947.00,-0.0243
3946.00,-0.0244
3945.00,-0.0244
3944.00,-0.0244
3943.00,-0.0244
3942.00,-0.0244
3941.00,-0.0244
3940.00,-0.0244
3939.00,-0.0244
3938.00,-0.0244
3937.00,-0.0244
3936.00,-0.0244
3935.00,-0.0244
3934.00,-0.0245
3933.00,-0.0245
3932.00,-0.0245
3931.00,-0.0245
3930.00,-0.0245
3929.00,-0.0245
3928.00,-0.0245
3927.00,-0.0245
3926.00,-0.0245
3925.00,-0.0245
3924.00,-0.0245
3923.00,-0.0245
3922.00,-0.0245
3921.00,-0.0245
3920.00,-0.0246
3919.00,-0.0246
3918.00,-0.0246
3917.00,-0.0246
3916.00,-0.0246
3915.00,-0.0246
3914.00,-0.0246
3913.00,-0.0247
3912.00,-0.0246
3911.00,-0.0246
3910.00,-0.0246
3909.00,-0.0246
3908.00,-0.0246
3907.00,-0.0246
3906.00,-0.0246
3905.00,-0.0247
3904.00,-0.0247
3903.00,-0.0247
3902.00,-0.0248
3901.00,-0.0248
3900.00,-0.0249
3899.00,-0.0249
3898.00,-0.0249
3897.00,-0.0248
3896.00,-0.0248
3895.00,-0.0248
3894.00,-0.0248
3893.00,-0.0248
3892.00,-0.0248
3891.00,-0.0248
3890.00,-0.0248
3889.00,-0.0248
3888.00,-0.0248
3887.00,-0.0249
3886.00,-0.0249
3885.00,-0.0249
3884.00,-0.0249
3883.00,-0.0249
3882.00,-0.0249
3881.00,-0.0249
3880.00,-0.0249
3879.00,-0.0248
3878.00,-0.0248
3877.00,-0.0249
3876.00,-0.0249
3875.00,-0.0249
3874.00,-0.0249
3873.00,-0.0249
3872.00,-0.0250
3871.00,-0.0250
3870.00,-0.0250
3869.00,-0.0250
3868.00,-0.0250
3867.00,-0.0250
3866.00,-0.0251
3865.00,-0.0251
3864.00,-0.0250
3863.00,-0.0250
3862.00,-0.0250
3861.00,-0.0251
3860.00,-0.0250
3859.00,-0.0250
3858.00,-0.0250
3857.00,-0.0250
3856.00,-0.0251
3855.00,-0.0251
3854.00,-0.0251
3853.00,-0.0252
3852.00,-0.0252
3851.00,-0.0252
3850.00,-0.0252
3849.00,-0.0252
3848.00,-0.0251
3847.00,-0.0251
3846.00,-0.0251
3845.00,-0.0251
3844.00,-0.0250
3843.00,-0.0251
3842.00,-0.0251
3841.00,-0.0251
3840.00,-0.0251
3839.00,-0.0252
3838.00,-0.0252
3837.00,-0.0252
3836.00,-0.0253
3835.00,-0.0253
3834.00,-0.0253
3833.00,-0.0252
3832.00,-0.0252
3831.00,-0.0252
3830.00,-0.0251
3829.00,-0.0251
3828.00,-0.0251
3827.00,-0.0251
3826.00,-0.0251
3825.00,-0.0251
3824.00,-0.0252
3823.00,-0.0252
3822.00,-0.0252
3821.00,-0.0252
3820.00,-0.0252
3819.00,-0.0253
3818.00,-0.0253
3817.00,-0.0254
3816.00,-0.0254
3815.00,-0.0253
3814.00,-0.0252
3813.00,-0.0252
3812.00,-0.0252
3811.00,-0.0252
3810.00,-0.0252
3809.00,-0.0252
3808.00,-0.0252
3807.00,-0.0252
3806.00,-0.0252
3805.00,-0.0252
3804.00,-0.0252
3803.00,-0.0253
3802.00,-0.0253
3801.00,-0.0253
3800.00,-0.0253
3799.00,-0.0253
3798.00,-0.0253
3797.00,-0.0253
3796.00,-0.0253
3795.00,-0.0252
3794.00,-0.0252
3793.00,-0.0252
3792.00,-0.0252
3791.00,-0.0252
3790.00,-0.0252
3789.00,-0.0252
3788.00,-0.0252
3787.00,-0.0252
3786.00,-0.0252
3785.00,-0.0252
3784.00,-0.0252
3783.00,-0.0252
3782.00,-0.0252
3781.00,-0.0252
3780.00,-0.0252
3779.00,-0.0253
3778.00,-0.0253
3777.00,-0.0253
3776.00,-0.0253
3775.00,-0.0253
3774.00,-0.0253
3773.00,-0.0252
3772.00,-0.0252
3771.00,-0.0253
3770.00,-0.0253
3769.00,-0.0253
3768.00,-0.0253
3767.00,-0.0253
3766.00,-0.0253
3765.00,-0.0253
3764.00,-0.0253
3763.00,-0.0253
3762.00,-0.0253
3761.00,-0.0253
3760.00,-0.0253
3759.00,-0.0253
3758.00,-0.0253
3757.00,-0.0253
3756.00,-0.0253
3755.00,-0.0254
3754.00,-0.0254
3753.00,-0.0254
3752.00,-0.0255
3751.00,-0.0255
3750.00,-0.0256
3749.00,-0.0256
3748.00,-0.0256
3747.00,-0.0257
3746.00,-0.0257
3745.00,-0.0257
3744.00,-0.0256
3743.00,-0.0256
3742.00,-0.0255
3741.00,-0.0255
3740.00,-0.0255
3739.00,-0.0255
3738.00,-0.0255
3737.00,-0.0255
3736.00,-0.0255
3735.00,-0.0256
3734.00,-0.0256
3733.00,-0.0256
3732.00,-0.0256
3731.00,-0.0255
3730.00,-0.0255
3729.00,-0.0254
3728.00,-0.0254
3727.00,-0.0254
3726.00,-0.0254
3725.00,-0.0254
3724.00,-0.0254
3723.00,-0.0254
3722.00,-0.0254
3721.00,-0.0254
3720.00,-0.0255
3719.00,-0.0255
3718.00,-0.0255
3717.00,-0.0255
3716.00,-0.0255
3715.00,-0.0254
3714.00,-0.0254
3713.00,-0.0254
3712.00,-0.0254
3711.00,-0.0254
3710.00,-0.0254
3709.00,-0.0254
3708.00,-0.0254
3707.00,-0.0253
3706.00,-0.0253
3705.00,-0.0253
3704.00,-0.0253
3703.00,-0.0253
3702.00,-0.0253
3701.00,-0.0253
3700.00,-0.0253
3699.00,-0.0253
3698.00,-0.0252
3697.00,-0.0252
3696.00,-0.0252
3695.00,-0.0252
3694.00,-0.0252
3693.00,-0.0252
3692.00,-0.0252
3691.00,-0.0253
3690.00,-0.0253
3689.00,-0.0253
3688.00,-0.0253
3687.00,-0.0253
3686.00,-0.0252
3685.00,-0.0252
3684.00,-0.0251
3683.00,-0.0251
3682.00,-0.0251
3681.00,-0.0251
3680.00,-0.0251
3679.00,-0.0251
3678.00,-0.0251
3677.00,-0.0251
3676.00,-0.0251
3675.00,-0.0250
3674.00,-0.0250
3673.00,-0.0250
3672.00,-0.0250
3671.00,-0.0250
3670.00,-0.0249
3669.00,-0.0248
3668.00,-0.0248
3667.00,-0.0247
3666.00,-0.0247
3665.00,-0.0247
3664.00,-0.0246
3663.00,-0.0245
3662.00,-0.0245
3661.00,-0.0244
3660.00,-0.0244
3659.00,-0.0244
3658.00,-0.0243
3657.00,-0.0243
3656.00,-0.0243
3655.00,-0.0242
3654.00,-0.0242
3653.00,-0.0242
3652.00,-0.0242
3651.00,-0.0242
3650.00,-0.0241
3649.00,-0.0240
3648.00,-0.0239
3647.00,-0.0238
3646.00,-0.0237
3645.00,-0.0237
3644.00,-0.0236
3643.00,-0.0235
3642.00,-0.0233
3641.00,-0.0232
3640.00,-0.0231
3639.00,-0.0231
3638.00,-0.0230
3637.00,-0.0229
3636.00,-0.0229
3635.00,-0.0228
3634.00,-0.0228
3633.00,-0.0227
3632.00,-0.0227
3631.00,-0.0227
3630.00,-0.0226
3629.00,-0.0224
3628.00,-0.0222
3627.00,-0.0221
3626.00,-0.0221
3625.00,-0.0221
3624.00,-0.0220
3623.00,-0.0220
3622.00,-0.0220
3621.00,-0.0219
3620.00,-0.0218
3619.00,-0.0216
3618.00,-0.0215
3617.00,-0.0214
3616.00,-0.0214
3615.00,-0.0214
3614.00,-0.0213
3613.00,-0.0212
3612.00,-0.0211
3611.00,-0.0210
3610.00,-0.0209
3609.00,-0.0208
3608.00,-0.0206
3607.00,-0.0204
3606.00,-0.0204
3605.00,-0.0203
3604.00,-0.0203
3603.00,-0.0203
3602.00,-0.0202
3601.00,-0.0201
3600.00,-0.0200
3599.00,-0.0199
3598.00,-0.0198
3597.00,-0.0198
3596.00,-0.0197
3595.00,-0.0196
3594.00,-0.0194
3593.00,-0.0194
3592.00,-0.0194
3591.00,-0.0194
3590.00,-0.0194
3589.00,-0.0192
3588.00,-0.0190
3587.00,-0.0188
3586.00,-0.0186
3585.00,-0.0186
3584.00,-0.0185
3583.00,-0.0185
3582.00,-0.0185
3581.00,-0.0184
3580.00,-0.0183
3579.00,-0.0182
3578.00,-0.0181
3577.00,-0.0179
3576.00,-0.0178
3575.00,-0.0177
3574.00,-0.0176
3573.00,-0.0175
3572.00,-0.0175
3571.00,-0.0176
3570.00,-0.0176
3569.00,-0.0175
3568.00,-0.0173
3567.00,-0.0170
3566.00,-0.0168
3565.00,-0.0166
3564.00,-0.0165
3563.00,-0.0165
3562.00,-0.0164
3561.00,-0.0163
3560.00,-0.0163
3559.00,-0.0162
3558.00,-0.0161
3557.00,-0.0161
3556.00,-0.0160
3555.00,-0.0160
3554.00,-0.0159
3553.00,-0.0157
3552.00,-0.0156
3551.00,-0.0155
3550.00,-0.0154
3549.00,-0.0154
3548.00,-0.0153
3547.00,-0.0151
3546.00,-0.0149
3545.00,-0.0147
3544.00,-0.0146
3543.00,-0.0145
3542.00,-0.0144
3541.00,-0.0144
3540.00,-0.0144
3539.00,-0.0143
3538.00,-0.0142
3537.00,-0.0141
3536.00,-0.0140
3535.00,-0.0139
3534.00,-0.0139
3533.00,-0.0139
3532.00,-0.0138
3531.00,-0.0138
3530.00,-0.0137
3529.00,-0.0135
3528.00,-0.0134
3527.00,-0.0133
3526.00,-0.0132
3525.00,-0.0131
3524.00,-0.0130
3523.00,-0.0129
3522.00,-0.0128
3521.00,-0.0127
3520.00,-0.0126
3519.00,-0.0126
3518.00,-0.0125
3517.00,-0.0124
3516.00,-0.0123
3515.00,-0.0122
3514.00,-0.0121
3513.00,-0.0120
3512.00,-0.0120
3511.00,-0.0119
3510.00,-0.0117
3509.00,-0.0116
3508.00,-0.0115
3507.00,-0.0115
3506.00,-0.0114
3505.00,-0.0114
3504.00,-0.0112
3503.00,-0.0111
3502.00,-0.0109
3501.00,-0.0108
3500.00,-0.0107
3499.00,-0.0107
3498.00,-0.0106
3497.00,-0.0105
3496.00,-0.0104
3495.00,-0.0104
3494.00,-0.0103
3493.00,-0.0102
3492.00,-0.0101
3491.00,-0.0101
3490.00,-0.0100
3489.00,-0.0098
3488.00,-0.0097
3487.00,-0.0096
3486.00,-0.0095
3485.00,-0.0095
3484.00,-0.0094
3483.00,-0.0093
3482.00,-0.0091
3481.00,-0.0090
3480.00,-0.0088
3479.00,-0.0088
3478.00,-0.0087
3477.00,-0.0086
3476.00,-0.0086
3475.00,-0.0084
3474.00,-0.0083
3473.00,-0.0082
3472.00,-0.0081
3471.00,-0.0080
3470.00,-0.0080
3469.00,-0.0079
3468.00,-0.0078
3467.00,-0.0077
3466.00,-0.0076
3465.00,-0.0075
3464.00,-0.0074
3463.00,-0.0073
3462.00,-0.0072
3461.00,-0.0072
3460.00,-0.0071
3459.00,-0.0071
3458.00,-0.0070
3457.00,-0.0069
3456.00,-0.0068
3455.00,-0.0067
3454.00,-0.0066
3453.00,-0.0065
3452.00,-0.0065
3451.00,-0.0064
3450.00,-0.0064
3449.00,-0.0063
3448.00,-0.0061
3447.00,-0.0059
3446.00,-0.0058
3445.00,-0.0056
3444.00,-0.0055
3443.00,-0.0054
3442.00,-0.0053
3441.00,-0.0052
3440.00,-0.0051
3439.00,-0.0050
3438.00,-0.0048
3437.00,-0.0047
3436.00,-0.0046
3435.00,-0.0045
3434.00,-0.0044
3433.00,-0.0043
3432.00,-0.0042
3431.00,-0.0041
3430.00,-0.0040
3429.00,-0.0039
3428.00,-0.0038
3427.00,-0.0037
3426.00,-0.0036
3425.00,-0.0035
3424.00,-0.0034
3423.00,-0.0033
3422.00,-0.0032
3421.00,-0.0030
3420.00,-0.0029
3419.00,-0.0027
3418.00,-0.0026
3417.00,-0.0025
3416.00,-0.0023
3415.00,-0.0022
3414.00,-0.0021
3413.00,-0.0021
3412.00,-0.0020
3411.00,-0.0019
3410.00,-0.0018
3409.00,-0.0017
3408.00,-0.0016
3407.00,-0.0014
3406.00,-0.0013
3405.00,-0.0012
3404.00,-0.0011
3403.00,-0.0010
3402.00,-0.0009
3401.00,-0.0008
3400.00,-0.0007
3399.00,-0.0006
3398.00,-0.0004
3397.00,-0.0003
3396.00,-0.0003
3395.00,-0.0002
3394.00,-0.0001
3393.00,0.0000
3392.00,0.0001
3391.00,0.0003
3390.00,0.0004
3389.00,0.0005
3388.00,0.0006
3387.00,0.0007
3386.00,0.0008
3385.00,0.0010
3384.00,0.0011
3383.00,0.0013
3382.00,0.0014
3381.00,0.0015
3380.00,0.0016
3379.00,0.0017
3378.00,0.0018
3377.00,0.0019
3376.00,0.0021
3375.00,0.0022
3374.00,0.0024
3373.00,0.0025
3372.00,0.0025
3371.00,0.0026
3370.00,0.0027
3369.00,0.0028
3368.00,0.0030
3367.00,0.0032
3366.00,0.0034
3365.00,0.0035
3364.00,0.0037
3363.00,0.0038
3362.00,0.0040
3361.00,0.0042
3360.00,0.0043
3359.00,0.0045
3358.00,0.0047
3357.00,0.0048
3356.00,0.0050
3355.00,0.0052
3354.00,0.0053
3353.00,0.0054
3352.00,0.0056
3351.00,0.0058
3350.00,0.0060
3349.00,0.0062
3348.00,0.0064
3347.00,0.0066
3346.00,0.0067
3345.00,0.0069
3344.00,0.0070
3343.00,0.0072
3342.00,0.0074
3341.00,0.0075
3340.00,0.0077
3339.00,0.0079
3338.00,0.0081
3337.00,0.0084
3336.00,0.0087
3335.00,0.0089
3334.00,0.0092
3333.00,0.0094
3332.00,0.0096
3331.00,0.0098
3330.00,0.0100
3329.00,0.0102
3328.00,0.0103
3327.00,0.0106
3326.00,0.0108
3325.00,0.0111
3324.00,0.0114
3323.00,0.0117
3322.00,0.0119
3321.00,0.0122
3320.00,0.0124
3319.00,0.0126
3318.00,0.0129
3317.00,0.0131
3316.00,0.0133
3315.00,0.0136
3314.00,0.0138
3313.00,0.0140
3312.00,0.0143
3311.00,0.0145
3310.00,0.0147
3309.00,0.0149
3308.00,0.0151
3307.00,0.0153
3306.00,0.0156
3305.00,0.0159
3304.00,0.0162
3303.00,0.0166
3302.00,0.0169
3301.00,0.0171
3300.00,0.0173
3299.00,0.0175
3298.00,0.0177
3297.00,0.0178
3296.00,0.0180
3295.00,0.0182
3294.00,0.0184
3293.00,0.0187
3292.00,0.0189
3291.00,0.0192
3290.00,0.0195
3289.00,0.0197
3288.00,0.0199
3287.00,0.0200
3286.00,0.0201
3285.00,0.0202
3284.00,0.0203
3283.00,0.0204
3282.00,0.0204
3281.00,0.0204
3280.00,0.0204
3279.00,0.0204
3278.00,0.0203
3277.00,0.0203
3276.00,0.0202
3275.00,0.0201
3274.00,0.0199
3273.00,0.0198
3272.00,0.0197
3271.00,0.0196
3270.00,0.0196
3269.00,0.0196
3268.00,0.0195
3267.00,0.0194
3266.00,0.0192
3265.00,0.0190
3264.00,0.0188
3263.00,0.0185
3262.00,0.0183
3261.00,0.0181
3260.00,0.0178
3259.00,0.0175
3258.00,0.0172
3257.00,0.0169
3256.00,0.0166
3255.00,0.0164
3254.00,0.0162
3253.00,0.0160
3252.00,0.0158
3251.00,0.0155
3250.00,0.0151
3249.00,0.0148
3248.00,0.0144
3247.00,0.0142
3246.00,0.0140
3245.00,0.0139
3244.00,0.0138
3243.00,0.0137
3242.00,0.0135
3241.00,0.0132
3240.00,0.0130
3239.00,0.0128
3238.00,0.0125
3237.00,0.0122
3236.00,0.0119
3235.00,0.0117
3234.00,0.0115
3233.00,0.0114
3232.00,0.0113
3231.00,0.0112
3230.00,0.0111
3229.00,0.0110
3228.00,0.0109
3227.00,0.0107
3226.00,0.0105
3225.00,0.0104
3224.00,0.0102
3223.00,0.0100
3222.00,0.0099
3221.00,0.0097
3220.00,0.0095
3219.00,0.0094
3218.00,0.0093
3217.00,0.0091
3216.00,0.0089
3215.00,0.0088
3214.00,0.0087
3213.00,0.0086
3212.00,0.0084
3211.00,0.0083
3210.00,0.0082
3209.00,0.0081
3208.00,0.0079
3207.00,0.0078
3206.00,0.0076
3205.00,0.0075
3204.00,0.0073
3203.00,0.0072
3202.00,0.0070
3201.00,0.0069
3200.00,0.0068
3199.00,0.0066
3198.00,0.0065
3197.00,0.0064
3196.00,0.0062
3195.00,0.0061
3194.00,0.0059
3193.00,0.0057
3192.00,0.0056
3191.00,0.0054
3190.00,0.0052
3189.00,0.0050
3188.00,0.0048
3187.00,0.0047
3186.00,0.0045
3185.00,0.0044
3184.00,0.0042
3183.00,0.0041
3182.00,0.0039
3181.00,0.0037
3180.00,0.0035
3179.00,0.0034
3178.00,0.0032
3177.00,0.0031
3176.00,0.0029
3175.00,0.0027
3174.00,0.0025
3173.00,0.0024
3172.00,0.0022
3171.00,0.0020
3170.00,0.0018
3169.00,0.0017
3168.00,0.0015
3167.00,0.0014
3166.00,0.0013
3165.00,0.0012
3164.00,0.0010
3163.00,0.0008
3162.00,0.0007
3161.00,0.0005
3160.00,0.0003
3159.00,0.0002
3158.00,-0.0000
3157.00,-0.0002
3156.00,-0.0004
3155.00,-0.0005
3154.00,-0.0007
3153.00,-0.0008
3152.00,-0.0010
3151.00,-0.0011
3150.00,-0.0012
3149.00,-0.0012
3148.00,-0.0014
3147.00,-0.0015
3146.00,-0.0016
3145.00,-0.0017
3144.00,-0.0019
3143.00,-0.0021
3142.00,-0.0022
3141.00,-0.0024
3140.00,-0.0025
3139.00,-0.0026
3138.00,-0.0027
3137.00,-0.0027
3136.00,-0.0028
3135.00,-0.0029
3134.00,-0.0029
3133.00,-0.0030
3132.00,-0.0032
3131.00,-0.0033
3130.00,-0.0034
3129.00,-0.0034
3128.00,-0.0035
3127.00,-0.0035
3126.00,-0.0036
3125.00,-0.0037
3124.00,-0.0038
3123.00,-0.0039
3122.00,-0.0040
3121.00,-0.0041
3120.00,-0.0042
3119.00,-0.0043
3118.00,-0.0043
3117.00,-0.0043
3116.00,-0.0043
3115.00,-0.0042
3114.00,-0.0042
3113.00,-0.0042
3112.00,-0.0042
3111.00,-0.0042
3110.00,-0.0043
3109.00,-0.0043
3108.00,-0.0042
3107.00,-0.0042
3106.00,-0.0041
3105.00,-0.0041
3104.00,-0.0041
3103.00,-0.0041
3102.00,-0.0041
3101.00,-0.0042
3100.00,-0.0041
3099.00,-0.0041
3098.00,-0.0040
3097.00,-0.0039
3096.00,-0.0039
3095.00,-0.0038
3094.00,-0.0038
3093.00,-0.0039
3092.00,-0.0039
3091.00,-0.0039
3090.00,-0.0039
3089.00,-0.0039
3088.00,-0.0039
3087.00,-0.0039
3086.00,-0.0039
3085.00,-0.0039
3084.00,-0.0039
3083.00,-0.0039
3082.00,-0.0039
3081.00,-0.0039
3080.00,-0.0039
3079.00,-0.0039
3078.00,-0.0038
3077.00,-0.0038
3076.00,-0.0037
3075.00,-0.0037
3074.00,-0.0036
3073.00,-0.0036
3072.00,-0.0037
3071.00,-0.0038
3070.00,-0.0039
3069.00,-0.0040
3068.00,-0.0041
3067.00,-0.0041
3066.00,-0.0041
3065.00,-0.0041
3064.00,-0.0041
3063.00,-0.0041
3062.00,-0.0042
3061.00,-0.0043
3060.00,-0.0044
3059.00,-0.0045
3058.00,-0.0047
3057.00,-0.0048
3056.00,-0.0049
3055.00,-0.0051
3054.00,-0.0052
3053.00,-0.0054
3052.00,-0.0055
3051.00,-0.0057
3050.00,-0.0057
3049.00,-0.0058
3048.00,-0.0059
3047.00,-0.0061
3046.00,-0.0063
3045.00,-0.0065
3044.00,-0.0067
3043.00,-0.0068
3042.00,-0.0069
3041.00,-0.0070
3040.00,-0.0070
3039.00,-0.0071
3038.00,-0.0072
3037.00,-0.0073
3036.00,-0.0075
3035.00,-0.0077
3034.00,-0.0078
3033.00,-0.0079
3032.00,-0.0079
3031.00,-0.0080
3030.00,-0.0080
3029.00,-0.0081
3028.00,-0.0083
3027.00,-0.0084
3026.00,-0.0086
3025.00,-0.0087
3024.00,-0.0089
3023.00,-0.0090
3022.00,-0.0092
3021.00,-0.0094
3020.00,-0.0096
3019.00,-0.0097
3018.00,-0.0099
3017.00,-0.0101
3016.00,-0.0102
3015.00,-0.0104
3014.00,-0.0106
3013.00,-0.0107
3012.00,-0.0107
3011.00,-0.0108
3010.00,-0.0108
3009.00,-0.0108
3008.00,-0.0109
3007.00,-0.0110
3006.00,-0.0111
3005.00,-0.0113
3004.00,-0.0114
3003.00,-0.0115
3002.00,-0.0116
3001.00,-0.0117
3000.00,-0.0118
2999.00,-0.0119
2998.00,-0.0120
2997.00,-0.0120
2996.00,-0.0119
2995.00,-0.0119
2994.00,-0.0118
2993.00,-0.0117
2992.00,-0.0116
2991.00,-0.0115
2990.00,-0.0113
2989.00,-0.0111
2988.00,-0.0109
2987.00,-0.0108
2986.00,-0.0107
2985.00,-0.0107
2984.00,-0.0107
2983.00,-0.0107
2982.00,-0.0105
2981.00,-0.0102
2980.00,-0.0098
2979.00,-0.0093
2978.00,-0.0087
2977.00,-0.0082
2976.00,-0.0078
2975.00,-0.0074
2974.00,-0.0070
2973.00,-0.0066
2972.00,-0.0062
2971.00,-0.0058
2970.00,-0.0053
2969.00,-0.0049
2968.00,-0.0045
2967.00,-0.0041
2966.00,-0.0037
2965.00,-0.0034
2964.00,-0.0032
2963.00,-0.0030
2962.00,-0.0028
2961.00,-0.0027
2960.00,-0.0026
2959.00,-0.0026
2958.00,-0.0027
2957.00,-0.0028
2956.00,-0.0029
2955.00,-0.0032
2954.00,-0.0034
2953.00,-0.0036
2952.00,-0.0037
2951.00,-0.0039
2950.00,-0.0040
2949.00,-0.0040
2948.00,-0.0040
2947.00,-0.0040
2946.00,-0.0038
2945.00,-0.0036
2944.00,-0.0033
2943.00,-0.0030
2942.00,-0.0027
2941.00,-0.0023
2940.00,-0.0019
2939.00,-0.0016
2938.00,-0.0012
2937.00,-0.0008
2936.00,-0.0004
2935.00,-0.0001
2934.00,0.0002
2933.00,0.0004
2932.00,0.0006
2931.00,0.0008
2930.00,0.0010
2929.00,0.0012
2928.00,0.0014
2927.00,0.0015
2926.00,0.0015
2925.00,0.0016
2924.00,0.0015
2923.00,0.0014
2922.00,0.0012
2921.00,0.0010
2920.00,0.0007
2919.00,0.0003
2918.00,-0.0002
2917.00,-0.0008
2916.00,-0.0014
2915.00,-0.0021
2914.00,-0.0027
2913.00,-0.0034
2912.00,-0.0040
2911.00,-0.0045
2910.00,-0.0051
2909.00,-0.0055
2908.00,-0.0059
2907.00,-0.0063
2906.00,-0.0067
2905.00,-0.0070
2904.00,-0.0073
2903.00,-0.0075
2902.00,-0.0078
2901.00,-0.0081
2900.00,-0.0083
2899.00,-0.0086
2898.00,-0.0088
2897.00,-0.0090
2896.00,-0.0092
2895.00,-0.0094
2894.00,-0.0096
2893.00,-0.0098
2892.00,-0.0100
2891.00,-0.0102
2890.00,-0.0103
2889.00,-0.0104
2888.00,-0.0104
2887.00,-0.0105
2886.00,-0.0105
2885.00,-0.0105
2884.00,-0.0104
2883.00,-0.0104
2882.00,-0.0102
2881.00,-0.0101
2880.00,-0.0100
2879.00,-0.0098
2878.00,-0.0097
2877.00,-0.0096
2876.00,-0.0096
2875.00,-0.0095
2874.00,-0.0096
2873.00,-0.0096
2872.00,-0.0097
2871.00,-0.0099
2870.00,-0.0101
2869.00,-0.0103
2868.00,-0.0105
2867.00,-0.0106
2866.00,-0.0108
2865.00,-0.0109
2864.00,-0.0110
2863.00,-0.0110
2862.00,-0.0110
2861.00,-0.0109
2860.00,-0.0109
2859.00,-0.0108
2858.00,-0.0107
2857.00,-0.0106
2856.00,-0.0105
2855.00,-0.0104
2854.00,-0.0103
2853.00,-0.0103
2852.00,-0.0104
2851.00,-0.0107
2850.00,-0.0110
2849.00,-0.0116
2848.00,-0.0121
2847.00,-0.0128
2846.00,-0.0134
2845.00,-0.0139
2844.00,-0.0144
2843.00,-0.0149
2842.00,-0.0153
2841.00,-0.0156
2840.00,-0.0159
2839.00,-0.0162
2838.00,-0.0165
2837.00,-0.0167
2836.00,-0.0168
2835.00,-0.0169
2834.00,-0.0170
2833.00,-0.0171
2832.00,-0.0172
2831.00,-0.0173
2830.00,-0.0174
2829.00,-0.0175
2828.00,-0.0176
2827.00,-0.0177
2826.00,-0.0178
2825.00,-0.0179
2824.00,-0.0180
2823.00,-0.0181
2822.00,-0.0182
2821.00,-0.0182
2820.00,-0.0183
2819.00,-0.0184
2818.00,-0.0184
2817.00,-0.0185
2816.00,-0.0186
2815.00,-0.0186
