Created as New Dataset,Sample 943 By YargerLab Date Monday, July 28 2025
cm-1,A
4000.00,0.0029
3999.00,0.0029
3998.00,0.0029
3997.00,0.0029
3996.00,0.0029
3995.00,0.0029
3994.00,0.0029
3993.00,0.0029
3992.00,0.0029
3991.00,0.0029
3990.00,0.0029
3989.00,0.0029
3988.00,0.0029
3987.00,0.0029
3986.00,0.0029
3985.00,0.0029
3984.00,0.0029
3983.00,0.0029
3982.00,0.0029
3981.00,0.0029
3980.00,0.0029
3979.00,0.0029
3978.00,0.0029
3977.00,0.0029
3976.00,0.0029
3975.00,0.0029
3974.00,0.0029
3973.00,0.0029
3972.00,0.0029
3971.00,0.0029
3970.00,0.0029
3969.00,0.0029
3968.00,0.0029
3967.00,0.0029
3966.00,0.0029
3965.00,0.0029
3964.00,0.0029
3963.00,0.0029
3962.00,0.0029
3961.00,0.0029
3960.00,0.0029
3959.00,0.0029
3958.00,0.0029
3957.00,0.0029
3956.00,0.0029
3955.00,0.0029
3954.00,0.0029
3953.00,0.0029
3952.00,0.0029
3951.00,0.0029
3950.00,0.0029
3949.00,0.0029
3948.00,0.0029
3947.00,0.0029
3946.00,0.0029
3945.00,0.0029
3944.00,0.0029
3943.00,0.0030
3942.00,0.0030
3941.00,0.0030
3940.00,0.0029
3939.00,0.0029
3938.00,0.0029
3937.00,0.0029
3936.00,0.0029
3935.00,0.0029
3934.00,0.0029
3933.00,0.0029
3932.00,0.0029
3931.00,0.0029
3930.00,0.0029
3929.00,0.0029
3928.00,0.0029
3927.00,0.0029
3926.00,0.0029
3925.00,0.0029
3924.00,0.0029
3923.00,0.0029
3922.00,0.0029
3921.00,0.0029
3920.00,0.0029
3919.00,0.0029
3918.00,0.0029
3917.00,0.0029
3916.00,0.0029
3915.00,0.0029
3914.00,0.0029
3913.00,0.0029
3912.00,0.0029
3911.00,0.0029
3910.00,0.0029
3909.00,0.0029
3908.00,0.0029
3907.00,0.0029
3906.00,0.0029
3905.00,0.0029
3904.00,0.0030
3903.00,0.0029
3902.00,0.0029
3901.00,0.0029
3900.00,0.0029
3899.00,0.0029
3898.00,0.0029
3897.00,0.0029
3896.00,0.0029
3895.00,0.0029
3894.00,0.0029
3893.00,0.0029
3892.00,0.0029
3891.00,0.0029
3890.00,0.0029
3889.00,0.0029
3888.00,0.0029
3887.00,0.0029
3886.00,0.0028
3885.00,0.0028
3884.00,0.0028
3883.00,0.0028
3882.00,0.0029
3881.00,0.0029
3880.00,0.0029
3879.00,0.0029
3878.00,0.0029
3877.00,0.0029
3876.00,0.0029
3875.00,0.0029
3874.00,0.0029
3873.00,0.0029
3872.00,0.0029
3871.00,0.0029
3870.00,0.0028
3869.00,0.0028
3868.00,0.0028
3867.00,0.0028
3866.00,0.0028
3865.00,0.0029
3864.00,0.0029
3863.00,0.0029
3862.00,0.0029
3861.00,0.0029
3860.00,0.0029
3859.00,0.0029
3858.00,0.0029
3857.00,0.0029
3856.00,0.0029
3855.00,0.0029
3854.00,0.0028
3853.00,0.0028
3852.00,0.0028
3851.00,0.0028
3850.00,0.0028
3849.00,0.0029
3848.00,0.0029
3847.00,0.0029
3846.00,0.0029
3845.00,0.0029
3844.00,0.0029
3843.00,0.0029
3842.00,0.0028
3841.00,0.0028
3840.00,0.0028
3839.00,0.0029
3838.00,0.0029
3837.00,0.0029
3836.00,0.0029
3835.00,0.0029
3834.00,0.0029
3833.00,0.0029
3832.00,0.0029
3831.00,0.0029
3830.00,0.0029
3829.00,0.0029
3828.00,0.0029
3827.00,0.0029
3826.00,0.0029
3825.00,0.0029
3824.00,0.0029
3823.00,0.0029
3822.00,0.0029
3821.00,0.0029
3820.00,0.0029
3819.00,0.0028
3818.00,0.0028
3817.00,0.0028
3816.00,0.0028
3815.00,0.0028
3814.00,0.0029
3813.00,0.0029
3812.00,0.0029
3811.00,0.0029
3810.00,0.0029
3809.00,0.0029
3808.00,0.0029
3807.00,0.0029
3806.00,0.0029
3805.00,0.0029
3804.00,0.0029
3803.00,0.0028
3802.00,0.0028
3801.00,0.0028
3800.00,0.0028
3799.00,0.0028
3798.00,0.0028
3797.00,0.0028
3796.00,0.0029
3795.00,0.0029
3794.00,0.0029
3793.00,0.0029
3792.00,0.0030
3791.00,0.0030
3790.00,0.0029
3789.00,0.0029
3788.00,0.0029
3787.00,0.0029
3786.00,0.0029
3785.00,0.0029
3784.00,0.0029
3783.00,0.0029
3782.00,0.0029
3781.00,0.0029
3780.00,0.0029
3779.00,0.0029
3778.00,0.0029
3777.00,0.0029
3776.00,0.0029
3775.00,0.0029
3774.00,0.0030
3773.00,0.0030
3772.00,0.0030
3771.00,0.0030
3770.00,0.0030
3769.00,0.0029
3768.00,0.0029
3767.00,0.0029
3766.00,0.0029
3765.00,0.0029
3764.00,0.0030
3763.00,0.0030
3762.00,0.0030
3761.00,0.0030
3760.00,0.0030
3759.00,0.0030
3758.00,0.0030
3757.00,0.0030
3756.00,0.0030
3755.00,0.0030
3754.00,0.0030
3753.00,0.0030
3752.00,0.0029
3751.00,0.0029
3750.00,0.0029
3749.00,0.0029
3748.00,0.0029
3747.00,0.0029
3746.00,0.0029
3745.00,0.0029
3744.00,0.0029
3743.00,0.0029
3742.00,0.0029
3741.00,0.0029
3740.00,0.0029
3739.00,0.0029
3738.00,0.0028
3737.00,0.0028
3736.00,0.0028
3735.00,0.0028
3734.00,0.0028
3733.00,0.0028
3732.00,0.0028
3731.00,0.0028
3730.00,0.0028
3729.00,0.0028
3728.00,0.0028
3727.00,0.0029
3726.00,0.0029
3725.00,0.0029
3724.00,0.0029
3723.00,0.0029
3722.00,0.0029
3721.00,0.0029
3720.00,0.0029
3719.00,0.0029
3718.00,0.0029
3717.00,0.0029
3716.00,0.0029
3715.00,0.0029
3714.00,0.0029
3713.00,0.0029
3712.00,0.0029
3711.00,0.0029
3710.00,0.0029
3709.00,0.0028
3708.00,0.0028
3707.00,0.0028
3706.00,0.0027
3705.00,0.0028
3704.00,0.0028
3703.00,0.0028
3702.00,0.0028
3701.00,0.0028
3700.00,0.0028
3699.00,0.0028
3698.00,0.0028
3697.00,0.0028
3696.00,0.0028
3695.00,0.0028
3694.00,0.0028
3693.00,0.0028
3692.00,0.0028
3691.00,0.0028
3690.00,0.0028
3689.00,0.0028
3688.00,0.0028
3687.00,0.0029
3686.00,0.0029
3685.00,0.0029
3684.00,0.0030
3683.00,0.0030
3682.00,0.0031
3681.00,0.0031
3680.00,0.0031
3679.00,0.0031
3678.00,0.0031
3677.00,0.0031
3676.00,0.0031
3675.00,0.0031
3674.00,0.0031
3673.00,0.0031
3672.00,0.0031
3671.00,0.0031
3670.00,0.0031
3669.00,0.0031
3668.00,0.0031
3667.00,0.0031
3666.00,0.0032
3665.00,0.0032
3664.00,0.0032
3663.00,0.0032
3662.00,0.0032
3661.00,0.0032
3660.00,0.0032
3659.00,0.0032
3658.00,0.0032
3657.00,0.0032
3656.00,0.0033
3655.00,0.0033
3654.00,0.0033
3653.00,0.0034
3652.00,0.0034
3651.00,0.0034
3650.00,0.0034
3649.00,0.0035
3648.00,0.0035
3647.00,0.0035
3646.00,0.0035
3645.00,0.0035
3644.00,0.0035
3643.00,0.0035
3642.00,0.0036
3641.00,0.0036
3640.00,0.0037
3639.00,0.0037
3638.00,0.0037
3637.00,0.0038
3636.00,0.0038
3635.00,0.0038
3634.00,0.0038
3633.00,0.0039
3632.00,0.0039
3631.00,0.0039
3630.00,0.0039
3629.00,0.0040
3628.00,0.0040
3627.00,0.0041
3626.00,0.0041
3625.00,0.0041
3624.00,0.0042
3623.00,0.0042
3622.00,0.0042
3621.00,0.0043
3620.00,0.0043
3619.00,0.0043
3618.00,0.0043
3617.00,0.0044
3616.00,0.0044
3615.00,0.0045
3614.00,0.0046
3613.00,0.0047
3612.00,0.0047
3611.00,0.0047
3610.00,0.0048
3609.00,0.0048
3608.00,0.0049
3607.00,0.0049
3606.00,0.0050
3605.00,0.0051
3604.00,0.0051
3603.00,0.0051
3602.00,0.0052
3601.00,0.0053
3600.00,0.0053
3599.00,0.0054
3598.00,0.0054
3597.00,0.0055
3596.00,0.0055
3595.00,0.0056
3594.00,0.0056
3593.00,0.0057
3592.00,0.0058
3591.00,0.0058
3590.00,0.0059
3589.00,0.0059
3588.00,0.0060
3587.00,0.0061
3586.00,0.0061
3585.00,0.0062
3584.00,0.0063
3583.00,0.0064
3582.00,0.0064
3581.00,0.0065
3580.00,0.0066
3579.00,0.0066
3578.00,0.0067
3577.00,0.0068
3576.00,0.0069
3575.00,0.0070
3574.00,0.0071
3573.00,0.0071
3572.00,0.0072
3571.00,0.0072
3570.00,0.0073
3569.00,0.0073
3568.00,0.0073
3567.00,0.0074
3566.00,0.0075
3565.00,0.0076
3564.00,0.0077
3563.00,0.0078
3562.00,0.0079
3561.00,0.0080
3560.00,0.0080
3559.00,0.0081
3558.00,0.0082
3557.00,0.0083
3556.00,0.0083
3555.00,0.0084
3554.00,0.0085
3553.00,0.0086
3552.00,0.0086
3551.00,0.0087
3550.00,0.0088
3549.00,0.0088
3548.00,0.0089
3547.00,0.0090
3546.00,0.0091
3545.00,0.0091
3544.00,0.0092
3543.00,0.0092
3542.00,0.0093
3541.00,0.0094
3540.00,0.0094
3539.00,0.0095
3538.00,0.0095
3537.00,0.0096
3536.00,0.0097
3535.00,0.0098
3534.00,0.0098
3533.00,0.0098
3532.00,0.0099
3531.00,0.0099
3530.00,0.0100
3529.00,0.0100
3528.00,0.0101
3527.00,0.0101
3526.00,0.0102
3525.00,0.0103
3524.00,0.0103
3523.00,0.0104
3522.00,0.0104
3521.00,0.0105
3520.00,0.0105
3519.00,0.0106
3518.00,0.0106
3517.00,0.0106
3516.00,0.0107
3515.00,0.0107
3514.00,0.0108
3513.00,0.0108
3512.00,0.0108
3511.00,0.0109
3510.00,0.0109
3509.00,0.0110
3508.00,0.0110
3507.00,0.0110
3506.00,0.0110
3505.00,0.0111
3504.00,0.0111
3503.00,0.0112
3502.00,0.0112
3501.00,0.0113
3500.00,0.0113
3499.00,0.0113
3498.00,0.0114
3497.00,0.0114
3496.00,0.0114
3495.00,0.0115
3494.00,0.0116
3493.00,0.0117
3492.00,0.0117
3491.00,0.0118
3490.00,0.0118
3489.00,0.0118
3488.00,0.0119
3487.00,0.0119
3486.00,0.0119
3485.00,0.0120
3484.00,0.0120
3483.00,0.0120
3482.00,0.0121
3481.00,0.0122
3480.00,0.0122
3479.00,0.0123
3478.00,0.0123
3477.00,0.0124
3476.00,0.0124
3475.00,0.0124
3474.00,0.0125
3473.00,0.0125
3472.00,0.0126
3471.00,0.0127
3470.00,0.0128
3469.00,0.0129
3468.00,0.0129
3467.00,0.0130
3466.00,0.0130
3465.00,0.0131
3464.00,0.0131
3463.00,0.0132
3462.00,0.0132
3461.00,0.0133
3460.00,0.0134
3459.00,0.0134
3458.00,0.0134
3457.00,0.0135
3456.00,0.0135
3455.00,0.0136
3454.00,0.0137
3453.00,0.0137
3452.00,0.0138
3451.00,0.0138
3450.00,0.0139
3449.00,0.0140
3448.00,0.0140
3447.00,0.0141
3446.00,0.0142
3445.00,0.0142
3444.00,0.0143
3443.00,0.0143
3442.00,0.0144
3441.00,0.0144
3440.00,0.0145
3439.00,0.0145
3438.00,0.0146
3437.00,0.0147
3436.00,0.0148
3435.00,0.0148
3434.00,0.0149
3433.00,0.0149
3432.00,0.0150
3431.00,0.0151
3430.00,0.0151
3429.00,0.0152
3428.00,0.0153
3427.00,0.0153
3426.00,0.0154
3425.00,0.0155
3424.00,0.0155
3423.00,0.0156
3422.00,0.0157
3421.00,0.0158
3420.00,0.0159
3419.00,0.0159
3418.00,0.0160
3417.00,0.0161
3416.00,0.0162
3415.00,0.0162
3414.00,0.0162
3413.00,0.0163
3412.00,0.0163
3411.00,0.0164
3410.00,0.0164
3409.00,0.0165
3408.00,0.0165
3407.00,0.0166
3406.00,0.0166
3405.00,0.0166
3404.00,0.0166
3403.00,0.0166
3402.00,0.0166
3401.00,0.0166
3400.00,0.0166
3399.00,0.0166
3398.00,0.0166
3397.00,0.0166
3396.00,0.0166
3395.00,0.0166
3394.00,0.0165
3393.00,0.0165
3392.00,0.0165
3391.00,0.0165
3390.00,0.0164
3389.00,0.0164
3388.00,0.0164
3387.00,0.0163
3386.00,0.0163
3385.00,0.0162
3384.00,0.0161
3383.00,0.0161
3382.00,0.0160
3381.00,0.0159
3380.00,0.0158
3379.00,0.0158
3378.00,0.0157
3377.00,0.0156
3376.00,0.0156
3375.00,0.0155
3374.00,0.0155
3373.00,0.0154
3372.00,0.0153
3371.00,0.0152
3370.00,0.0151
3369.00,0.0150
3368.00,0.0149
3367.00,0.0149
3366.00,0.0149
3365.00,0.0149
3364.00,0.0149
3363.00,0.0148
3362.00,0.0148
3361.00,0.0147
3360.00,0.0147
3359.00,0.0146
3358.00,0.0146
3357.00,0.0146
3356.00,0.0145
3355.00,0.0144
3354.00,0.0144
3353.00,0.0143
3352.00,0.0142
3351.00,0.0142
3350.00,0.0142
3349.00,0.0142
3348.00,0.0142
3347.00,0.0142
3346.00,0.0142
3345.00,0.0141
3344.00,0.0140
3343.00,0.0140
3342.00,0.0139
3341.00,0.0139
3340.00,0.0139
3339.00,0.0139
3338.00,0.0139
3337.00,0.0139
3336.00,0.0139
3335.00,0.0140
3334.00,0.0140
3333.00,0.0140
3332.00,0.0140
3331.00,0.0139
3330.00,0.0139
3329.00,0.0138
3328.00,0.0138
3327.00,0.0137
3326.00,0.0137
3325.00,0.0137
3324.00,0.0137
3323.00,0.0138
3322.00,0.0138
3321.00,0.0138
3320.00,0.0138
3319.00,0.0138
3318.00,0.0138
3317.00,0.0138
3316.00,0.0138
3315.00,0.0138
3314.00,0.0138
3313.00,0.0138
3312.00,0.0138
3311.00,0.0137
3310.00,0.0136
3309.00,0.0135
3308.00,0.0134
3307.00,0.0134
3306.00,0.0134
3305.00,0.0135
3304.00,0.0136
3303.00,0.0137
3302.00,0.0138
3301.00,0.0139
3300.00,0.0139
3299.00,0.0139
3298.00,0.0138
3297.00,0.0138
3296.00,0.0137
3295.00,0.0137
3294.00,0.0137
3293.00,0.0137
3292.00,0.0138
3291.00,0.0139
3290.00,0.0140
3289.00,0.0140
3288.00,0.0141
3287.00,0.0141
3286.00,0.0141
3285.00,0.0141
3284.00,0.0141
3283.00,0.0141
3282.00,0.0141
3281.00,0.0141
3280.00,0.0141
3279.00,0.0141
3278.00,0.0141
3277.00,0.0141
3276.00,0.0141
3275.00,0.0141
3274.00,0.0140
3273.00,0.0140
3272.00,0.0139
3271.00,0.0139
3270.00,0.0140
3269.00,0.0140
3268.00,0.0141
3267.00,0.0141
3266.00,0.0141
3265.00,0.0141
3264.00,0.0141
3263.00,0.0141
3262.00,0.0141
3261.00,0.0141
3260.00,0.0141
3259.00,0.0141
3258.00,0.0141
3257.00,0.0141
3256.00,0.0141
3255.00,0.0141
3254.00,0.0141
3253.00,0.0141
3252.00,0.0141
3251.00,0.0141
3250.00,0.0140
3249.00,0.0140
3248.00,0.0140
3247.00,0.0140
3246.00,0.0140
3245.00,0.0140
3244.00,0.0140
3243.00,0.0140
3242.00,0.0140
3241.00,0.0140
3240.00,0.0140
3239.00,0.0140
3238.00,0.0139
3237.00,0.0138
3236.00,0.0138
3235.00,0.0137
3234.00,0.0137
3233.00,0.0136
3232.00,0.0136
3231.00,0.0136
3230.00,0.0136
3229.00,0.0136
3228.00,0.0136
3227.00,0.0136
3226.00,0.0136
3225.00,0.0136
3224.00,0.0136
3223.00,0.0135
3222.00,0.0135
3221.00,0.0135
3220.00,0.0134
3219.00,0.0133
3218.00,0.0133
3217.00,0.0132
3216.00,0.0131
3215.00,0.0131
3214.00,0.0130
3213.00,0.0130
3212.00,0.0130
3211.00,0.0129
3210.00,0.0129
3209.00,0.0128
3208.00,0.0128
3207.00,0.0127
3206.00,0.0126
3205.00,0.0126
3204.00,0.0125
3203.00,0.0124
3202.00,0.0124
3201.00,0.0123
3200.00,0.0123
3199.00,0.0122
3198.00,0.0121
3197.00,0.0120
3196.00,0.0120
3195.00,0.0119
3194.00,0.0118
3193.00,0.0118
3192.00,0.0117
3191.00,0.0117
3190.00,0.0116
3189.00,0.0115
3188.00,0.0115
3187.00,0.0114
3186.00,0.0113
3185.00,0.0113
3184.00,0.0112
3183.00,0.0112
3182.00,0.0111
3181.00,0.0111
3180.00,0.0110
3179.00,0.0109
3178.00,0.0109
3177.00,0.0108
3176.00,0.0107
3175.00,0.0107
3174.00,0.0106
3173.00,0.0105
3172.00,0.0105
3171.00,0.0104
3170.00,0.0103
3169.00,0.0102
3168.00,0.0102
3167.00,0.0101
3166.00,0.0100
3165.00,0.0099
3164.00,0.0099
3163.00,0.0098
3162.00,0.0098
3161.00,0.0097
3160.00,0.0096
3159.00,0.0096
3158.00,0.0095
3157.00,0.0094
3156.00,0.0093
3155.00,0.0092
3154.00,0.0092
3153.00,0.0091
3152.00,0.0091
3151.00,0.0090
3150.00,0.0089
3149.00,0.0089
3148.00,0.0088
3147.00,0.0087
3146.00,0.0087
3145.00,0.0086
3144.00,0.0086
3143.00,0.0086
3142.00,0.0085
3141.00,0.0084
3140.00,0.0083
3139.00,0.0083
3138.00,0.0082
3137.00,0.0082
3136.00,0.0082
3135.00,0.0081
3134.00,0.0081
3133.00,0.0080
3132.00,0.0080
3131.00,0.0079
3130.00,0.0079
3129.00,0.0078
3128.00,0.0078
3127.00,0.0078
3126.00,0.0077
3125.00,0.0077
3124.00,0.0077
3123.00,0.0076
3122.00,0.0076
3121.00,0.0076
3120.00,0.0076
3119.00,0.0075
3118.00,0.0075
3117.00,0.0074
3116.00,0.0074
3115.00,0.0073
3114.00,0.0073
3113.00,0.0073
3112.00,0.0073
3111.00,0.0072
3110.00,0.0072
3109.00,0.0072
3108.00,0.0071
3107.00,0.0071
3106.00,0.0071
3105.00,0.0070
3104.00,0.0070
3103.00,0.0070
3102.00,0.0070
3101.00,0.0070
3100.00,0.0069
3099.00,0.0069
3098.00,0.0069
3097.00,0.0069
3096.00,0.0069
3095.00,0.0068
3094.00,0.0068
3093.00,0.0068
3092.00,0.0068
3091.00,0.0068
3090.00,0.0069
3089.00,0.0069
3088.00,0.0069
3087.00,0.0068
3086.00,0.0068
3085.00,0.0068
3084.00,0.0068
3083.00,0.0068
3082.00,0.0068
3081.00,0.0068
3080.00,0.0068
3079.00,0.0068
3078.00,0.0068
3077.00,0.0068
3076.00,0.0067
3075.00,0.0067
3074.00,0.0067
3073.00,0.0067
3072.00,0.0067
3071.00,0.0067
3070.00,0.0066
3069.00,0.0066
3068.00,0.0066
3067.00,0.0066
3066.00,0.0066
3065.00,0.0066
3064.00,0.0066
3063.00,0.0066
3062.00,0.0066
3061.00,0.0066
3060.00,0.0066
3059.00,0.0066
3058.00,0.0066
3057.00,0.0066
3056.00,0.0066
3055.00,0.0066
3054.00,0.0066
3053.00,0.0066
3052.00,0.0066
3051.00,0.0066
3050.00,0.0066
3049.00,0.0065
3048.00,0.0065
3047.00,0.0065
3046.00,0.0065
3045.00,0.0065
3044.00,0.0065
3043.00,0.0065
3042.00,0.0065
3041.00,0.0065
3040.00,0.0066
3039.00,0.0066
3038.00,0.0066
3037.00,0.0067
3036.00,0.0067
3035.00,0.0068
3034.00,0.0068
3033.00,0.0068
3032.00,0.0068
3031.00,0.0068
3030.00,0.0068
3029.00,0.0067
3028.00,0.0067
3027.00,0.0066
3026.00,0.0066
3025.00,0.0066
3024.00,0.0066
3023.00,0.0066
3022.00,0.0066
3021.00,0.0066
3020.00,0.0066
3019.00,0.0066
3018.00,0.0066
3017.00,0.0066
3016.00,0.0066
3015.00,0.0067
3014.00,0.0067
3013.00,0.0067
3012.00,0.0068
3011.00,0.0069
3010.00,0.0070
3009.00,0.0072
3008.00,0.0073
3007.00,0.0074
3006.00,0.0076
3005.00,0.0078
3004.00,0.0080
3003.00,0.0082
3002.00,0.0084
3001.00,0.0087
3000.00,0.0090
2999.00,0.0093
2998.00,0.0096
2997.00,0.0099
2996.00,0.0103
2995.00,0.0106
2994.00,0.0109
2993.00,0.0112
2992.00,0.0115
2991.00,0.0119
2990.00,0.0122
2989.00,0.0125
2988.00,0.0128
2987.00,0.0131
2986.00,0.0134
2985.00,0.0138
2984.00,0.0142
2983.00,0.0147
2982.00,0.0151
2981.00,0.0156
2980.00,0.0160
2979.00,0.0164
2978.00,0.0166
2977.00,0.0168
2976.00,0.0170
2975.00,0.0173
2974.00,0.0177
2973.00,0.0182
2972.00,0.0187
2971.00,0.0192
2970.00,0.0196
2969.00,0.0199
2968.00,0.0202
2967.00,0.0205
2966.00,0.0207
2965.00,0.0210
2964.00,0.0213
2963.00,0.0217
2962.00,0.0219
2961.00,0.0222
2960.00,0.0223
2959.00,0.0223
2958.00,0.0222
2957.00,0.0220
2956.00,0.0218
2955.00,0.0215
2954.00,0.0213
2953.00,0.0210
2952.00,0.0207
2951.00,0.0205
2950.00,0.0203
2949.00,0.0201
2948.00,0.0201
2947.00,0.0201
2946.00,0.0202
2945.00,0.0203
2944.00,0.0205
2943.00,0.0207
2942.00,0.0209
2941.00,0.0212
2940.00,0.0216
2939.00,0.0220
2938.00,0.0225
2937.00,0.0231
2936.00,0.0238
2935.00,0.0245
2934.00,0.0253
2933.00,0.0260
2932.00,0.0268
2931.00,0.0275
2930.00,0.0281
2929.00,0.0286
2928.00,0.0290
2927.00,0.0292
2926.00,0.0292
2925.00,0.0291
2924.00,0.0288
2923.00,0.0284
2922.00,0.0279
2921.00,0.0274
2920.00,0.0268
2919.00,0.0261
2918.00,0.0255
2917.00,0.0248
2916.00,0.0242
2915.00,0.0236
2914.00,0.0231
2913.00,0.0225
2912.00,0.0220
2911.00,0.0215
2910.00,0.0211
2909.00,0.0207
2908.00,0.0203
2907.00,0.0199
2906.00,0.0195
2905.00,0.0192
2904.00,0.0189
2903.00,0.0186
2902.00,0.0184
2901.00,0.0181
2900.00,0.0180
2899.00,0.0178
2898.00,0.0176
2897.00,0.0175
2896.00,0.0173
2895.00,0.0172
2894.00,0.0171
2893.00,0.0169
2892.00,0.0168
2891.00,0.0167
2890.00,0.0166
2889.00,0.0165
2888.00,0.0164
2887.00,0.0163
2886.00,0.0163
2885.00,0.0162
2884.00,0.0162
2883.00,0.0162
2882.00,0.0162
2881.00,0.0162
2880.00,0.0164
2879.00,0.0165
2878.00,0.0167
2877.00,0.0169
2876.00,0.0171
2875.00,0.0173
2874.00,0.0175
2873.00,0.0176
2872.00,0.0177
2871.00,0.0177
2870.00,0.0176
2869.00,0.0175
2868.00,0.0174
2867.00,0.0173
2866.00,0.0173
2865.00,0.0175
2864.00,0.0177
2863.00,0.0181
2862.00,0.0185
2861.00,0.0190
2860.00,0.0195
2859.00,0.0200
2858.00,0.0203
2857.00,0.0205
2856.00,0.0206
2855.00,0.0205
2854.00,0.0203
2853.00,0.0199
2852.00,0.0195
2851.00,0.0190
2850.00,0.0183
2849.00,0.0175
2848.00,0.0167
2847.00,0.0160
2846.00,0.0152
2845.00,0.0145
2844.00,0.0139
2843.00,0.0133
2842.00,0.0128
2841.00,0.0123
2840.00,0.0118
2839.00,0.0114
2838.00,0.0111
2837.00,0.0108
2836.00,0.0105
2835.00,0.0103
2834.00,0.0100
2833.00,0.0098
2832.00,0.0096
2831.00,0.0094
2830.00,0.0092
2829.00,0.0090
2828.00,0.0088
2827.00,0.0086
2826.00,0.0085
2825.00,0.0083
2824.00,0.0081
2823.00,0.0080
2822.00,0.0078
2821.00,0.0077
2820.00,0.0076
2819.00,0.0075
2818.00,0.0074
2817.00,0.0073
2816.00,0.0072
2815.00,0.0071
2814.00,0.0070
2813.00,0.0070
2812.00,0.0069
2811.00,0.0069
2810.00,0.0068
2809.00,0.0068
2808.00,0.0068
2807.00,0.0067
2806.00,0.0067
2805.00,0.0066
2804.00,0.0065
2803.00,0.0065
2802.00,0.0064
2801.00,0.0064
2800.00,0.0063
2799.00,0.0063
2798.00,0.0063
2797.00,0.0063
2796.00,0.0062
2795.00,0.0062
2794.00,0.0061
2793.00,0.0061
2792.00,0.0060
2791.00,0.0060
2790.00,0.0060
2789.00,0.0059
2788.00,0.0059
2787.00,0.0059
2786.00,0.0058
2785.00,0.0058
2784.00,0.0058
2783.00,0.0058
2782.00,0.0058
2781.00,0.0058
2780.00,0.0057
2779.00,0.0057
2778.00,0.0057
2777.00,0.0056
2776.00,0.0056
2775.00,0.0055
2774.00,0.0055
2773.00,0.0055
2772.00,0.0055
2771.00,0.0055
2770.00,0.0055
2769.00,0.0054
2768.00,0.0054
2767.00,0.0054
2766.00,0.0054
2765.00,0.0054
2764.00,0.0054
2763.00,0.0054
2762.00,0.0054
2761.00,0.0054
2760.00,0.0054
2759.00,0.0054
2758.00,0.0054
2757.00,0.0054
