Created as New Dataset,Sample 949 By YargerLab Date Monday, July 28 2025
cm-1,A
4000.00,0.0040
3999.00,0.0040
3998.00,0.0040
3997.00,0.0040
3996.00,0.0040
3995.00,0.0040
3994.00,0.0040
3993.00,0.0040
3992.00,0.0040
3991.00,0.0040
3990.00,0.0040
3989.00,0.0040
3988.00,0.0040
3987.00,0.0040
3986.00,0.0040
3985.00,0.0040
3984.00,0.0040
3983.00,0.0040
3982.00,0.0040
3981.00,0.0040
3980.00,0.0040
3979.00,0.0040
3978.00,0.0040
3977.00,0.0040
3976.00,0.0040
3975.00,0.0040
3974.00,0.0040
3973.00,0.0040
3972.00,0.0040
3971.00,0.0040
3970.00,0.0040
3969.00,0.0040
3968.00,0.0041
3967.00,0.0041
3966.00,0.0041
3965.00,0.0041
3964.00,0.0041
3963.00,0.0040
3962.00,0.0040
3961.00,0.0040
3960.00,0.0040
3959.00,0.0040
3958.00,0.0040
3957.00,0.0040
3956.00,0.0040
3955.00,0.0040
3954.00,0.0040
3953.00,0.0040
3952.00,0.0040
3951.00,0.0040
3950.00,0.0040
3949.00,0.0040
3948.00,0.0040
3947.00,0.0041
3946.00,0.0041
3945.00,0.0041
3944.00,0.0041
3943.00,0.0041
3942.00,0.0041
3941.00,0.0041
3940.00,0.0041
3939.00,0.0041
3938.00,0.0040
3937.00,0.0040
3936.00,0.0040
3935.00,0.0040
3934.00,0.0040
3933.00,0.0040
3932.00,0.0040
3931.00,0.0040
3930.00,0.0041
3929.00,0.0041
3928.00,0.0041
3927.00,0.0041
3926.00,0.0040
3925.00,0.0040
3924.00,0.0040
3923.00,0.0040
3922.00,0.0040
3921.00,0.0040
3920.00,0.0040
3919.00,0.0041
3918.00,0.0041
3917.00,0.0041
3916.00,0.0041
3915.00,0.0041
3914.00,0.0041
3913.00,0.0041
3912.00,0.0041
3911.00,0.0041
3910.00,0.0040
3909.00,0.0040
3908.00,0.0041
3907.00,0.0041
3906.00,0.0041
3905.00,0.0041
3904.00,0.0041
3903.00,0.0041
3902.00,0.0042
3901.00,0.0042
3900.00,0.0042
3899.00,0.0042
3898.00,0.0042
3897.00,0.0042
3896.00,0.0042
3895.00,0.0041
3894.00,0.0041
3893.00,0.0041
3892.00,0.0041
3891.00,0.0041
3890.00,0.0041
3889.00,0.0041
3888.00,0.0042
3887.00,0.0041
3886.00,0.0041
3885.00,0.0041
3884.00,0.0041
3883.00,0.0041
3882.00,0.0041
3881.00,0.0041
3880.00,0.0041
3879.00,0.0041
3878.00,0.0041
3877.00,0.0041
3876.00,0.0041
3875.00,0.0041
3874.00,0.0041
3873.00,0.0041
3872.00,0.0042
3871.00,0.0042
3870.00,0.0042
3869.00,0.0042
3868.00,0.0042
3867.00,0.0042
3866.00,0.0042
3865.00,0.0042
3864.00,0.0042
3863.00,0.0041
3862.00,0.0041
3861.00,0.0041
3860.00,0.0041
3859.00,0.0041
3858.00,0.0041
3857.00,0.0041
3856.00,0.0042
3855.00,0.0042
3854.00,0.0043
3853.00,0.0043
3852.00,0.0043
3851.00,0.0043
3850.00,0.0043
3849.00,0.0042
3848.00,0.0042
3847.00,0.0041
3846.00,0.0041
3845.00,0.0041
3844.00,0.0041
3843.00,0.0041
3842.00,0.0041
3841.00,0.0042
3840.00,0.0042
3839.00,0.0042
3838.00,0.0043
3837.00,0.0043
3836.00,0.0043
3835.00,0.0043
3834.00,0.0042
3833.00,0.0042
3832.00,0.0042
3831.00,0.0042
3830.00,0.0042
3829.00,0.0042
3828.00,0.0041
3827.00,0.0041
3826.00,0.0041
3825.00,0.0041
3824.00,0.0041
3823.00,0.0041
3822.00,0.0042
3821.00,0.0042
3820.00,0.0042
3819.00,0.0042
3818.00,0.0042
3817.00,0.0042
3816.00,0.0042
3815.00,0.0042
3814.00,0.0042
3813.00,0.0042
3812.00,0.0041
3811.00,0.0041
3810.00,0.0041
3809.00,0.0041
3808.00,0.0041
3807.00,0.0041
3806.00,0.0041
3805.00,0.0042
3804.00,0.0042
3803.00,0.0042
3802.00,0.0042
3801.00,0.0041
3800.00,0.0041
3799.00,0.0041
3798.00,0.0041
3797.00,0.0041
3796.00,0.0041
3795.00,0.0041
3794.00,0.0041
3793.00,0.0041
3792.00,0.0041
3791.00,0.0041
3790.00,0.0041
3789.00,0.0040
3788.00,0.0040
3787.00,0.0040
3786.00,0.0040
3785.00,0.0040
3784.00,0.0041
3783.00,0.0041
3782.00,0.0041
3781.00,0.0041
3780.00,0.0041
3779.00,0.0041
3778.00,0.0041
3777.00,0.0041
3776.00,0.0041
3775.00,0.0041
3774.00,0.0041
3773.00,0.0041
3772.00,0.0041
3771.00,0.0041
3770.00,0.0041
3769.00,0.0041
3768.00,0.0041
3767.00,0.0042
3766.00,0.0042
3765.00,0.0041
3764.00,0.0041
3763.00,0.0041
3762.00,0.0041
3761.00,0.0041
3760.00,0.0042
3759.00,0.0042
3758.00,0.0042
3757.00,0.0042
3756.00,0.0042
3755.00,0.0042
3754.00,0.0042
3753.00,0.0043
3752.00,0.0043
3751.00,0.0043
3750.00,0.0043
3749.00,0.0043
3748.00,0.0043
3747.00,0.0043
3746.00,0.0043
3745.00,0.0043
3744.00,0.0042
3743.00,0.0042
3742.00,0.0042
3741.00,0.0042
3740.00,0.0042
3739.00,0.0041
3738.00,0.0041
3737.00,0.0042
3736.00,0.0042
3735.00,0.0042
3734.00,0.0042
3733.00,0.0042
3732.00,0.0041
3731.00,0.0041
3730.00,0.0041
3729.00,0.0040
3728.00,0.0040
3727.00,0.0040
3726.00,0.0040
3725.00,0.0040
3724.00,0.0040
3723.00,0.0040
3722.00,0.0040
3721.00,0.0040
3720.00,0.0040
3719.00,0.0040
3718.00,0.0040
3717.00,0.0040
3716.00,0.0040
3715.00,0.0040
3714.00,0.0040
3713.00,0.0040
3712.00,0.0041
3711.00,0.0041
3710.00,0.0041
3709.00,0.0041
3708.00,0.0041
3707.00,0.0040
3706.00,0.0040
3705.00,0.0040
3704.00,0.0040
3703.00,0.0040
3702.00,0.0040
3701.00,0.0039
3700.00,0.0039
3699.00,0.0039
3698.00,0.0039
3697.00,0.0039
3696.00,0.0039
3695.00,0.0039
3694.00,0.0039
3693.00,0.0040
3692.00,0.0040
3691.00,0.0041
3690.00,0.0041
3689.00,0.0041
3688.00,0.0041
3687.00,0.0042
3686.00,0.0042
3685.00,0.0042
3684.00,0.0042
3683.00,0.0042
3682.00,0.0042
3681.00,0.0042
3680.00,0.0042
3679.00,0.0042
3678.00,0.0043
3677.00,0.0043
3676.00,0.0044
3675.00,0.0044
3674.00,0.0044
3673.00,0.0044
3672.00,0.0045
3671.00,0.0045
3670.00,0.0044
3669.00,0.0044
3668.00,0.0044
3667.00,0.0044
3666.00,0.0044
3665.00,0.0044
3664.00,0.0044
3663.00,0.0043
3662.00,0.0043
3661.00,0.0044
3660.00,0.0044
3659.00,0.0044
3658.00,0.0044
3657.00,0.0044
3656.00,0.0045
3655.00,0.0045
3654.00,0.0046
3653.00,0.0046
3652.00,0.0047
3651.00,0.0048
3650.00,0.0048
3649.00,0.0048
3648.00,0.0049
3647.00,0.0049
3646.00,0.0049
3645.00,0.0048
3644.00,0.0048
3643.00,0.0048
3642.00,0.0048
3641.00,0.0047
3640.00,0.0048
3639.00,0.0048
3638.00,0.0048
3637.00,0.0049
3636.00,0.0049
3635.00,0.0050
3634.00,0.0051
3633.00,0.0051
3632.00,0.0052
3631.00,0.0052
3630.00,0.0053
3629.00,0.0053
3628.00,0.0053
3627.00,0.0053
3626.00,0.0054
3625.00,0.0054
3624.00,0.0054
3623.00,0.0054
3622.00,0.0054
3621.00,0.0055
3620.00,0.0055
3619.00,0.0055
3618.00,0.0056
3617.00,0.0056
3616.00,0.0057
3615.00,0.0058
3614.00,0.0058
3613.00,0.0059
3612.00,0.0059
3611.00,0.0060
3610.00,0.0061
3609.00,0.0061
3608.00,0.0062
3607.00,0.0062
3606.00,0.0062
3605.00,0.0063
3604.00,0.0063
3603.00,0.0064
3602.00,0.0064
3601.00,0.0065
3600.00,0.0065
3599.00,0.0066
3598.00,0.0066
3597.00,0.0067
3596.00,0.0067
3595.00,0.0068
3594.00,0.0069
3593.00,0.0070
3592.00,0.0070
3591.00,0.0071
3590.00,0.0072
3589.00,0.0072
3588.00,0.0073
3587.00,0.0073
3586.00,0.0074
3585.00,0.0075
3584.00,0.0076
3583.00,0.0077
3582.00,0.0077
3581.00,0.0078
3580.00,0.0078
3579.00,0.0079
3578.00,0.0080
3577.00,0.0081
3576.00,0.0082
3575.00,0.0083
3574.00,0.0084
3573.00,0.0085
3572.00,0.0086
3571.00,0.0086
3570.00,0.0087
3569.00,0.0088
3568.00,0.0089
3567.00,0.0089
3566.00,0.0090
3565.00,0.0091
3564.00,0.0092
3563.00,0.0093
3562.00,0.0094
3561.00,0.0095
3560.00,0.0095
3559.00,0.0096
3558.00,0.0096
3557.00,0.0097
3556.00,0.0098
3555.00,0.0099
3554.00,0.0100
3553.00,0.0100
3552.00,0.0101
3551.00,0.0102
3550.00,0.0103
3549.00,0.0104
3548.00,0.0105
3547.00,0.0106
3546.00,0.0106
3545.00,0.0107
3544.00,0.0107
3543.00,0.0108
3542.00,0.0108
3541.00,0.0109
3540.00,0.0109
3539.00,0.0110
3538.00,0.0111
3537.00,0.0112
3536.00,0.0112
3535.00,0.0113
3534.00,0.0113
3533.00,0.0114
3532.00,0.0115
3531.00,0.0115
3530.00,0.0116
3529.00,0.0116
3528.00,0.0117
3527.00,0.0117
3526.00,0.0118
3525.00,0.0118
3524.00,0.0119
3523.00,0.0119
3522.00,0.0119
3521.00,0.0120
3520.00,0.0120
3519.00,0.0120
3518.00,0.0121
3517.00,0.0121
3516.00,0.0121
3515.00,0.0122
3514.00,0.0122
3513.00,0.0122
3512.00,0.0123
3511.00,0.0123
3510.00,0.0123
3509.00,0.0124
3508.00,0.0124
3507.00,0.0125
3506.00,0.0125
3505.00,0.0126
3504.00,0.0126
3503.00,0.0126
3502.00,0.0126
3501.00,0.0126
3500.00,0.0127
3499.00,0.0127
3498.00,0.0127
3497.00,0.0128
3496.00,0.0128
3495.00,0.0129
3494.00,0.0129
3493.00,0.0129
3492.00,0.0130
3491.00,0.0130
3490.00,0.0130
3489.00,0.0130
3488.00,0.0131
3487.00,0.0131
3486.00,0.0131
3485.00,0.0131
3484.00,0.0132
3483.00,0.0133
3482.00,0.0133
3481.00,0.0134
3480.00,0.0134
3479.00,0.0134
3478.00,0.0134
3477.00,0.0135
3476.00,0.0135
3475.00,0.0135
3474.00,0.0136
3473.00,0.0136
3472.00,0.0137
3471.00,0.0138
3470.00,0.0138
3469.00,0.0139
3468.00,0.0139
3467.00,0.0140
3466.00,0.0140
3465.00,0.0140
3464.00,0.0141
3463.00,0.0141
3462.00,0.0141
3461.00,0.0142
3460.00,0.0142
3459.00,0.0142
3458.00,0.0143
3457.00,0.0143
3456.00,0.0143
3455.00,0.0144
3454.00,0.0144
3453.00,0.0144
3452.00,0.0144
3451.00,0.0145
3450.00,0.0145
3449.00,0.0146
3448.00,0.0146
3447.00,0.0147
3446.00,0.0147
3445.00,0.0147
3444.00,0.0148
3443.00,0.0148
3442.00,0.0148
3441.00,0.0149
3440.00,0.0149
3439.00,0.0149
3438.00,0.0150
3437.00,0.0150
3436.00,0.0150
3435.00,0.0151
3434.00,0.0151
3433.00,0.0151
3432.00,0.0152
3431.00,0.0152
3430.00,0.0153
3429.00,0.0153
3428.00,0.0154
3427.00,0.0154
3426.00,0.0153
3425.00,0.0153
3424.00,0.0154
3423.00,0.0154
3422.00,0.0155
3421.00,0.0156
3420.00,0.0156
3419.00,0.0157
3418.00,0.0157
3417.00,0.0157
3416.00,0.0157
3415.00,0.0157
3414.00,0.0157
3413.00,0.0157
3412.00,0.0158
3411.00,0.0158
3410.00,0.0158
3409.00,0.0158
3408.00,0.0159
3407.00,0.0159
3406.00,0.0159
3405.00,0.0159
3404.00,0.0158
3403.00,0.0158
3402.00,0.0158
3401.00,0.0158
3400.00,0.0158
3399.00,0.0158
3398.00,0.0157
3397.00,0.0157
3396.00,0.0157
3395.00,0.0157
3394.00,0.0157
3393.00,0.0156
3392.00,0.0156
3391.00,0.0155
3390.00,0.0154
3389.00,0.0154
3388.00,0.0153
3387.00,0.0153
3386.00,0.0152
3385.00,0.0152
3384.00,0.0151
3383.00,0.0151
3382.00,0.0150
3381.00,0.0149
3380.00,0.0149
3379.00,0.0148
3378.00,0.0148
3377.00,0.0147
3376.00,0.0147
3375.00,0.0146
3374.00,0.0146
3373.00,0.0145
3372.00,0.0144
3371.00,0.0143
3370.00,0.0142
3369.00,0.0141
3368.00,0.0141
3367.00,0.0140
3366.00,0.0140
3365.00,0.0140
3364.00,0.0140
3363.00,0.0139
3362.00,0.0139
3361.00,0.0138
3360.00,0.0137
3359.00,0.0137
3358.00,0.0137
3357.00,0.0136
3356.00,0.0136
3355.00,0.0136
3354.00,0.0135
3353.00,0.0134
3352.00,0.0133
3351.00,0.0133
3350.00,0.0132
3349.00,0.0133
3348.00,0.0133
3347.00,0.0133
3346.00,0.0132
3345.00,0.0132
3344.00,0.0131
3343.00,0.0130
3342.00,0.0130
3341.00,0.0130
3340.00,0.0129
3339.00,0.0129
3338.00,0.0128
3337.00,0.0128
3336.00,0.0129
3335.00,0.0129
3334.00,0.0129
3333.00,0.0129
3332.00,0.0129
3331.00,0.0128
3330.00,0.0128
3329.00,0.0128
3328.00,0.0127
3327.00,0.0126
3326.00,0.0126
3325.00,0.0126
3324.00,0.0126
3323.00,0.0126
3322.00,0.0126
3321.00,0.0126
3320.00,0.0126
3319.00,0.0126
3318.00,0.0126
3317.00,0.0126
3316.00,0.0126
3315.00,0.0126
3314.00,0.0126
3313.00,0.0125
3312.00,0.0125
3311.00,0.0124
3310.00,0.0123
3309.00,0.0122
3308.00,0.0121
3307.00,0.0121
3306.00,0.0121
3305.00,0.0121
3304.00,0.0122
3303.00,0.0123
3302.00,0.0124
3301.00,0.0124
3300.00,0.0124
3299.00,0.0124
3298.00,0.0123
3297.00,0.0122
3296.00,0.0122
3295.00,0.0121
3294.00,0.0121
3293.00,0.0121
3292.00,0.0122
3291.00,0.0122
3290.00,0.0123
3289.00,0.0123
3288.00,0.0123
3287.00,0.0124
3286.00,0.0124
3285.00,0.0124
3284.00,0.0123
3283.00,0.0123
3282.00,0.0123
3281.00,0.0122
3280.00,0.0122
3279.00,0.0122
3278.00,0.0122
3277.00,0.0121
3276.00,0.0121
3275.00,0.0121
3274.00,0.0121
3273.00,0.0120
3272.00,0.0120
3271.00,0.0120
3270.00,0.0120
3269.00,0.0120
3268.00,0.0120
3267.00,0.0121
3266.00,0.0121
3265.00,0.0120
3264.00,0.0120
3263.00,0.0120
3262.00,0.0120
3261.00,0.0119
3260.00,0.0119
3259.00,0.0119
3258.00,0.0119
3257.00,0.0118
3256.00,0.0118
3255.00,0.0118
3254.00,0.0118
3253.00,0.0118
3252.00,0.0118
3251.00,0.0118
3250.00,0.0118
3249.00,0.0117
3248.00,0.0117
3247.00,0.0117
3246.00,0.0117
3245.00,0.0117
3244.00,0.0117
3243.00,0.0117
3242.00,0.0117
3241.00,0.0117
3240.00,0.0116
3239.00,0.0116
3238.00,0.0115
3237.00,0.0114
3236.00,0.0114
3235.00,0.0113
3234.00,0.0112
3233.00,0.0112
3232.00,0.0112
3231.00,0.0112
3230.00,0.0112
3229.00,0.0112
3228.00,0.0112
3227.00,0.0112
3226.00,0.0112
3225.00,0.0111
3224.00,0.0111
3223.00,0.0111
3222.00,0.0110
3221.00,0.0110
3220.00,0.0110
3219.00,0.0109
3218.00,0.0108
3217.00,0.0108
3216.00,0.0107
3215.00,0.0107
3214.00,0.0107
3213.00,0.0107
3212.00,0.0106
3211.00,0.0106
3210.00,0.0105
3209.00,0.0105
3208.00,0.0104
3207.00,0.0103
3206.00,0.0103
3205.00,0.0102
3204.00,0.0101
3203.00,0.0101
3202.00,0.0100
3201.00,0.0100
3200.00,0.0100
3199.00,0.0099
3198.00,0.0099
3197.00,0.0098
3196.00,0.0097
3195.00,0.0097
3194.00,0.0097
3193.00,0.0097
3192.00,0.0096
3191.00,0.0096
3190.00,0.0096
3189.00,0.0095
3188.00,0.0094
3187.00,0.0094
3186.00,0.0093
3185.00,0.0093
3184.00,0.0093
3183.00,0.0092
3182.00,0.0092
3181.00,0.0091
3180.00,0.0091
3179.00,0.0090
3178.00,0.0090
3177.00,0.0089
3176.00,0.0089
3175.00,0.0088
3174.00,0.0088
3173.00,0.0087
3172.00,0.0087
3171.00,0.0086
3170.00,0.0086
3169.00,0.0085
3168.00,0.0085
3167.00,0.0085
3166.00,0.0084
3165.00,0.0084
3164.00,0.0083
3163.00,0.0083
3162.00,0.0083
3161.00,0.0082
3160.00,0.0082
3159.00,0.0082
3158.00,0.0081
3157.00,0.0080
3156.00,0.0080
3155.00,0.0079
3154.00,0.0079
3153.00,0.0078
3152.00,0.0078
3151.00,0.0077
3150.00,0.0077
3149.00,0.0077
3148.00,0.0076
3147.00,0.0076
3146.00,0.0075
3145.00,0.0075
3144.00,0.0075
3143.00,0.0075
3142.00,0.0074
3141.00,0.0074
3140.00,0.0073
3139.00,0.0073
3138.00,0.0073
3137.00,0.0072
3136.00,0.0072
3135.00,0.0072
3134.00,0.0071
3133.00,0.0071
3132.00,0.0071
3131.00,0.0070
3130.00,0.0070
3129.00,0.0070
3128.00,0.0070
3127.00,0.0070
3126.00,0.0069
3125.00,0.0069
3124.00,0.0069
3123.00,0.0069
3122.00,0.0069
3121.00,0.0069
3120.00,0.0069
3119.00,0.0069
3118.00,0.0068
3117.00,0.0068
3116.00,0.0067
3115.00,0.0067
3114.00,0.0067
3113.00,0.0067
3112.00,0.0067
3111.00,0.0067
3110.00,0.0067
3109.00,0.0066
3108.00,0.0066
3107.00,0.0066
3106.00,0.0065
3105.00,0.0065
3104.00,0.0065
3103.00,0.0065
3102.00,0.0064
3101.00,0.0064
3100.00,0.0064
3099.00,0.0064
3098.00,0.0064
3097.00,0.0063
3096.00,0.0063
3095.00,0.0063
3094.00,0.0063
3093.00,0.0063
3092.00,0.0063
3091.00,0.0063
3090.00,0.0064
3089.00,0.0063
3088.00,0.0063
3087.00,0.0063
3086.00,0.0063
3085.00,0.0063
3084.00,0.0063
3083.00,0.0063
3082.00,0.0063
3081.00,0.0063
3080.00,0.0063
3079.00,0.0063
3078.00,0.0063
3077.00,0.0062
3076.00,0.0062
3075.00,0.0062
3074.00,0.0062
3073.00,0.0062
3072.00,0.0062
3071.00,0.0062
3070.00,0.0061
3069.00,0.0061
3068.00,0.0061
3067.00,0.0061
3066.00,0.0061
3065.00,0.0061
3064.00,0.0061
3063.00,0.0061
3062.00,0.0061
3061.00,0.0061
3060.00,0.0061
3059.00,0.0061
3058.00,0.0061
3057.00,0.0061
3056.00,0.0061
3055.00,0.0061
3054.00,0.0061
3053.00,0.0061
3052.00,0.0061
3051.00,0.0062
3050.00,0.0062
3049.00,0.0061
3048.00,0.0061
3047.00,0.0061
3046.00,0.0061
3045.00,0.0061
3044.00,0.0061
3043.00,0.0061
3042.00,0.0061
3041.00,0.0061
3040.00,0.0061
3039.00,0.0061
3038.00,0.0061
3037.00,0.0062
3036.00,0.0062
3035.00,0.0062
3034.00,0.0063
3033.00,0.0063
3032.00,0.0063
3031.00,0.0063
3030.00,0.0063
3029.00,0.0063
3028.00,0.0062
3027.00,0.0062
3026.00,0.0062
3025.00,0.0062
3024.00,0.0063
3023.00,0.0063
3022.00,0.0063
3021.00,0.0063
3020.00,0.0063
3019.00,0.0063
3018.00,0.0063
3017.00,0.0064
3016.00,0.0064
3015.00,0.0064
3014.00,0.0065
3013.00,0.0066
3012.00,0.0067
3011.00,0.0068
3010.00,0.0069
3009.00,0.0070
3008.00,0.0072
3007.00,0.0073
3006.00,0.0075
3005.00,0.0076
3004.00,0.0078
3003.00,0.0080
3002.00,0.0083
3001.00,0.0085
3000.00,0.0088
2999.00,0.0091
2998.00,0.0094
2997.00,0.0097
2996.00,0.0100
2995.00,0.0103
2994.00,0.0106
2993.00,0.0109
2992.00,0.0112
2991.00,0.0115
2990.00,0.0118
2989.00,0.0121
2988.00,0.0124
2987.00,0.0127
2986.00,0.0130
2985.00,0.0134
2984.00,0.0138
2983.00,0.0142
2982.00,0.0146
2981.00,0.0150
2980.00,0.0153
2979.00,0.0155
2978.00,0.0157
2977.00,0.0159
2976.00,0.0160
2975.00,0.0163
2974.00,0.0166
2973.00,0.0169
2972.00,0.0173
2971.00,0.0177
2970.00,0.0180
2969.00,0.0182
2968.00,0.0184
2967.00,0.0186
2966.00,0.0187
2965.00,0.0189
2964.00,0.0192
2963.00,0.0194
2962.00,0.0196
2961.00,0.0198
2960.00,0.0199
2959.00,0.0200
2958.00,0.0199
2957.00,0.0198
2956.00,0.0197
2955.00,0.0196
2954.00,0.0194
2953.00,0.0193
2952.00,0.0192
2951.00,0.0190
2950.00,0.0189
2949.00,0.0188
2948.00,0.0187
2947.00,0.0186
2946.00,0.0186
2945.00,0.0186
2944.00,0.0187
2943.00,0.0187
2942.00,0.0188
2941.00,0.0189
2940.00,0.0190
2939.00,0.0191
2938.00,0.0193
2937.00,0.0196
2936.00,0.0199
2935.00,0.0203
2934.00,0.0207
2933.00,0.0211
2932.00,0.0215
2931.00,0.0219
2930.00,0.0222
2929.00,0.0225
2928.00,0.0227
2927.00,0.0229
2926.00,0.0229
2925.00,0.0228
2924.00,0.0227
2923.00,0.0225
2922.00,0.0222
2921.00,0.0219
2920.00,0.0215
2919.00,0.0211
2918.00,0.0207
2917.00,0.0204
2916.00,0.0200
2915.00,0.0197
2914.00,0.0194
2913.00,0.0191
2912.00,0.0189
2911.00,0.0186
2910.00,0.0183
2909.00,0.0181
2908.00,0.0178
2907.00,0.0175
2906.00,0.0173
2905.00,0.0171
2904.00,0.0169
2903.00,0.0167
2902.00,0.0166
2901.00,0.0165
2900.00,0.0164
2899.00,0.0163
2898.00,0.0162
2897.00,0.0162
2896.00,0.0161
2895.00,0.0161
2894.00,0.0160
2893.00,0.0160
2892.00,0.0160
2891.00,0.0159
2890.00,0.0159
2889.00,0.0158
2888.00,0.0158
2887.00,0.0157
2886.00,0.0157
2885.00,0.0157
2884.00,0.0157
2883.00,0.0157
2882.00,0.0157
2881.00,0.0158
2880.00,0.0158
2879.00,0.0159
2878.00,0.0160
2877.00,0.0161
2876.00,0.0162
2875.00,0.0163
2874.00,0.0163
2873.00,0.0164
2872.00,0.0164
2871.00,0.0163
2870.00,0.0163
2869.00,0.0162
2868.00,0.0160
2867.00,0.0160
2866.00,0.0159
2865.00,0.0159
2864.00,0.0159
2863.00,0.0161
2862.00,0.0162
2861.00,0.0165
2860.00,0.0167
2859.00,0.0169
2858.00,0.0170
2857.00,0.0170
2856.00,0.0170
2855.00,0.0168
2854.00,0.0166
2853.00,0.0163
2852.00,0.0160
2851.00,0.0156
2850.00,0.0152
2849.00,0.0147
2848.00,0.0142
2847.00,0.0137
2846.00,0.0133
2845.00,0.0129
2844.00,0.0125
2843.00,0.0122
2842.00,0.0118
2841.00,0.0115
2840.00,0.0112
2839.00,0.0109
2838.00,0.0107
2837.00,0.0105
2836.00,0.0103
2835.00,0.0101
2834.00,0.0099
2833.00,0.0098
2832.00,0.0096
2831.00,0.0094
2830.00,0.0093
2829.00,0.0091
2828.00,0.0089
2827.00,0.0088
2826.00,0.0086
2825.00,0.0085
2824.00,0.0083
2823.00,0.0082
2822.00,0.0081
2821.00,0.0080
2820.00,0.0079
2819.00,0.0078
2818.00,0.0077
2817.00,0.0076
2816.00,0.0075
2815.00,0.0074
2814.00,0.0074
2813.00,0.0073
2812.00,0.0073
2811.00,0.0073
2810.00,0.0072
2809.00,0.0072
2808.00,0.0071
2807.00,0.0071
2806.00,0.0070
2805.00,0.0070
2804.00,0.0069
2803.00,0.0069
2802.00,0.0068
2801.00,0.0068
2800.00,0.0068
2799.00,0.0068
2798.00,0.0067
2797.00,0.0067
2796.00,0.0067
2795.00,0.0067
2794.00,0.0066
2793.00,0.0066
2792.00,0.0066
2791.00,0.0066
2790.00,0.0065
2789.00,0.0065
2788.00,0.0065
2787.00,0.0064
2786.00,0.0064
2785.00,0.0064
2784.00,0.0063
2783.00,0.0063
2782.00,0.0063
2781.00,0.0063
2780.00,0.0063
2779.00,0.0063
2778.00,0.0063
2777.00,0.0062
2776.00,0.0062
2775.00,0.0062
2774.00,0.0062
2773.00,0.0062
2772.00,0.0061
2771.00,0.0061
2770.00,0.0061
2769.00,0.0060
2768.00,0.0060
2767.00,0.0060
2766.00,0.0060
2765.00,0.0060
2764.00,0.0060
2763.00,0.0060
2762.00,0.0060
2761.00,0.0060
2760.00,0.0060
2759.00,0.0060
2758.00,0.0060
2757.00,0.0060
