Created as New Dataset,Sample 048 By YargerLab Date Tuesday, August 12 2025
cm-1,A
4000.00,0.0048
3999.00,0.0048
3998.00,0.0048
3997.00,0.0049
3996.00,0.0049
3995.00,0.0049
3994.00,0.0049
3993.00,0.0049
3992.00,0.0049
3991.00,0.0049
3990.00,0.0049
3989.00,0.0049
3988.00,0.0049
3987.00,0.0049
3986.00,0.0049
3985.00,0.0048
3984.00,0.0048
3983.00,0.0048
3982.00,0.0048
3981.00,0.0048
3980.00,0.0049
3979.00,0.0049
3978.00,0.0049
3977.00,0.0048
3976.00,0.0048
3975.00,0.0048
3974.00,0.0048
3973.00,0.0048
3972.00,0.0048
3971.00,0.0048
3970.00,0.0048
3969.00,0.0048
3968.00,0.0048
3967.00,0.0048
3966.00,0.0048
3965.00,0.0048
3964.00,0.0048
3963.00,0.0048
3962.00,0.0048
3961.00,0.0048
3960.00,0.0048
3959.00,0.0048
3958.00,0.0048
3957.00,0.0048
3956.00,0.0048
3955.00,0.0049
3954.00,0.0049
3953.00,0.0048
3952.00,0.0048
3951.00,0.0048
3950.00,0.0048
3949.00,0.0048
3948.00,0.0048
3947.00,0.0048
3946.00,0.0048
3945.00,0.0048
3944.00,0.0048
3943.00,0.0048
3942.00,0.0048
3941.00,0.0048
3940.00,0.0048
3939.00,0.0048
3938.00,0.0048
3937.00,0.0048
3936.00,0.0048
3935.00,0.0048
3934.00,0.0048
3933.00,0.0048
3932.00,0.0048
3931.00,0.0048
3930.00,0.0048
3929.00,0.0048
3928.00,0.0048
3927.00,0.0048
3926.00,0.0048
3925.00,0.0048
3924.00,0.0048
3923.00,0.0048
3922.00,0.0048
3921.00,0.0048
3920.00,0.0048
3919.00,0.0048
3918.00,0.0048
3917.00,0.0048
3916.00,0.0048
3915.00,0.0048
3914.00,0.0048
3913.00,0.0048
3912.00,0.0048
3911.00,0.0048
3910.00,0.0048
3909.00,0.0048
3908.00,0.0048
3907.00,0.0048
3906.00,0.0048
3905.00,0.0048
3904.00,0.0048
3903.00,0.0048
3902.00,0.0048
3901.00,0.0048
3900.00,0.0048
3899.00,0.0048
3898.00,0.0048
3897.00,0.0048
3896.00,0.0048
3895.00,0.0048
3894.00,0.0048
3893.00,0.0048
3892.00,0.0048
3891.00,0.0048
3890.00,0.0048
3889.00,0.0049
3888.00,0.0049
3887.00,0.0049
3886.00,0.0048
3885.00,0.0048
3884.00,0.0048
3883.00,0.0048
3882.00,0.0048
3881.00,0.0047
3880.00,0.0047
3879.00,0.0048
3878.00,0.0048
3877.00,0.0048
3876.00,0.0048
3875.00,0.0048
3874.00,0.0048
3873.00,0.0048
3872.00,0.0048
3871.00,0.0048
3870.00,0.0048
3869.00,0.0048
3868.00,0.0048
3867.00,0.0047
3866.00,0.0047
3865.00,0.0047
3864.00,0.0047
3863.00,0.0047
3862.00,0.0047
3861.00,0.0047
3860.00,0.0047
3859.00,0.0048
3858.00,0.0048
3857.00,0.0048
3856.00,0.0048
3855.00,0.0048
3854.00,0.0048
3853.00,0.0048
3852.00,0.0048
3851.00,0.0048
3850.00,0.0047
3849.00,0.0047
3848.00,0.0047
3847.00,0.0048
3846.00,0.0048
3845.00,0.0048
3844.00,0.0048
3843.00,0.0048
3842.00,0.0048
3841.00,0.0048
3840.00,0.0048
3839.00,0.0048
3838.00,0.0048
3837.00,0.0047
3836.00,0.0047
3835.00,0.0047
3834.00,0.0047
3833.00,0.0047
3832.00,0.0047
3831.00,0.0047
3830.00,0.0047
3829.00,0.0047
3828.00,0.0047
3827.00,0.0047
3826.00,0.0047
3825.00,0.0048
3824.00,0.0048
3823.00,0.0048
3822.00,0.0048
3821.00,0.0048
3820.00,0.0048
3819.00,0.0047
3818.00,0.0047
3817.00,0.0047
3816.00,0.0047
3815.00,0.0047
3814.00,0.0047
3813.00,0.0047
3812.00,0.0047
3811.00,0.0048
3810.00,0.0048
3809.00,0.0048
3808.00,0.0048
3807.00,0.0048
3806.00,0.0048
3805.00,0.0048
3804.00,0.0047
3803.00,0.0047
3802.00,0.0047
3801.00,0.0047
3800.00,0.0047
3799.00,0.0047
3798.00,0.0047
3797.00,0.0047
3796.00,0.0047
3795.00,0.0047
3794.00,0.0047
3793.00,0.0047
3792.00,0.0047
3791.00,0.0047
3790.00,0.0047
3789.00,0.0047
3788.00,0.0047
3787.00,0.0048
3786.00,0.0048
3785.00,0.0048
3784.00,0.0048
3783.00,0.0047
3782.00,0.0047
3781.00,0.0047
3780.00,0.0047
3779.00,0.0047
3778.00,0.0048
3777.00,0.0048
3776.00,0.0048
3775.00,0.0048
3774.00,0.0048
3773.00,0.0048
3772.00,0.0048
3771.00,0.0048
3770.00,0.0048
3769.00,0.0048
3768.00,0.0048
3767.00,0.0048
3766.00,0.0048
3765.00,0.0048
3764.00,0.0048
3763.00,0.0048
3762.00,0.0048
3761.00,0.0048
3760.00,0.0048
3759.00,0.0048
3758.00,0.0048
3757.00,0.0048
3756.00,0.0048
3755.00,0.0048
3754.00,0.0048
3753.00,0.0049
3752.00,0.0049
3751.00,0.0048
3750.00,0.0048
3749.00,0.0047
3748.00,0.0047
3747.00,0.0047
3746.00,0.0047
3745.00,0.0047
3744.00,0.0047
3743.00,0.0047
3742.00,0.0047
3741.00,0.0047
3740.00,0.0047
3739.00,0.0047
3738.00,0.0047
3737.00,0.0047
3736.00,0.0047
3735.00,0.0047
3734.00,0.0047
3733.00,0.0046
3732.00,0.0046
3731.00,0.0045
3730.00,0.0045
3729.00,0.0045
3728.00,0.0045
3727.00,0.0045
3726.00,0.0045
3725.00,0.0045
3724.00,0.0046
3723.00,0.0046
3722.00,0.0046
3721.00,0.0047
3720.00,0.0047
3719.00,0.0047
3718.00,0.0047
3717.00,0.0047
3716.00,0.0047
3715.00,0.0047
3714.00,0.0047
3713.00,0.0047
3712.00,0.0047
3711.00,0.0046
3710.00,0.0046
3709.00,0.0046
3708.00,0.0046
3707.00,0.0046
3706.00,0.0046
3705.00,0.0046
3704.00,0.0046
3703.00,0.0046
3702.00,0.0046
3701.00,0.0046
3700.00,0.0046
3699.00,0.0046
3698.00,0.0046
3697.00,0.0046
3696.00,0.0047
3695.00,0.0047
3694.00,0.0047
3693.00,0.0047
3692.00,0.0048
3691.00,0.0047
3690.00,0.0047
3689.00,0.0047
3688.00,0.0047
3687.00,0.0047
3686.00,0.0047
3685.00,0.0047
3684.00,0.0047
3683.00,0.0048
3682.00,0.0048
3681.00,0.0048
3680.00,0.0049
3679.00,0.0049
3678.00,0.0049
3677.00,0.0049
3676.00,0.0049
3675.00,0.0049
3674.00,0.0049
3673.00,0.0050
3672.00,0.0050
3671.00,0.0049
3670.00,0.0049
3669.00,0.0049
3668.00,0.0049
3667.00,0.0049
3666.00,0.0049
3665.00,0.0050
3664.00,0.0050
3663.00,0.0050
3662.00,0.0051
3661.00,0.0051
3660.00,0.0051
3659.00,0.0051
3658.00,0.0052
3657.00,0.0052
3656.00,0.0052
3655.00,0.0052
3654.00,0.0053
3653.00,0.0053
3652.00,0.0053
3651.00,0.0053
3650.00,0.0053
3649.00,0.0054
3648.00,0.0054
3647.00,0.0054
3646.00,0.0054
3645.00,0.0054
3644.00,0.0054
3643.00,0.0054
3642.00,0.0055
3641.00,0.0055
3640.00,0.0055
3639.00,0.0056
3638.00,0.0056
3637.00,0.0056
3636.00,0.0057
3635.00,0.0057
3634.00,0.0057
3633.00,0.0058
3632.00,0.0058
3631.00,0.0058
3630.00,0.0058
3629.00,0.0058
3628.00,0.0059
3627.00,0.0060
3626.00,0.0060
3625.00,0.0061
3624.00,0.0061
3623.00,0.0062
3622.00,0.0062
3621.00,0.0063
3620.00,0.0063
3619.00,0.0064
3618.00,0.0064
3617.00,0.0065
3616.00,0.0065
3615.00,0.0065
3614.00,0.0066
3613.00,0.0066
3612.00,0.0066
3611.00,0.0066
3610.00,0.0067
3609.00,0.0067
3608.00,0.0068
3607.00,0.0069
3606.00,0.0069
3605.00,0.0070
3604.00,0.0070
3603.00,0.0071
3602.00,0.0072
3601.00,0.0073
3600.00,0.0073
3599.00,0.0074
3598.00,0.0074
3597.00,0.0075
3596.00,0.0075
3595.00,0.0076
3594.00,0.0076
3593.00,0.0077
3592.00,0.0077
3591.00,0.0077
3590.00,0.0078
3589.00,0.0078
3588.00,0.0079
3587.00,0.0080
3586.00,0.0081
3585.00,0.0082
3584.00,0.0082
3583.00,0.0083
3582.00,0.0084
3581.00,0.0084
3580.00,0.0085
3579.00,0.0086
3578.00,0.0086
3577.00,0.0087
3576.00,0.0088
3575.00,0.0089
3574.00,0.0089
3573.00,0.0090
3572.00,0.0090
3571.00,0.0091
3570.00,0.0091
3569.00,0.0092
3568.00,0.0093
3567.00,0.0094
3566.00,0.0095
3565.00,0.0097
3564.00,0.0097
3563.00,0.0098
3562.00,0.0098
3561.00,0.0099
3560.00,0.0100
3559.00,0.0101
3558.00,0.0102
3557.00,0.0103
3556.00,0.0103
3555.00,0.0104
3554.00,0.0105
3553.00,0.0106
3552.00,0.0107
3551.00,0.0107
3550.00,0.0108
3549.00,0.0108
3548.00,0.0109
3547.00,0.0109
3546.00,0.0110
3545.00,0.0111
3544.00,0.0112
3543.00,0.0113
3542.00,0.0114
3541.00,0.0114
3540.00,0.0115
3539.00,0.0116
3538.00,0.0116
3537.00,0.0117
3536.00,0.0118
3535.00,0.0118
3534.00,0.0119
3533.00,0.0120
3532.00,0.0120
3531.00,0.0121
3530.00,0.0122
3529.00,0.0123
3528.00,0.0123
3527.00,0.0124
3526.00,0.0125
3525.00,0.0126
3524.00,0.0126
3523.00,0.0127
3522.00,0.0127
3521.00,0.0128
3520.00,0.0128
3519.00,0.0129
3518.00,0.0130
3517.00,0.0130
3516.00,0.0131
3515.00,0.0131
3514.00,0.0132
3513.00,0.0133
3512.00,0.0133
3511.00,0.0134
3510.00,0.0135
3509.00,0.0136
3508.00,0.0136
3507.00,0.0136
3506.00,0.0137
3505.00,0.0137
3504.00,0.0138
3503.00,0.0138
3502.00,0.0139
3501.00,0.0140
3500.00,0.0141
3499.00,0.0141
3498.00,0.0142
3497.00,0.0143
3496.00,0.0143
3495.00,0.0144
3494.00,0.0145
3493.00,0.0145
3492.00,0.0146
3491.00,0.0146
3490.00,0.0147
3489.00,0.0148
3488.00,0.0149
3487.00,0.0150
3486.00,0.0150
3485.00,0.0151
3484.00,0.0151
3483.00,0.0152
3482.00,0.0153
3481.00,0.0154
3480.00,0.0155
3479.00,0.0155
3478.00,0.0156
3477.00,0.0156
3476.00,0.0157
3475.00,0.0158
3474.00,0.0159
3473.00,0.0160
3472.00,0.0161
3471.00,0.0162
3470.00,0.0163
3469.00,0.0164
3468.00,0.0165
3467.00,0.0165
3466.00,0.0166
3465.00,0.0167
3464.00,0.0168
3463.00,0.0169
3462.00,0.0170
3461.00,0.0171
3460.00,0.0172
3459.00,0.0173
3458.00,0.0174
3457.00,0.0175
3456.00,0.0176
3455.00,0.0177
3454.00,0.0177
3453.00,0.0178
3452.00,0.0179
3451.00,0.0180
3450.00,0.0181
3449.00,0.0183
3448.00,0.0184
3447.00,0.0185
3446.00,0.0187
3445.00,0.0188
3444.00,0.0189
3443.00,0.0190
3442.00,0.0191
3441.00,0.0192
3440.00,0.0193
3439.00,0.0194
3438.00,0.0196
3437.00,0.0197
3436.00,0.0198
3435.00,0.0199
3434.00,0.0200
3433.00,0.0202
3432.00,0.0203
3431.00,0.0204
3430.00,0.0206
3429.00,0.0208
3428.00,0.0209
3427.00,0.0210
3426.00,0.0212
3425.00,0.0213
3424.00,0.0214
3423.00,0.0216
3422.00,0.0217
3421.00,0.0219
3420.00,0.0220
3419.00,0.0222
3418.00,0.0224
3417.00,0.0225
3416.00,0.0227
3415.00,0.0228
3414.00,0.0229
3413.00,0.0231
3412.00,0.0233
3411.00,0.0234
3410.00,0.0236
3409.00,0.0237
3408.00,0.0238
3407.00,0.0238
3406.00,0.0239
3405.00,0.0240
3404.00,0.0241
3403.00,0.0242
3402.00,0.0242
3401.00,0.0243
3400.00,0.0243
3399.00,0.0242
3398.00,0.0242
3397.00,0.0242
3396.00,0.0242
3395.00,0.0242
3394.00,0.0242
3393.00,0.0242
3392.00,0.0241
3391.00,0.0241
3390.00,0.0240
3389.00,0.0239
3388.00,0.0238
3387.00,0.0237
3386.00,0.0236
3385.00,0.0235
3384.00,0.0234
3383.00,0.0233
3382.00,0.0232
3381.00,0.0231
3380.00,0.0230
3379.00,0.0229
3378.00,0.0227
3377.00,0.0226
3376.00,0.0225
3375.00,0.0223
3374.00,0.0222
3373.00,0.0221
3372.00,0.0220
3371.00,0.0219
3370.00,0.0217
3369.00,0.0216
3368.00,0.0216
3367.00,0.0215
3366.00,0.0214
3365.00,0.0213
3364.00,0.0212
3363.00,0.0211
3362.00,0.0210
3361.00,0.0209
3360.00,0.0208
3359.00,0.0207
3358.00,0.0206
3357.00,0.0205
3356.00,0.0205
3355.00,0.0204
3354.00,0.0203
3353.00,0.0202
3352.00,0.0201
3351.00,0.0200
3350.00,0.0200
3349.00,0.0200
3348.00,0.0199
3347.00,0.0199
3346.00,0.0198
3345.00,0.0197
3344.00,0.0196
3343.00,0.0196
3342.00,0.0195
3341.00,0.0195
3340.00,0.0194
3339.00,0.0194
3338.00,0.0194
3337.00,0.0193
3336.00,0.0193
3335.00,0.0193
3334.00,0.0193
3333.00,0.0193
3332.00,0.0193
3331.00,0.0193
3330.00,0.0193
3329.00,0.0193
3328.00,0.0192
3327.00,0.0192
3326.00,0.0192
3325.00,0.0192
3324.00,0.0192
3323.00,0.0192
3322.00,0.0192
3321.00,0.0192
3320.00,0.0193
3319.00,0.0193
3318.00,0.0193
3317.00,0.0193
3316.00,0.0193
3315.00,0.0193
3314.00,0.0193
3313.00,0.0193
3312.00,0.0193
3311.00,0.0193
3310.00,0.0193
3309.00,0.0192
3308.00,0.0193
3307.00,0.0193
3306.00,0.0193
3305.00,0.0194
3304.00,0.0195
3303.00,0.0195
3302.00,0.0196
3301.00,0.0197
3300.00,0.0197
3299.00,0.0197
3298.00,0.0198
3297.00,0.0198
3296.00,0.0198
3295.00,0.0198
3294.00,0.0198
3293.00,0.0199
3292.00,0.0200
3291.00,0.0201
3290.00,0.0202
3289.00,0.0203
3288.00,0.0203
3287.00,0.0204
3286.00,0.0204
3285.00,0.0204
3284.00,0.0205
3283.00,0.0205
3282.00,0.0205
3281.00,0.0206
3280.00,0.0206
3279.00,0.0207
3278.00,0.0207
3277.00,0.0207
3276.00,0.0207
3275.00,0.0207
3274.00,0.0207
3273.00,0.0208
3272.00,0.0208
3271.00,0.0209
3270.00,0.0209
3269.00,0.0210
3268.00,0.0211
3267.00,0.0212
3266.00,0.0212
3265.00,0.0212
3264.00,0.0213
3263.00,0.0213
3262.00,0.0214
3261.00,0.0214
3260.00,0.0214
3259.00,0.0214
3258.00,0.0214
3257.00,0.0215
3256.00,0.0215
3255.00,0.0215
3254.00,0.0216
3253.00,0.0216
3252.00,0.0217
3251.00,0.0217
3250.00,0.0217
3249.00,0.0217
3248.00,0.0217
3247.00,0.0217
3246.00,0.0217
3245.00,0.0218
3244.00,0.0218
3243.00,0.0219
3242.00,0.0219
3241.00,0.0219
3240.00,0.0219
3239.00,0.0218
3238.00,0.0218
3237.00,0.0217
3236.00,0.0217
3235.00,0.0216
3234.00,0.0216
3233.00,0.0216
3232.00,0.0216
3231.00,0.0216
3230.00,0.0216
3229.00,0.0216
3228.00,0.0216
3227.00,0.0215
3226.00,0.0215
3225.00,0.0215
3224.00,0.0214
3223.00,0.0214
3222.00,0.0213
3221.00,0.0212
3220.00,0.0212
3219.00,0.0211
3218.00,0.0211
3217.00,0.0210
3216.00,0.0209
3215.00,0.0208
3214.00,0.0208
3213.00,0.0207
3212.00,0.0206
3211.00,0.0205
3210.00,0.0204
3209.00,0.0204
3208.00,0.0203
3207.00,0.0202
3206.00,0.0200
3205.00,0.0199
3204.00,0.0198
3203.00,0.0197
3202.00,0.0196
3201.00,0.0196
3200.00,0.0195
3199.00,0.0193
3198.00,0.0192
3197.00,0.0191
3196.00,0.0190
3195.00,0.0188
3194.00,0.0187
3193.00,0.0186
3192.00,0.0185
3191.00,0.0184
3190.00,0.0183
3189.00,0.0182
3188.00,0.0181
3187.00,0.0179
3186.00,0.0178
3185.00,0.0176
3184.00,0.0175
3183.00,0.0174
3182.00,0.0173
3181.00,0.0172
3180.00,0.0171
3179.00,0.0170
3178.00,0.0169
3177.00,0.0168
3176.00,0.0167
3175.00,0.0166
3174.00,0.0164
3173.00,0.0163
3172.00,0.0161
3171.00,0.0160
3170.00,0.0159
3169.00,0.0158
3168.00,0.0157
3167.00,0.0156
3166.00,0.0155
3165.00,0.0154
3164.00,0.0152
3163.00,0.0151
3162.00,0.0150
3161.00,0.0149
3160.00,0.0148
3159.00,0.0147
3158.00,0.0146
3157.00,0.0144
3156.00,0.0143
3155.00,0.0142
3154.00,0.0141
3153.00,0.0139
3152.00,0.0138
3151.00,0.0137
3150.00,0.0136
3149.00,0.0136
3148.00,0.0135
3147.00,0.0134
3146.00,0.0133
3145.00,0.0132
3144.00,0.0131
3143.00,0.0130
3142.00,0.0129
3141.00,0.0128
3140.00,0.0128
3139.00,0.0127
3138.00,0.0126
3137.00,0.0125
3136.00,0.0124
3135.00,0.0123
3134.00,0.0122
3133.00,0.0122
3132.00,0.0121
3131.00,0.0121
3130.00,0.0120
3129.00,0.0119
3128.00,0.0119
3127.00,0.0118
3126.00,0.0118
3125.00,0.0117
3124.00,0.0117
3123.00,0.0116
3122.00,0.0115
3121.00,0.0114
3120.00,0.0114
3119.00,0.0113
3118.00,0.0112
3117.00,0.0112
3116.00,0.0111
3115.00,0.0111
3114.00,0.0110
3113.00,0.0110
3112.00,0.0109
3111.00,0.0109
3110.00,0.0108
3109.00,0.0107
3108.00,0.0107
3107.00,0.0106
3106.00,0.0105
3105.00,0.0104
3104.00,0.0103
3103.00,0.0102
3102.00,0.0102
3101.00,0.0102
3100.00,0.0101
3099.00,0.0101
3098.00,0.0101
3097.00,0.0100
3096.00,0.0100
3095.00,0.0100
3094.00,0.0100
3093.00,0.0100
3092.00,0.0100
3091.00,0.0100
3090.00,0.0100
3089.00,0.0100
3088.00,0.0100
3087.00,0.0100
3086.00,0.0100
3085.00,0.0100
3084.00,0.0099
3083.00,0.0099
3082.00,0.0099
3081.00,0.0099
3080.00,0.0098
3079.00,0.0098
3078.00,0.0098
3077.00,0.0097
3076.00,0.0097
3075.00,0.0096
3074.00,0.0096
3073.00,0.0096
3072.00,0.0095
3071.00,0.0095
3070.00,0.0095
3069.00,0.0095
3068.00,0.0095
3067.00,0.0094
3066.00,0.0094
3065.00,0.0094
3064.00,0.0094
3063.00,0.0094
3062.00,0.0094
3061.00,0.0094
3060.00,0.0094
3059.00,0.0094
3058.00,0.0094
3057.00,0.0094
3056.00,0.0094
3055.00,0.0094
3054.00,0.0094
3053.00,0.0094
3052.00,0.0093
3051.00,0.0093
3050.00,0.0092
3049.00,0.0092
3048.00,0.0092
3047.00,0.0092
3046.00,0.0092
3045.00,0.0091
3044.00,0.0091
3043.00,0.0092
3042.00,0.0092
3041.00,0.0092
3040.00,0.0093
3039.00,0.0093
3038.00,0.0094
3037.00,0.0095
3036.00,0.0095
3035.00,0.0095
3034.00,0.0096
3033.00,0.0096
3032.00,0.0096
3031.00,0.0095
3030.00,0.0095
3029.00,0.0094
3028.00,0.0094
3027.00,0.0093
3026.00,0.0092
3025.00,0.0092
3024.00,0.0091
3023.00,0.0090
3022.00,0.0090
3021.00,0.0089
3020.00,0.0089
3019.00,0.0089
3018.00,0.0089
3017.00,0.0089
3016.00,0.0089
3015.00,0.0090
3014.00,0.0090
3013.00,0.0090
3012.00,0.0091
3011.00,0.0091
3010.00,0.0092
3009.00,0.0093
3008.00,0.0095
3007.00,0.0096
3006.00,0.0098
3005.00,0.0100
3004.00,0.0102
3003.00,0.0104
3002.00,0.0107
3001.00,0.0109
3000.00,0.0112
2999.00,0.0116
2998.00,0.0120
2997.00,0.0124
2996.00,0.0128
2995.00,0.0131
2994.00,0.0135
2993.00,0.0138
2992.00,0.0140
2991.00,0.0143
2990.00,0.0145
2989.00,0.0148
2988.00,0.0150
2987.00,0.0153
2986.00,0.0157
2985.00,0.0161
2984.00,0.0166
2983.00,0.0171
2982.00,0.0177
2981.00,0.0183
2980.00,0.0189
2979.00,0.0193
2978.00,0.0196
2977.00,0.0198
2976.00,0.0200
2975.00,0.0205
2974.00,0.0211
2973.00,0.0218
2972.00,0.0226
2971.00,0.0234
2970.00,0.0240
2969.00,0.0245
2968.00,0.0248
2967.00,0.0252
2966.00,0.0255
2965.00,0.0260
2964.00,0.0265
2963.00,0.0271
2962.00,0.0275
2961.00,0.0278
2960.00,0.0279
2959.00,0.0278
2958.00,0.0275
2957.00,0.0270
2956.00,0.0264
2955.00,0.0258
2954.00,0.0252
2953.00,0.0247
2952.00,0.0242
2951.00,0.0239
2950.00,0.0236
2949.00,0.0235
2948.00,0.0235
2947.00,0.0236
2946.00,0.0238
2945.00,0.0241
2944.00,0.0244
2943.00,0.0249
2942.00,0.0253
2941.00,0.0259
2940.00,0.0265
2939.00,0.0273
2938.00,0.0282
2937.00,0.0293
2936.00,0.0305
2935.00,0.0319
2934.00,0.0333
2933.00,0.0347
2932.00,0.0361
2931.00,0.0375
2930.00,0.0387
2929.00,0.0397
2928.00,0.0403
2927.00,0.0406
2926.00,0.0406
2925.00,0.0402
2924.00,0.0396
2923.00,0.0389
2922.00,0.0380
2921.00,0.0370
2920.00,0.0360
2919.00,0.0349
2918.00,0.0339
2917.00,0.0328
2916.00,0.0318
2915.00,0.0308
2914.00,0.0299
2913.00,0.0291
2912.00,0.0283
2911.00,0.0276
2910.00,0.0269
2909.00,0.0263
2908.00,0.0257
2907.00,0.0252
2906.00,0.0247
2905.00,0.0242
2904.00,0.0238
2903.00,0.0234
2902.00,0.0230
2901.00,0.0226
2900.00,0.0223
2899.00,0.0220
2898.00,0.0217
2897.00,0.0214
2896.00,0.0212
2895.00,0.0210
2894.00,0.0207
2893.00,0.0206
2892.00,0.0204
2891.00,0.0202
2890.00,0.0200
2889.00,0.0198
2888.00,0.0196
2887.00,0.0195
2886.00,0.0193
2885.00,0.0192
2884.00,0.0192
2883.00,0.0191
2882.00,0.0192
2881.00,0.0193
2880.00,0.0195
2879.00,0.0198
2878.00,0.0201
2877.00,0.0206
2876.00,0.0210
2875.00,0.0214
2874.00,0.0217
2873.00,0.0219
2872.00,0.0220
2871.00,0.0219
2870.00,0.0218
2869.00,0.0217
2868.00,0.0216
2867.00,0.0216
2866.00,0.0218
2865.00,0.0221
2864.00,0.0227
2863.00,0.0234
2862.00,0.0243
2861.00,0.0253
2860.00,0.0264
2859.00,0.0273
2858.00,0.0281
2857.00,0.0285
2856.00,0.0287
2855.00,0.0287
2854.00,0.0285
2853.00,0.0281
2852.00,0.0275
2851.00,0.0267
2850.00,0.0256
2849.00,0.0244
2848.00,0.0231
2847.00,0.0218
2846.00,0.0206
2845.00,0.0194
2844.00,0.0184
2843.00,0.0175
2842.00,0.0167
2841.00,0.0159
2840.00,0.0153
2839.00,0.0148
2838.00,0.0144
2837.00,0.0140
2836.00,0.0136
2835.00,0.0133
2834.00,0.0130
2833.00,0.0127
2832.00,0.0125
2831.00,0.0122
2830.00,0.0120
2829.00,0.0118
2828.00,0.0116
2827.00,0.0114
2826.00,0.0112
2825.00,0.0110
2824.00,0.0108
2823.00,0.0107
2822.00,0.0105
2821.00,0.0104
2820.00,0.0103
2819.00,0.0102
2818.00,0.0100
2817.00,0.0099
2816.00,0.0098
2815.00,0.0097
2814.00,0.0096
2813.00,0.0096
2812.00,0.0095
2811.00,0.0094
2810.00,0.0093
2809.00,0.0093
2808.00,0.0092
2807.00,0.0092
2806.00,0.0092
2805.00,0.0091
2804.00,0.0091
2803.00,0.0090
2802.00,0.0090
2801.00,0.0089
2800.00,0.0089
2799.00,0.0088
2798.00,0.0088
2797.00,0.0087
2796.00,0.0086
2795.00,0.0086
2794.00,0.0085
2793.00,0.0085
2792.00,0.0085
2791.00,0.0084
2790.00,0.0084
2789.00,0.0083
2788.00,0.0083
2787.00,0.0083
2786.00,0.0083
2785.00,0.0082
2784.00,0.0082
2783.00,0.0082
2782.00,0.0081
2781.00,0.0081
2780.00,0.0081
2779.00,0.0080
2778.00,0.0080
2777.00,0.0080
2776.00,0.0079
2775.00,0.0079
2774.00,0.0079
2773.00,0.0078
2772.00,0.0078
2771.00,0.0078
2770.00,0.0078
2769.00,0.0078
2768.00,0.0078
2767.00,0.0077
2766.00,0.0077
2765.00,0.0077
2764.00,0.0077
2763.00,0.0077
2762.00,0.0077
2761.00,0.0077
2760.00,0.0077
2759.00,0.0077
2758.00,0.0077
2757.00,0.0077
