Created as New Dataset,Sample 719 By YargerLab Date Tuesday, June 24 2025
cm-1,A
4000.00,0.0079
3999.00,0.0079
3998.00,0.0079
3997.00,0.0079
3996.00,0.0079
3995.00,0.0079
3994.00,0.0079
3993.00,0.0079
3992.00,0.0079
3991.00,0.0079
3990.00,0.0079
3989.00,0.0079
3988.00,0.0079
3987.00,0.0079
3986.00,0.0079
3985.00,0.0079
3984.00,0.0079
3983.00,0.0079
3982.00,0.0078
3981.00,0.0078
3980.00,0.0078
3979.00,0.0078
3978.00,0.0078
3977.00,0.0079
3976.00,0.0079
3975.00,0.0079
3974.00,0.0079
3973.00,0.0079
3972.00,0.0079
3971.00,0.0079
3970.00,0.0079
3969.00,0.0079
3968.00,0.0079
3967.00,0.0079
3966.00,0.0079
3965.00,0.0079
3964.00,0.0079
3963.00,0.0080
3962.00,0.0080
3961.00,0.0080
3960.00,0.0080
3959.00,0.0080
3958.00,0.0080
3957.00,0.0080
3956.00,0.0080
3955.00,0.0080
3954.00,0.0080
3953.00,0.0080
3952.00,0.0080
3951.00,0.0080
3950.00,0.0080
3949.00,0.0080
3948.00,0.0080
3947.00,0.0080
3946.00,0.0079
3945.00,0.0079
3944.00,0.0079
3943.00,0.0079
3942.00,0.0079
3941.00,0.0079
3940.00,0.0079
3939.00,0.0079
3938.00,0.0079
3937.00,0.0079
3936.00,0.0079
3935.00,0.0079
3934.00,0.0079
3933.00,0.0079
3932.00,0.0079
3931.00,0.0079
3930.00,0.0079
3929.00,0.0079
3928.00,0.0079
3927.00,0.0079
3926.00,0.0079
3925.00,0.0079
3924.00,0.0079
3923.00,0.0079
3922.00,0.0079
3921.00,0.0080
3920.00,0.0080
3919.00,0.0079
3918.00,0.0079
3917.00,0.0079
3916.00,0.0079
3915.00,0.0078
3914.00,0.0078
3913.00,0.0078
3912.00,0.0078
3911.00,0.0077
3910.00,0.0077
3909.00,0.0077
3908.00,0.0078
3907.00,0.0078
3906.00,0.0078
3905.00,0.0078
3904.00,0.0078
3903.00,0.0078
3902.00,0.0078
3901.00,0.0078
3900.00,0.0078
3899.00,0.0078
3898.00,0.0078
3897.00,0.0078
3896.00,0.0078
3895.00,0.0078
3894.00,0.0078
3893.00,0.0078
3892.00,0.0077
3891.00,0.0077
3890.00,0.0077
3889.00,0.0077
3888.00,0.0077
3887.00,0.0077
3886.00,0.0076
3885.00,0.0076
3884.00,0.0076
3883.00,0.0076
3882.00,0.0076
3881.00,0.0076
3880.00,0.0076
3879.00,0.0076
3878.00,0.0076
3877.00,0.0076
3876.00,0.0075
3875.00,0.0075
3874.00,0.0075
3873.00,0.0076
3872.00,0.0076
3871.00,0.0076
3870.00,0.0076
3869.00,0.0076
3868.00,0.0076
3867.00,0.0076
3866.00,0.0076
3865.00,0.0076
3864.00,0.0076
3863.00,0.0076
3862.00,0.0076
3861.00,0.0076
3860.00,0.0076
3859.00,0.0076
3858.00,0.0076
3857.00,0.0076
3856.00,0.0076
3855.00,0.0076
3854.00,0.0076
3853.00,0.0076
3852.00,0.0076
3851.00,0.0076
3850.00,0.0076
3849.00,0.0075
3848.00,0.0075
3847.00,0.0075
3846.00,0.0075
3845.00,0.0075
3844.00,0.0075
3843.00,0.0075
3842.00,0.0075
3841.00,0.0075
3840.00,0.0075
3839.00,0.0075
3838.00,0.0075
3837.00,0.0075
3836.00,0.0075
3835.00,0.0075
3834.00,0.0075
3833.00,0.0075
3832.00,0.0075
3831.00,0.0075
3830.00,0.0075
3829.00,0.0075
3828.00,0.0075
3827.00,0.0075
3826.00,0.0074
3825.00,0.0074
3824.00,0.0074
3823.00,0.0074
3822.00,0.0074
3821.00,0.0074
3820.00,0.0074
3819.00,0.0075
3818.00,0.0075
3817.00,0.0074
3816.00,0.0074
3815.00,0.0074
3814.00,0.0074
3813.00,0.0074
3812.00,0.0074
3811.00,0.0074
3810.00,0.0075
3809.00,0.0075
3808.00,0.0075
3807.00,0.0075
3806.00,0.0075
3805.00,0.0075
3804.00,0.0075
3803.00,0.0075
3802.00,0.0074
3801.00,0.0074
3800.00,0.0073
3799.00,0.0074
3798.00,0.0074
3797.00,0.0074
3796.00,0.0074
3795.00,0.0074
3794.00,0.0074
3793.00,0.0074
3792.00,0.0074
3791.00,0.0073
3790.00,0.0073
3789.00,0.0073
3788.00,0.0074
3787.00,0.0074
3786.00,0.0074
3785.00,0.0074
3784.00,0.0074
3783.00,0.0074
3782.00,0.0074
3781.00,0.0074
3780.00,0.0074
3779.00,0.0074
3778.00,0.0074
3777.00,0.0074
3776.00,0.0074
3775.00,0.0074
3774.00,0.0074
3773.00,0.0074
3772.00,0.0074
3771.00,0.0075
3770.00,0.0075
3769.00,0.0075
3768.00,0.0074
3767.00,0.0074
3766.00,0.0074
3765.00,0.0074
3764.00,0.0074
3763.00,0.0074
3762.00,0.0074
3761.00,0.0074
3760.00,0.0074
3759.00,0.0074
3758.00,0.0074
3757.00,0.0074
3756.00,0.0074
3755.00,0.0074
3754.00,0.0074
3753.00,0.0074
3752.00,0.0074
3751.00,0.0074
3750.00,0.0074
3749.00,0.0074
3748.00,0.0074
3747.00,0.0074
3746.00,0.0074
3745.00,0.0074
3744.00,0.0073
3743.00,0.0073
3742.00,0.0073
3741.00,0.0073
3740.00,0.0072
3739.00,0.0072
3738.00,0.0072
3737.00,0.0072
3736.00,0.0072
3735.00,0.0072
3734.00,0.0073
3733.00,0.0072
3732.00,0.0072
3731.00,0.0072
3730.00,0.0072
3729.00,0.0072
3728.00,0.0072
3727.00,0.0072
3726.00,0.0072
3725.00,0.0072
3724.00,0.0072
3723.00,0.0072
3722.00,0.0072
3721.00,0.0072
3720.00,0.0072
3719.00,0.0072
3718.00,0.0072
3717.00,0.0072
3716.00,0.0072
3715.00,0.0072
3714.00,0.0072
3713.00,0.0072
3712.00,0.0071
3711.00,0.0071
3710.00,0.0071
3709.00,0.0071
3708.00,0.0071
3707.00,0.0071
3706.00,0.0071
3705.00,0.0071
3704.00,0.0071
3703.00,0.0071
3702.00,0.0071
3701.00,0.0071
3700.00,0.0071
3699.00,0.0071
3698.00,0.0071
3697.00,0.0071
3696.00,0.0071
3695.00,0.0071
3694.00,0.0071
3693.00,0.0071
3692.00,0.0071
3691.00,0.0071
3690.00,0.0071
3689.00,0.0071
3688.00,0.0070
3687.00,0.0070
3686.00,0.0070
3685.00,0.0071
3684.00,0.0071
3683.00,0.0071
3682.00,0.0071
3681.00,0.0071
3680.00,0.0071
3679.00,0.0071
3678.00,0.0071
3677.00,0.0071
3676.00,0.0071
3675.00,0.0072
3674.00,0.0072
3673.00,0.0072
3672.00,0.0072
3671.00,0.0071
3670.00,0.0071
3669.00,0.0071
3668.00,0.0072
3667.00,0.0072
3666.00,0.0072
3665.00,0.0072
3664.00,0.0072
3663.00,0.0072
3662.00,0.0072
3661.00,0.0072
3660.00,0.0073
3659.00,0.0073
3658.00,0.0073
3657.00,0.0073
3656.00,0.0073
3655.00,0.0073
3654.00,0.0074
3653.00,0.0074
3652.00,0.0074
3651.00,0.0074
3650.00,0.0074
3649.00,0.0074
3648.00,0.0073
3647.00,0.0073
3646.00,0.0073
3645.00,0.0073
3644.00,0.0073
3643.00,0.0074
3642.00,0.0074
3641.00,0.0074
3640.00,0.0074
3639.00,0.0074
3638.00,0.0074
3637.00,0.0074
3636.00,0.0074
3635.00,0.0074
3634.00,0.0074
3633.00,0.0074
3632.00,0.0074
3631.00,0.0074
3630.00,0.0074
3629.00,0.0074
3628.00,0.0074
3627.00,0.0074
3626.00,0.0074
3625.00,0.0074
3624.00,0.0074
3623.00,0.0075
3622.00,0.0075
3621.00,0.0075
3620.00,0.0075
3619.00,0.0075
3618.00,0.0075
3617.00,0.0075
3616.00,0.0075
3615.00,0.0075
3614.00,0.0075
3613.00,0.0075
3612.00,0.0075
3611.00,0.0076
3610.00,0.0076
3609.00,0.0076
3608.00,0.0076
3607.00,0.0075
3606.00,0.0075
3605.00,0.0075
3604.00,0.0075
3603.00,0.0075
3602.00,0.0075
3601.00,0.0075
3600.00,0.0075
3599.00,0.0075
3598.00,0.0075
3597.00,0.0076
3596.00,0.0076
3595.00,0.0076
3594.00,0.0076
3593.00,0.0075
3592.00,0.0075
3591.00,0.0075
3590.00,0.0075
3589.00,0.0075
3588.00,0.0075
3587.00,0.0076
3586.00,0.0076
3585.00,0.0076
3584.00,0.0076
3583.00,0.0076
3582.00,0.0076
3581.00,0.0076
3580.00,0.0076
3579.00,0.0076
3578.00,0.0076
3577.00,0.0076
3576.00,0.0076
3575.00,0.0076
3574.00,0.0076
3573.00,0.0076
3572.00,0.0077
3571.00,0.0077
3570.00,0.0077
3569.00,0.0077
3568.00,0.0077
3567.00,0.0077
3566.00,0.0077
3565.00,0.0077
3564.00,0.0078
3563.00,0.0078
3562.00,0.0078
3561.00,0.0078
3560.00,0.0078
3559.00,0.0079
3558.00,0.0079
3557.00,0.0079
3556.00,0.0079
3555.00,0.0079
3554.00,0.0079
3553.00,0.0079
3552.00,0.0079
3551.00,0.0080
3550.00,0.0080
3549.00,0.0080
3548.00,0.0080
3547.00,0.0081
3546.00,0.0081
3545.00,0.0081
3544.00,0.0081
3543.00,0.0081
3542.00,0.0082
3541.00,0.0082
3540.00,0.0082
3539.00,0.0082
3538.00,0.0082
3537.00,0.0082
3536.00,0.0082
3535.00,0.0082
3534.00,0.0082
3533.00,0.0082
3532.00,0.0083
3531.00,0.0083
3530.00,0.0083
3529.00,0.0083
3528.00,0.0084
3527.00,0.0084
3526.00,0.0085
3525.00,0.0085
3524.00,0.0085
3523.00,0.0085
3522.00,0.0085
3521.00,0.0085
3520.00,0.0085
3519.00,0.0085
3518.00,0.0086
3517.00,0.0086
3516.00,0.0086
3515.00,0.0086
3514.00,0.0087
3513.00,0.0087
3512.00,0.0087
3511.00,0.0087
3510.00,0.0088
3509.00,0.0088
3508.00,0.0088
3507.00,0.0088
3506.00,0.0088
3505.00,0.0088
3504.00,0.0089
3503.00,0.0089
3502.00,0.0089
3501.00,0.0090
3500.00,0.0090
3499.00,0.0091
3498.00,0.0091
3497.00,0.0092
3496.00,0.0092
3495.00,0.0093
3494.00,0.0093
3493.00,0.0094
3492.00,0.0094
3491.00,0.0095
3490.00,0.0095
3489.00,0.0096
3488.00,0.0096
3487.00,0.0097
3486.00,0.0097
3485.00,0.0098
3484.00,0.0099
3483.00,0.0100
3482.00,0.0100
3481.00,0.0101
3480.00,0.0102
3479.00,0.0102
3478.00,0.0103
3477.00,0.0104
3476.00,0.0105
3475.00,0.0106
3474.00,0.0107
3473.00,0.0108
3472.00,0.0108
3471.00,0.0108
3470.00,0.0109
3469.00,0.0109
3468.00,0.0110
3467.00,0.0112
3466.00,0.0113
3465.00,0.0115
3464.00,0.0116
3463.00,0.0117
3462.00,0.0118
3461.00,0.0119
3460.00,0.0120
3459.00,0.0121
3458.00,0.0122
3457.00,0.0123
3456.00,0.0124
3455.00,0.0125
3454.00,0.0126
3453.00,0.0127
3452.00,0.0127
3451.00,0.0128
3450.00,0.0128
3449.00,0.0129
3448.00,0.0129
3447.00,0.0129
3446.00,0.0130
3445.00,0.0130
3444.00,0.0130
3443.00,0.0131
3442.00,0.0131
3441.00,0.0130
3440.00,0.0130
3439.00,0.0130
3438.00,0.0129
3437.00,0.0128
3436.00,0.0128
3435.00,0.0128
3434.00,0.0128
3433.00,0.0128
3432.00,0.0128
3431.00,0.0128
3430.00,0.0127
3429.00,0.0127
3428.00,0.0127
3427.00,0.0127
3426.00,0.0127
3425.00,0.0127
3424.00,0.0127
3423.00,0.0127
3422.00,0.0127
3421.00,0.0128
3420.00,0.0128
3419.00,0.0129
3418.00,0.0129
3417.00,0.0129
3416.00,0.0129
3415.00,0.0130
3414.00,0.0130
3413.00,0.0131
3412.00,0.0131
3411.00,0.0132
3410.00,0.0133
3409.00,0.0134
3408.00,0.0135
3407.00,0.0135
3406.00,0.0136
3405.00,0.0137
3404.00,0.0137
3403.00,0.0138
3402.00,0.0138
3401.00,0.0140
3400.00,0.0141
3399.00,0.0144
3398.00,0.0146
3397.00,0.0148
3396.00,0.0149
3395.00,0.0151
3394.00,0.0152
3393.00,0.0153
3392.00,0.0156
3391.00,0.0158
3390.00,0.0161
3389.00,0.0164
3388.00,0.0167
3387.00,0.0170
3386.00,0.0172
3385.00,0.0175
3384.00,0.0177
3383.00,0.0180
3382.00,0.0182
3381.00,0.0185
3380.00,0.0187
3379.00,0.0190
3378.00,0.0192
3377.00,0.0195
3376.00,0.0198
3375.00,0.0201
3374.00,0.0204
3373.00,0.0206
3372.00,0.0208
3371.00,0.0210
3370.00,0.0212
3369.00,0.0216
3368.00,0.0220
3367.00,0.0225
3366.00,0.0231
3365.00,0.0237
3364.00,0.0242
3363.00,0.0247
3362.00,0.0253
3361.00,0.0259
3360.00,0.0265
3359.00,0.0272
3358.00,0.0280
3357.00,0.0288
3356.00,0.0297
3355.00,0.0306
3354.00,0.0315
3353.00,0.0325
3352.00,0.0335
3351.00,0.0347
3350.00,0.0360
3349.00,0.0374
3348.00,0.0389
3347.00,0.0404
3346.00,0.0419
3345.00,0.0434
3344.00,0.0449
3343.00,0.0464
3342.00,0.0480
3341.00,0.0495
3340.00,0.0511
3339.00,0.0526
3338.00,0.0541
3337.00,0.0555
3336.00,0.0569
3335.00,0.0581
3334.00,0.0591
3333.00,0.0600
3332.00,0.0607
3331.00,0.0611
3330.00,0.0615
3329.00,0.0617
3328.00,0.0618
3327.00,0.0618
3326.00,0.0618
3325.00,0.0617
3324.00,0.0616
3323.00,0.0613
3322.00,0.0610
3321.00,0.0606
3320.00,0.0601
3319.00,0.0594
3318.00,0.0587
3317.00,0.0579
3316.00,0.0571
3315.00,0.0561
3314.00,0.0551
3313.00,0.0541
3312.00,0.0530
3311.00,0.0519
3310.00,0.0508
3309.00,0.0497
3308.00,0.0486
3307.00,0.0476
3306.00,0.0466
3305.00,0.0456
3304.00,0.0448
3303.00,0.0440
3302.00,0.0432
3301.00,0.0424
3300.00,0.0416
3299.00,0.0408
3298.00,0.0400
3297.00,0.0393
3296.00,0.0386
3295.00,0.0379
3294.00,0.0373
3293.00,0.0367
3292.00,0.0361
3291.00,0.0356
3290.00,0.0351
3289.00,0.0346
3288.00,0.0340
3287.00,0.0334
3286.00,0.0329
3285.00,0.0323
3284.00,0.0318
3283.00,0.0314
3282.00,0.0309
3281.00,0.0305
3280.00,0.0302
3279.00,0.0299
3278.00,0.0296
3277.00,0.0294
3276.00,0.0292
3275.00,0.0291
3274.00,0.0289
3273.00,0.0288
3272.00,0.0287
3271.00,0.0286
3270.00,0.0286
3269.00,0.0286
3268.00,0.0286
3267.00,0.0286
3266.00,0.0286
3265.00,0.0286
3264.00,0.0285
3263.00,0.0284
3262.00,0.0284
3261.00,0.0283
3260.00,0.0281
3259.00,0.0280
3258.00,0.0278
3257.00,0.0276
3256.00,0.0274
3255.00,0.0272
3254.00,0.0271
3253.00,0.0269
3252.00,0.0268
3251.00,0.0266
3250.00,0.0265
3249.00,0.0263
3248.00,0.0262
3247.00,0.0261
3246.00,0.0261
3245.00,0.0260
3244.00,0.0259
3243.00,0.0259
3242.00,0.0258
3241.00,0.0257
3240.00,0.0256
3239.00,0.0255
3238.00,0.0253
3237.00,0.0251
3236.00,0.0249
3235.00,0.0246
3234.00,0.0244
3233.00,0.0242
3232.00,0.0240
3231.00,0.0237
3230.00,0.0235
3229.00,0.0233
3228.00,0.0230
3227.00,0.0228
3226.00,0.0225
3225.00,0.0223
3224.00,0.0220
3223.00,0.0218
3222.00,0.0216
3221.00,0.0214
3220.00,0.0211
3219.00,0.0209
3218.00,0.0208
3217.00,0.0206
3216.00,0.0204
3215.00,0.0203
3214.00,0.0201
3213.00,0.0200
3212.00,0.0199
3211.00,0.0197
3210.00,0.0196
3209.00,0.0195
3208.00,0.0194
3207.00,0.0192
3206.00,0.0191
3205.00,0.0190
3204.00,0.0189
3203.00,0.0187
3202.00,0.0186
3201.00,0.0185
3200.00,0.0183
3199.00,0.0181
3198.00,0.0180
3197.00,0.0178
3196.00,0.0177
3195.00,0.0176
3194.00,0.0174
3193.00,0.0173
3192.00,0.0172
3191.00,0.0171
3190.00,0.0170
3189.00,0.0170
3188.00,0.0169
3187.00,0.0168
3186.00,0.0168
3185.00,0.0167
3184.00,0.0167
3183.00,0.0166
3182.00,0.0166
3181.00,0.0165
3180.00,0.0164
3179.00,0.0164
3178.00,0.0163
3177.00,0.0162
3176.00,0.0162
3175.00,0.0162
3174.00,0.0161
3173.00,0.0161
3172.00,0.0160
3171.00,0.0160
3170.00,0.0159
3169.00,0.0159
3168.00,0.0158
3167.00,0.0158
3166.00,0.0158
3165.00,0.0158
3164.00,0.0158
3163.00,0.0158
3162.00,0.0158
3161.00,0.0158
3160.00,0.0158
3159.00,0.0158
3158.00,0.0158
3157.00,0.0158
3156.00,0.0158
3155.00,0.0158
3154.00,0.0158
3153.00,0.0158
3152.00,0.0158
3151.00,0.0159
3150.00,0.0159
3149.00,0.0160
3148.00,0.0160
3147.00,0.0160
3146.00,0.0160
3145.00,0.0160
3144.00,0.0160
3143.00,0.0159
3142.00,0.0159
3141.00,0.0159
3140.00,0.0160
3139.00,0.0160
3138.00,0.0161
3137.00,0.0162
3136.00,0.0163
3135.00,0.0164
3134.00,0.0164
3133.00,0.0165
3132.00,0.0166
3131.00,0.0166
3130.00,0.0167
3129.00,0.0168
3128.00,0.0169
3127.00,0.0170
3126.00,0.0172
3125.00,0.0173
3124.00,0.0174
3123.00,0.0175
3122.00,0.0176
3121.00,0.0178
3120.00,0.0179
3119.00,0.0181
3118.00,0.0183
3117.00,0.0186
3116.00,0.0190
3115.00,0.0193
3114.00,0.0197
3113.00,0.0200
3112.00,0.0203
3111.00,0.0206
3110.00,0.0208
3109.00,0.0211
3108.00,0.0214
3107.00,0.0217
3106.00,0.0219
3105.00,0.0221
3104.00,0.0223
3103.00,0.0223
3102.00,0.0224
3101.00,0.0224
3100.00,0.0223
3099.00,0.0223
3098.00,0.0222
3097.00,0.0220
3096.00,0.0219
3095.00,0.0218
3094.00,0.0216
3093.00,0.0215
3092.00,0.0213
3091.00,0.0211
3090.00,0.0210
3089.00,0.0210
3088.00,0.0209
3087.00,0.0209
3086.00,0.0209
3085.00,0.0208
3084.00,0.0208
3083.00,0.0208
3082.00,0.0208
3081.00,0.0207
3080.00,0.0207
3079.00,0.0207
3078.00,0.0206
3077.00,0.0206
3076.00,0.0205
3075.00,0.0203
3074.00,0.0202
3073.00,0.0200
3072.00,0.0197
3071.00,0.0195
3070.00,0.0193
3069.00,0.0192
3068.00,0.0191
3067.00,0.0191
3066.00,0.0192
3065.00,0.0193
3064.00,0.0193
3063.00,0.0194
3062.00,0.0193
3061.00,0.0192
3060.00,0.0190
3059.00,0.0188
3058.00,0.0185
3057.00,0.0183
3056.00,0.0181
3055.00,0.0180
3054.00,0.0179
3053.00,0.0179
3052.00,0.0178
3051.00,0.0178
3050.00,0.0179
3049.00,0.0179
3048.00,0.0180
3047.00,0.0180
3046.00,0.0179
3045.00,0.0179
3044.00,0.0180
3043.00,0.0180
3042.00,0.0182
3041.00,0.0184
3040.00,0.0186
3039.00,0.0188
3038.00,0.0191
3037.00,0.0193
3036.00,0.0195
3035.00,0.0197
3034.00,0.0199
3033.00,0.0202
3032.00,0.0204
3031.00,0.0207
3030.00,0.0209
3029.00,0.0210
3028.00,0.0211
3027.00,0.0212
3026.00,0.0212
3025.00,0.0212
3024.00,0.0211
3023.00,0.0211
3022.00,0.0210
3021.00,0.0209
3020.00,0.0209
3019.00,0.0208
3018.00,0.0208
3017.00,0.0209
3016.00,0.0210
3015.00,0.0211
3014.00,0.0213
3013.00,0.0216
3012.00,0.0220
3011.00,0.0225
3010.00,0.0230
3009.00,0.0236
3008.00,0.0242
3007.00,0.0248
3006.00,0.0254
3005.00,0.0260
3004.00,0.0265
3003.00,0.0271
3002.00,0.0275
3001.00,0.0279
3000.00,0.0282
2999.00,0.0284
2998.00,0.0285
2997.00,0.0285
2996.00,0.0284
2995.00,0.0280
2994.00,0.0275
2993.00,0.0270
2992.00,0.0264
2991.00,0.0258
2990.00,0.0253
2989.00,0.0248
2988.00,0.0244
2987.00,0.0240
2986.00,0.0236
2985.00,0.0232
2984.00,0.0229
2983.00,0.0226
2982.00,0.0224
2981.00,0.0222
2980.00,0.0221
2979.00,0.0221
2978.00,0.0221
2977.00,0.0221
2976.00,0.0221
2975.00,0.0221
2974.00,0.0222
2973.00,0.0223
2972.00,0.0226
2971.00,0.0229
2970.00,0.0232
2969.00,0.0237
2968.00,0.0243
2967.00,0.0250
2966.00,0.0259
2965.00,0.0270
2964.00,0.0282
2963.00,0.0297
2962.00,0.0314
2961.00,0.0333
2960.00,0.0353
2959.00,0.0375
2958.00,0.0396
2957.00,0.0417
2956.00,0.0435
2955.00,0.0449
2954.00,0.0460
2953.00,0.0465
2952.00,0.0464
2951.00,0.0458
2950.00,0.0446
2949.00,0.0430
2948.00,0.0411
2947.00,0.0390
2946.00,0.0370
2945.00,0.0350
2944.00,0.0333
2943.00,0.0318
2942.00,0.0305
2941.00,0.0294
2940.00,0.0285
2939.00,0.0278
2938.00,0.0273
2937.00,0.0269
2936.00,0.0266
2935.00,0.0264
2934.00,0.0262
2933.00,0.0260
2932.00,0.0258
2931.00,0.0256
2930.00,0.0254
2929.00,0.0252
2928.00,0.0250
2927.00,0.0247
2926.00,0.0243
2925.00,0.0240
2924.00,0.0236
2923.00,0.0232
2922.00,0.0228
2921.00,0.0224
2920.00,0.0220
2919.00,0.0216
2918.00,0.0213
2917.00,0.0210
2916.00,0.0208
2915.00,0.0206
2914.00,0.0205
2913.00,0.0204
2912.00,0.0204
2911.00,0.0203
2910.00,0.0202
2909.00,0.0201
2908.00,0.0201
2907.00,0.0200
2906.00,0.0199
2905.00,0.0197
2904.00,0.0196
2903.00,0.0195
2902.00,0.0194
2901.00,0.0193
2900.00,0.0192
2899.00,0.0190
2898.00,0.0189
2897.00,0.0187
2896.00,0.0185
2895.00,0.0184
2894.00,0.0183
2893.00,0.0183
2892.00,0.0182
2891.00,0.0182
2890.00,0.0181
2889.00,0.0182
2888.00,0.0182
2887.00,0.0182
2886.00,0.0182
2885.00,0.0182
2884.00,0.0183
2883.00,0.0183
2882.00,0.0183
2881.00,0.0183
2880.00,0.0183
2879.00,0.0183
2878.00,0.0183
2877.00,0.0183
2876.00,0.0183
2875.00,0.0183
2874.00,0.0183
2873.00,0.0183
2872.00,0.0184
2871.00,0.0184
2870.00,0.0184
2869.00,0.0183
2868.00,0.0181
2867.00,0.0180
2866.00,0.0179
2865.00,0.0178
2864.00,0.0177
2863.00,0.0176
2862.00,0.0174
2861.00,0.0173
2860.00,0.0173
2859.00,0.0172
2858.00,0.0172
2857.00,0.0172
2856.00,0.0172
2855.00,0.0173
2854.00,0.0173
2853.00,0.0174
2852.00,0.0175
2851.00,0.0176
2850.00,0.0177
2849.00,0.0180
2848.00,0.0183
2847.00,0.0187
2846.00,0.0192
2845.00,0.0196
2844.00,0.0198
2843.00,0.0200
2842.00,0.0200
2841.00,0.0198
2840.00,0.0195
2839.00,0.0192
2838.00,0.0188
2837.00,0.0185
2836.00,0.0181
2835.00,0.0178
2834.00,0.0175
2833.00,0.0172
2832.00,0.0169
2831.00,0.0167
2830.00,0.0165
2829.00,0.0163
2828.00,0.0161
2827.00,0.0160
2826.00,0.0158
2825.00,0.0157
2824.00,0.0156
2823.00,0.0156
2822.00,0.0155
2821.00,0.0154
2820.00,0.0154
2819.00,0.0154
2818.00,0.0153
2817.00,0.0153
2816.00,0.0153
2815.00,0.0152
2814.00,0.0152
2813.00,0.0151
2812.00,0.0151
2811.00,0.0150
2810.00,0.0150
2809.00,0.0149
2808.00,0.0149
2807.00,0.0148
2806.00,0.0147
2805.00,0.0147
2804.00,0.0146
2803.00,0.0145
2802.00,0.0144
2801.00,0.0143
2800.00,0.0142
2799.00,0.0141
2798.00,0.0140
2797.00,0.0139
2796.00,0.0138
2795.00,0.0137
2794.00,0.0136
2793.00,0.0135
2792.00,0.0134
2791.00,0.0133
2790.00,0.0132
2789.00,0.0131
2788.00,0.0130
2787.00,0.0130
2786.00,0.0129
2785.00,0.0128
2784.00,0.0128
2783.00,0.0127
2782.00,0.0127
2781.00,0.0126
2780.00,0.0126
2779.00,0.0126
2778.00,0.0125
2777.00,0.0125
2776.00,0.0125
2775.00,0.0124
2774.00,0.0124
2773.00,0.0124
2772.00,0.0124
2771.00,0.0124
2770.00,0.0124
2769.00,0.0124
2768.00,0.0124
2767.00,0.0124
2766.00,0.0123
2765.00,0.0123
2764.00,0.0123
2763.00,0.0123
2762.00,0.0123
2761.00,0.0123
2760.00,0.0123
2759.00,0.0122
2758.00,0.0122
2757.00,0.0122
