Created as New Dataset,Sample 1076 By YargerLab Date Tuesday, August 05 2025
cm-1,A
4000.00,0.0110
3999.00,0.0110
3998.00,0.0110
3997.00,0.0110
3996.00,0.0110
3995.00,0.0110
3994.00,0.0110
3993.00,0.0110
3992.00,0.0110
3991.00,0.0110
3990.00,0.0110
3989.00,0.0110
3988.00,0.0110
3987.00,0.0110
3986.00,0.0110
3985.00,0.0110
3984.00,0.0110
3983.00,0.0109
3982.00,0.0109
3981.00,0.0109
3980.00,0.0109
3979.00,0.0109
3978.00,0.0109
3977.00,0.0109
3976.00,0.0109
3975.00,0.0109
3974.00,0.0109
3973.00,0.0110
3972.00,0.0110
3971.00,0.0110
3970.00,0.0110
3969.00,0.0110
3968.00,0.0110
3967.00,0.0110
3966.00,0.0109
3965.00,0.0109
3964.00,0.0109
3963.00,0.0109
3962.00,0.0109
3961.00,0.0109
3960.00,0.0109
3959.00,0.0109
3958.00,0.0109
3957.00,0.0109
3956.00,0.0110
3955.00,0.0110
3954.00,0.0110
3953.00,0.0110
3952.00,0.0109
3951.00,0.0109
3950.00,0.0109
3949.00,0.0109
3948.00,0.0109
3947.00,0.0109
3946.00,0.0109
3945.00,0.0109
3944.00,0.0109
3943.00,0.0109
3942.00,0.0109
3941.00,0.0109
3940.00,0.0109
3939.00,0.0109
3938.00,0.0109
3937.00,0.0109
3936.00,0.0109
3935.00,0.0109
3934.00,0.0109
3933.00,0.0109
3932.00,0.0109
3931.00,0.0109
3930.00,0.0109
3929.00,0.0109
3928.00,0.0109
3927.00,0.0109
3926.00,0.0109
3925.00,0.0109
3924.00,0.0109
3923.00,0.0109
3922.00,0.0109
3921.00,0.0109
3920.00,0.0109
3919.00,0.0109
3918.00,0.0109
3917.00,0.0109
3916.00,0.0109
3915.00,0.0109
3914.00,0.0109
3913.00,0.0109
3912.00,0.0109
3911.00,0.0109
3910.00,0.0109
3909.00,0.0109
3908.00,0.0109
3907.00,0.0109
3906.00,0.0109
3905.00,0.0109
3904.00,0.0109
3903.00,0.0108
3902.00,0.0108
3901.00,0.0108
3900.00,0.0108
3899.00,0.0108
3898.00,0.0108
3897.00,0.0108
3896.00,0.0108
3895.00,0.0109
3894.00,0.0109
3893.00,0.0109
3892.00,0.0109
3891.00,0.0109
3890.00,0.0109
3889.00,0.0109
3888.00,0.0109
3887.00,0.0109
3886.00,0.0108
3885.00,0.0108
3884.00,0.0108
3883.00,0.0108
3882.00,0.0108
3881.00,0.0107
3880.00,0.0108
3879.00,0.0108
3878.00,0.0108
3877.00,0.0108
3876.00,0.0108
3875.00,0.0108
3874.00,0.0109
3873.00,0.0109
3872.00,0.0109
3871.00,0.0108
3870.00,0.0108
3869.00,0.0107
3868.00,0.0107
3867.00,0.0107
3866.00,0.0107
3865.00,0.0107
3864.00,0.0108
3863.00,0.0108
3862.00,0.0108
3861.00,0.0108
3860.00,0.0108
3859.00,0.0109
3858.00,0.0109
3857.00,0.0109
3856.00,0.0109
3855.00,0.0109
3854.00,0.0108
3853.00,0.0108
3852.00,0.0108
3851.00,0.0108
3850.00,0.0107
3849.00,0.0107
3848.00,0.0108
3847.00,0.0108
3846.00,0.0108
3845.00,0.0108
3844.00,0.0109
3843.00,0.0109
3842.00,0.0109
3841.00,0.0109
3840.00,0.0108
3839.00,0.0108
3838.00,0.0108
3837.00,0.0108
3836.00,0.0108
3835.00,0.0108
3834.00,0.0109
3833.00,0.0109
3832.00,0.0109
3831.00,0.0109
3830.00,0.0109
3829.00,0.0109
3828.00,0.0109
3827.00,0.0109
3826.00,0.0109
3825.00,0.0109
3824.00,0.0110
3823.00,0.0109
3822.00,0.0109
3821.00,0.0109
3820.00,0.0109
3819.00,0.0109
3818.00,0.0109
3817.00,0.0108
3816.00,0.0108
3815.00,0.0108
3814.00,0.0108
3813.00,0.0108
3812.00,0.0108
3811.00,0.0108
3810.00,0.0109
3809.00,0.0109
3808.00,0.0109
3807.00,0.0109
3806.00,0.0109
3805.00,0.0109
3804.00,0.0109
3803.00,0.0109
3802.00,0.0108
3801.00,0.0108
3800.00,0.0108
3799.00,0.0108
3798.00,0.0107
3797.00,0.0107
3796.00,0.0107
3795.00,0.0108
3794.00,0.0108
3793.00,0.0108
3792.00,0.0108
3791.00,0.0108
3790.00,0.0108
3789.00,0.0108
3788.00,0.0108
3787.00,0.0108
3786.00,0.0108
3785.00,0.0108
3784.00,0.0108
3783.00,0.0108
3782.00,0.0108
3781.00,0.0108
3780.00,0.0108
3779.00,0.0108
3778.00,0.0109
3777.00,0.0109
3776.00,0.0109
3775.00,0.0109
3774.00,0.0108
3773.00,0.0108
3772.00,0.0108
3771.00,0.0108
3770.00,0.0108
3769.00,0.0108
3768.00,0.0108
3767.00,0.0108
3766.00,0.0108
3765.00,0.0108
3764.00,0.0108
3763.00,0.0108
3762.00,0.0108
3761.00,0.0108
3760.00,0.0108
3759.00,0.0109
3758.00,0.0109
3757.00,0.0109
3756.00,0.0109
3755.00,0.0109
3754.00,0.0109
3753.00,0.0108
3752.00,0.0108
3751.00,0.0108
3750.00,0.0108
3749.00,0.0108
3748.00,0.0108
3747.00,0.0107
3746.00,0.0107
3745.00,0.0107
3744.00,0.0106
3743.00,0.0107
3742.00,0.0107
3741.00,0.0107
3740.00,0.0107
3739.00,0.0107
3738.00,0.0107
3737.00,0.0107
3736.00,0.0107
3735.00,0.0107
3734.00,0.0107
3733.00,0.0106
3732.00,0.0106
3731.00,0.0106
3730.00,0.0106
3729.00,0.0105
3728.00,0.0105
3727.00,0.0105
3726.00,0.0105
3725.00,0.0105
3724.00,0.0105
3723.00,0.0105
3722.00,0.0106
3721.00,0.0106
3720.00,0.0106
3719.00,0.0106
3718.00,0.0106
3717.00,0.0106
3716.00,0.0107
3715.00,0.0107
3714.00,0.0107
3713.00,0.0107
3712.00,0.0107
3711.00,0.0107
3710.00,0.0107
3709.00,0.0107
3708.00,0.0107
3707.00,0.0107
3706.00,0.0106
3705.00,0.0106
3704.00,0.0106
3703.00,0.0106
3702.00,0.0106
3701.00,0.0106
3700.00,0.0106
3699.00,0.0107
3698.00,0.0107
3697.00,0.0107
3696.00,0.0107
3695.00,0.0107
3694.00,0.0108
3693.00,0.0108
3692.00,0.0108
3691.00,0.0108
3690.00,0.0108
3689.00,0.0108
3688.00,0.0109
3687.00,0.0109
3686.00,0.0109
3685.00,0.0109
3684.00,0.0110
3683.00,0.0110
3682.00,0.0110
3681.00,0.0111
3680.00,0.0111
3679.00,0.0111
3678.00,0.0112
3677.00,0.0112
3676.00,0.0112
3675.00,0.0113
3674.00,0.0113
3673.00,0.0113
3672.00,0.0113
3671.00,0.0113
3670.00,0.0113
3669.00,0.0113
3668.00,0.0113
3667.00,0.0113
3666.00,0.0113
3665.00,0.0113
3664.00,0.0114
3663.00,0.0114
3662.00,0.0115
3661.00,0.0115
3660.00,0.0115
3659.00,0.0115
3658.00,0.0115
3657.00,0.0116
3656.00,0.0116
3655.00,0.0117
3654.00,0.0117
3653.00,0.0118
3652.00,0.0119
3651.00,0.0120
3650.00,0.0120
3649.00,0.0119
3648.00,0.0119
3647.00,0.0118
3646.00,0.0118
3645.00,0.0118
3644.00,0.0119
3643.00,0.0120
3642.00,0.0121
3641.00,0.0122
3640.00,0.0122
3639.00,0.0123
3638.00,0.0124
3637.00,0.0124
3636.00,0.0124
3635.00,0.0125
3634.00,0.0125
3633.00,0.0125
3632.00,0.0126
3631.00,0.0127
3630.00,0.0127
3629.00,0.0128
3628.00,0.0129
3627.00,0.0129
3626.00,0.0130
3625.00,0.0130
3624.00,0.0130
3623.00,0.0131
3622.00,0.0132
3621.00,0.0132
3620.00,0.0133
3619.00,0.0133
3618.00,0.0134
3617.00,0.0134
3616.00,0.0134
3615.00,0.0135
3614.00,0.0136
3613.00,0.0137
3612.00,0.0138
3611.00,0.0138
3610.00,0.0139
3609.00,0.0139
3608.00,0.0140
3607.00,0.0141
3606.00,0.0142
3605.00,0.0143
3604.00,0.0144
3603.00,0.0145
3602.00,0.0146
3601.00,0.0147
3600.00,0.0147
3599.00,0.0148
3598.00,0.0149
3597.00,0.0150
3596.00,0.0150
3595.00,0.0151
3594.00,0.0152
3593.00,0.0153
3592.00,0.0154
3591.00,0.0155
3590.00,0.0156
3589.00,0.0157
3588.00,0.0158
3587.00,0.0159
3586.00,0.0160
3585.00,0.0161
3584.00,0.0162
3583.00,0.0163
3582.00,0.0164
3581.00,0.0165
3580.00,0.0167
3579.00,0.0168
3578.00,0.0169
3577.00,0.0170
3576.00,0.0170
3575.00,0.0171
3574.00,0.0172
3573.00,0.0173
3572.00,0.0174
3571.00,0.0175
3570.00,0.0176
3569.00,0.0176
3568.00,0.0177
3567.00,0.0178
3566.00,0.0179
3565.00,0.0181
3564.00,0.0182
3563.00,0.0184
3562.00,0.0185
3561.00,0.0186
3560.00,0.0188
3559.00,0.0189
3558.00,0.0190
3557.00,0.0191
3556.00,0.0192
3555.00,0.0193
3554.00,0.0193
3553.00,0.0194
3552.00,0.0195
3551.00,0.0195
3550.00,0.0196
3549.00,0.0197
3548.00,0.0198
3547.00,0.0199
3546.00,0.0200
3545.00,0.0201
3544.00,0.0202
3543.00,0.0203
3542.00,0.0204
3541.00,0.0205
3540.00,0.0206
3539.00,0.0206
3538.00,0.0207
3537.00,0.0207
3536.00,0.0208
3535.00,0.0209
3534.00,0.0210
3533.00,0.0211
3532.00,0.0211
3531.00,0.0211
3530.00,0.0212
3529.00,0.0212
3528.00,0.0213
3527.00,0.0214
3526.00,0.0214
3525.00,0.0215
3524.00,0.0216
3523.00,0.0217
3522.00,0.0217
3521.00,0.0218
3520.00,0.0219
3519.00,0.0220
3518.00,0.0220
3517.00,0.0220
3516.00,0.0221
3515.00,0.0221
3514.00,0.0221
3513.00,0.0222
3512.00,0.0222
3511.00,0.0222
3510.00,0.0223
3509.00,0.0224
3508.00,0.0225
3507.00,0.0225
3506.00,0.0226
3505.00,0.0227
3504.00,0.0227
3503.00,0.0228
3502.00,0.0228
3501.00,0.0228
3500.00,0.0229
3499.00,0.0230
3498.00,0.0230
3497.00,0.0231
3496.00,0.0232
3495.00,0.0232
3494.00,0.0233
3493.00,0.0233
3492.00,0.0234
3491.00,0.0234
3490.00,0.0235
3489.00,0.0235
3488.00,0.0236
3487.00,0.0236
3486.00,0.0237
3485.00,0.0237
3484.00,0.0238
3483.00,0.0238
3482.00,0.0239
3481.00,0.0240
3480.00,0.0240
3479.00,0.0241
3478.00,0.0241
3477.00,0.0242
3476.00,0.0242
3475.00,0.0243
3474.00,0.0243
3473.00,0.0243
3472.00,0.0244
3471.00,0.0244
3470.00,0.0245
3469.00,0.0246
3468.00,0.0246
3467.00,0.0246
3466.00,0.0246
3465.00,0.0246
3464.00,0.0246
3463.00,0.0247
3462.00,0.0247
3461.00,0.0248
3460.00,0.0248
3459.00,0.0248
3458.00,0.0249
3457.00,0.0249
3456.00,0.0249
3455.00,0.0249
3454.00,0.0250
3453.00,0.0250
3452.00,0.0250
3451.00,0.0250
3450.00,0.0250
3449.00,0.0250
3448.00,0.0250
3447.00,0.0250
3446.00,0.0250
3445.00,0.0250
3444.00,0.0251
3443.00,0.0251
3442.00,0.0251
3441.00,0.0251
3440.00,0.0251
3439.00,0.0252
3438.00,0.0252
3437.00,0.0252
3436.00,0.0252
3435.00,0.0252
3434.00,0.0252
3433.00,0.0252
3432.00,0.0252
3431.00,0.0252
3430.00,0.0252
3429.00,0.0252
3428.00,0.0251
3427.00,0.0251
3426.00,0.0251
3425.00,0.0251
3424.00,0.0251
3423.00,0.0251
3422.00,0.0251
3421.00,0.0251
3420.00,0.0251
3419.00,0.0251
3418.00,0.0251
3417.00,0.0251
3416.00,0.0251
3415.00,0.0251
3414.00,0.0251
3413.00,0.0250
3412.00,0.0250
3411.00,0.0250
3410.00,0.0250
3409.00,0.0250
3408.00,0.0249
3407.00,0.0249
3406.00,0.0249
3405.00,0.0249
3404.00,0.0249
3403.00,0.0248
3402.00,0.0248
3401.00,0.0248
3400.00,0.0248
3399.00,0.0248
3398.00,0.0248
3397.00,0.0248
3396.00,0.0247
3395.00,0.0247
3394.00,0.0247
3393.00,0.0247
3392.00,0.0247
3391.00,0.0247
3390.00,0.0247
3389.00,0.0247
3388.00,0.0247
3387.00,0.0247
3386.00,0.0246
3385.00,0.0246
3384.00,0.0246
3383.00,0.0246
3382.00,0.0246
3381.00,0.0246
3380.00,0.0246
3379.00,0.0246
3378.00,0.0246
3377.00,0.0245
3376.00,0.0245
3375.00,0.0245
3374.00,0.0245
3373.00,0.0245
3372.00,0.0244
3371.00,0.0243
3370.00,0.0242
3369.00,0.0242
3368.00,0.0242
3367.00,0.0243
3366.00,0.0243
3365.00,0.0244
3364.00,0.0245
3363.00,0.0244
3362.00,0.0244
3361.00,0.0244
3360.00,0.0244
3359.00,0.0244
3358.00,0.0245
3357.00,0.0245
3356.00,0.0245
3355.00,0.0244
3354.00,0.0243
3353.00,0.0242
3352.00,0.0242
3351.00,0.0241
3350.00,0.0242
3349.00,0.0242
3348.00,0.0243
3347.00,0.0243
3346.00,0.0243
3345.00,0.0242
3344.00,0.0242
3343.00,0.0241
3342.00,0.0241
3341.00,0.0241
3340.00,0.0240
3339.00,0.0240
3338.00,0.0240
3337.00,0.0240
3336.00,0.0241
3335.00,0.0242
3334.00,0.0243
3333.00,0.0243
3332.00,0.0243
3331.00,0.0243
3330.00,0.0243
3329.00,0.0242
3328.00,0.0241
3327.00,0.0240
3326.00,0.0240
3325.00,0.0240
3324.00,0.0240
3323.00,0.0240
3322.00,0.0241
3321.00,0.0241
3320.00,0.0241
3319.00,0.0241
3318.00,0.0241
3317.00,0.0241
3316.00,0.0241
3315.00,0.0241
3314.00,0.0241
3313.00,0.0241
3312.00,0.0240
3311.00,0.0239
3310.00,0.0237
3309.00,0.0236
3308.00,0.0235
3307.00,0.0235
3306.00,0.0235
3305.00,0.0236
3304.00,0.0238
3303.00,0.0239
3302.00,0.0241
3301.00,0.0241
3300.00,0.0241
3299.00,0.0240
3298.00,0.0239
3297.00,0.0238
3296.00,0.0238
3295.00,0.0237
3294.00,0.0237
3293.00,0.0237
3292.00,0.0238
3291.00,0.0239
3290.00,0.0239
3289.00,0.0240
3288.00,0.0240
3287.00,0.0240
3286.00,0.0240
3285.00,0.0239
3284.00,0.0239
3283.00,0.0239
3282.00,0.0239
3281.00,0.0239
3280.00,0.0239
3279.00,0.0238
3278.00,0.0238
3277.00,0.0237
3276.00,0.0237
3275.00,0.0237
3274.00,0.0236
3273.00,0.0236
3272.00,0.0236
3271.00,0.0235
3270.00,0.0236
3269.00,0.0236
3268.00,0.0236
3267.00,0.0237
3266.00,0.0237
3265.00,0.0237
3264.00,0.0237
3263.00,0.0237
3262.00,0.0237
3261.00,0.0237
3260.00,0.0236
3259.00,0.0236
3258.00,0.0235
3257.00,0.0235
3256.00,0.0235
3255.00,0.0235
3254.00,0.0235
3253.00,0.0235
3252.00,0.0235
3251.00,0.0235
3250.00,0.0235
3249.00,0.0234
3248.00,0.0234
3247.00,0.0234
3246.00,0.0234
3245.00,0.0234
3244.00,0.0234
3243.00,0.0234
3242.00,0.0234
3241.00,0.0234
3240.00,0.0234
3239.00,0.0234
3238.00,0.0234
3237.00,0.0234
3236.00,0.0233
3235.00,0.0232
3234.00,0.0232
3233.00,0.0232
3232.00,0.0232
3231.00,0.0233
3230.00,0.0233
3229.00,0.0233
3228.00,0.0233
3227.00,0.0233
3226.00,0.0233
3225.00,0.0233
3224.00,0.0233
3223.00,0.0232
3222.00,0.0232
3221.00,0.0232
3220.00,0.0231
3219.00,0.0231
3218.00,0.0231
3217.00,0.0231
3216.00,0.0231
3215.00,0.0231
3214.00,0.0230
3213.00,0.0230
3212.00,0.0230
3211.00,0.0230
3210.00,0.0229
3209.00,0.0229
3208.00,0.0229
3207.00,0.0228
3206.00,0.0228
3205.00,0.0228
3204.00,0.0228
3203.00,0.0227
3202.00,0.0227
3201.00,0.0227
3200.00,0.0227
3199.00,0.0227
3198.00,0.0227
3197.00,0.0227
3196.00,0.0227
3195.00,0.0227
3194.00,0.0227
3193.00,0.0226
3192.00,0.0226
3191.00,0.0226
3190.00,0.0225
3189.00,0.0225
3188.00,0.0224
3187.00,0.0224
3186.00,0.0224
3185.00,0.0224
3184.00,0.0225
3183.00,0.0225
3182.00,0.0225
3181.00,0.0225
3180.00,0.0225
3179.00,0.0225
3178.00,0.0224
3177.00,0.0224
3176.00,0.0224
3175.00,0.0224
3174.00,0.0223
3173.00,0.0223
3172.00,0.0223
3171.00,0.0223
3170.00,0.0223
3169.00,0.0223
3168.00,0.0223
3167.00,0.0222
3166.00,0.0222
3165.00,0.0222
3164.00,0.0222
3163.00,0.0222
3162.00,0.0221
3161.00,0.0221
3160.00,0.0221
3159.00,0.0220
3158.00,0.0220
3157.00,0.0219
3156.00,0.0219
3155.00,0.0219
3154.00,0.0219
3153.00,0.0218
3152.00,0.0218
3151.00,0.0218
3150.00,0.0218
3149.00,0.0218
3148.00,0.0217
3147.00,0.0217
3146.00,0.0217
3145.00,0.0216
3144.00,0.0216
3143.00,0.0216
3142.00,0.0216
3141.00,0.0216
3140.00,0.0216
3139.00,0.0215
3138.00,0.0215
3137.00,0.0215
3136.00,0.0215
3135.00,0.0215
3134.00,0.0214
3133.00,0.0214
3132.00,0.0214
3131.00,0.0213
3130.00,0.0213
3129.00,0.0213
3128.00,0.0213
3127.00,0.0213
3126.00,0.0213
3125.00,0.0213
3124.00,0.0213
3123.00,0.0212
3122.00,0.0212
3121.00,0.0212
3120.00,0.0212
3119.00,0.0212
3118.00,0.0212
3117.00,0.0212
3116.00,0.0211
3115.00,0.0211
3114.00,0.0211
3113.00,0.0210
3112.00,0.0210
3111.00,0.0210
3110.00,0.0210
3109.00,0.0209
3108.00,0.0209
3107.00,0.0208
3106.00,0.0208
3105.00,0.0208
3104.00,0.0208
3103.00,0.0207
3102.00,0.0207
3101.00,0.0207
3100.00,0.0207
3099.00,0.0207
3098.00,0.0207
3097.00,0.0207
3096.00,0.0207
3095.00,0.0207
3094.00,0.0206
3093.00,0.0206
3092.00,0.0206
3091.00,0.0206
3090.00,0.0206
3089.00,0.0205
3088.00,0.0205
3087.00,0.0205
3086.00,0.0205
3085.00,0.0206
3084.00,0.0206
3083.00,0.0206
3082.00,0.0206
3081.00,0.0206
3080.00,0.0206
3079.00,0.0206
3078.00,0.0206
3077.00,0.0206
3076.00,0.0205
3075.00,0.0205
3074.00,0.0205
3073.00,0.0205
3072.00,0.0205
3071.00,0.0205
3070.00,0.0204
3069.00,0.0204
3068.00,0.0204
3067.00,0.0203
3066.00,0.0203
3065.00,0.0203
3064.00,0.0202
3063.00,0.0201
3062.00,0.0201
3061.00,0.0200
3060.00,0.0200
3059.00,0.0200
3058.00,0.0200
3057.00,0.0199
3056.00,0.0199
3055.00,0.0199
3054.00,0.0199
3053.00,0.0199
3052.00,0.0198
3051.00,0.0198
3050.00,0.0198
3049.00,0.0197
3048.00,0.0197
3047.00,0.0197
3046.00,0.0196
3045.00,0.0196
3044.00,0.0196
3043.00,0.0196
3042.00,0.0196
3041.00,0.0196
3040.00,0.0196
3039.00,0.0196
3038.00,0.0196
3037.00,0.0195
3036.00,0.0195
3035.00,0.0195
3034.00,0.0194
3033.00,0.0194
3032.00,0.0194
3031.00,0.0194
3030.00,0.0194
3029.00,0.0194
3028.00,0.0194
3027.00,0.0193
3026.00,0.0193
3025.00,0.0193
3024.00,0.0193
3023.00,0.0193
3022.00,0.0192
3021.00,0.0192
3020.00,0.0192
3019.00,0.0192
3018.00,0.0192
3017.00,0.0192
3016.00,0.0193
3015.00,0.0193
3014.00,0.0194
3013.00,0.0195
3012.00,0.0196
3011.00,0.0197
3010.00,0.0198
3009.00,0.0199
3008.00,0.0201
3007.00,0.0203
3006.00,0.0205
3005.00,0.0208
3004.00,0.0211
3003.00,0.0214
3002.00,0.0217
3001.00,0.0221
3000.00,0.0225
2999.00,0.0229
2998.00,0.0233
2997.00,0.0238
2996.00,0.0243
2995.00,0.0248
2994.00,0.0254
2993.00,0.0260
2992.00,0.0266
2991.00,0.0273
2990.00,0.0279
2989.00,0.0286
2988.00,0.0292
2987.00,0.0299
2986.00,0.0305
2985.00,0.0311
2984.00,0.0316
2983.00,0.0321
2982.00,0.0326
2981.00,0.0331
2980.00,0.0336
2979.00,0.0341
2978.00,0.0345
2977.00,0.0349
2976.00,0.0353
2975.00,0.0356
2974.00,0.0359
2973.00,0.0362
2972.00,0.0365
2971.00,0.0368
2970.00,0.0371
2969.00,0.0374
2968.00,0.0377
2967.00,0.0381
2966.00,0.0385
2965.00,0.0389
2964.00,0.0392
2963.00,0.0396
2962.00,0.0400
2961.00,0.0403
2960.00,0.0406
2959.00,0.0409
2958.00,0.0412
2957.00,0.0415
2956.00,0.0417
2955.00,0.0419
2954.00,0.0420
2953.00,0.0421
2952.00,0.0422
2951.00,0.0422
2950.00,0.0421
2949.00,0.0420
2948.00,0.0419
2947.00,0.0418
2946.00,0.0417
2945.00,0.0416
2944.00,0.0416
2943.00,0.0416
2942.00,0.0416
2941.00,0.0416
2940.00,0.0417
2939.00,0.0418
2938.00,0.0420
2937.00,0.0421
2936.00,0.0423
2935.00,0.0425
2934.00,0.0427
2933.00,0.0429
2932.00,0.0431
2931.00,0.0433
2930.00,0.0435
2929.00,0.0436
2928.00,0.0438
2927.00,0.0438
2926.00,0.0438
2925.00,0.0437
2924.00,0.0435
2923.00,0.0432
2922.00,0.0429
2921.00,0.0426
2920.00,0.0422
2919.00,0.0417
2918.00,0.0413
2917.00,0.0408
2916.00,0.0404
2915.00,0.0401
2914.00,0.0398
2913.00,0.0395
2912.00,0.0392
2911.00,0.0388
2910.00,0.0384
2909.00,0.0380
2908.00,0.0376
2907.00,0.0372
2906.00,0.0368
2905.00,0.0364
2904.00,0.0361
2903.00,0.0359
2902.00,0.0357
2901.00,0.0355
2900.00,0.0354
2899.00,0.0353
2898.00,0.0352
2897.00,0.0352
2896.00,0.0352
2895.00,0.0352
2894.00,0.0352
2893.00,0.0352
2892.00,0.0352
2891.00,0.0352
2890.00,0.0351
2889.00,0.0351
2888.00,0.0351
2887.00,0.0351
2886.00,0.0351
2885.00,0.0351
2884.00,0.0352
2883.00,0.0352
2882.00,0.0352
2881.00,0.0353
2880.00,0.0354
2879.00,0.0356
2878.00,0.0357
2877.00,0.0358
2876.00,0.0359
2875.00,0.0360
2874.00,0.0361
2873.00,0.0362
2872.00,0.0363
2871.00,0.0364
2870.00,0.0364
2869.00,0.0364
2868.00,0.0363
2867.00,0.0362
2866.00,0.0361
2865.00,0.0360
2864.00,0.0359
2863.00,0.0359
2862.00,0.0358
2861.00,0.0357
2860.00,0.0357
2859.00,0.0356
2858.00,0.0354
2857.00,0.0351
2856.00,0.0348
2855.00,0.0343
2854.00,0.0337
2853.00,0.0329
2852.00,0.0321
2851.00,0.0313
2850.00,0.0305
2849.00,0.0299
2848.00,0.0294
2847.00,0.0290
2846.00,0.0287
2845.00,0.0284
2844.00,0.0281
2843.00,0.0277
2842.00,0.0272
2841.00,0.0268
2840.00,0.0263
2839.00,0.0259
2838.00,0.0256
2837.00,0.0252
2836.00,0.0249
2835.00,0.0246
2834.00,0.0243
2833.00,0.0240
2832.00,0.0237
2831.00,0.0235
2830.00,0.0232
2829.00,0.0229
2828.00,0.0226
2827.00,0.0223
2826.00,0.0220
2825.00,0.0218
2824.00,0.0216
2823.00,0.0213
2822.00,0.0211
2821.00,0.0209
2820.00,0.0207
2819.00,0.0205
2818.00,0.0203
2817.00,0.0201
2816.00,0.0200
2815.00,0.0198
2814.00,0.0197
2813.00,0.0196
2812.00,0.0195
2811.00,0.0194
2810.00,0.0193
2809.00,0.0192
2808.00,0.0191
2807.00,0.0190
2806.00,0.0190
2805.00,0.0189
2804.00,0.0188
2803.00,0.0187
2802.00,0.0187
2801.00,0.0186
2800.00,0.0185
2799.00,0.0185
2798.00,0.0184
2797.00,0.0184
2796.00,0.0183
2795.00,0.0183
2794.00,0.0182
2793.00,0.0181
2792.00,0.0181
2791.00,0.0180
2790.00,0.0180
2789.00,0.0179
2788.00,0.0179
2787.00,0.0179
2786.00,0.0178
2785.00,0.0178
2784.00,0.0178
2783.00,0.0177
2782.00,0.0177
2781.00,0.0177
2780.00,0.0176
2779.00,0.0175
2778.00,0.0175
2777.00,0.0174
2776.00,0.0174
2775.00,0.0174
2774.00,0.0174
2773.00,0.0173
2772.00,0.0173
2771.00,0.0173
2770.00,0.0173
2769.00,0.0172
2768.00,0.0172
2767.00,0.0171
2766.00,0.0171
2765.00,0.0171
2764.00,0.0170
2763.00,0.0170
2762.00,0.0170
2761.00,0.0170
2760.00,0.0170
2759.00,0.0170
2758.00,0.0170
2757.00,0.0170
