Created as New Dataset,Sample 1056 By YargerLab Date Monday, August 04 2025
cm-1,A
4000.00,0.0053
3999.00,0.0052
3998.00,0.0052
3997.00,0.0052
3996.00,0.0052
3995.00,0.0052
3994.00,0.0052
3993.00,0.0052
3992.00,0.0052
3991.00,0.0052
3990.00,0.0052
3989.00,0.0052
3988.00,0.0052
3987.00,0.0053
3986.00,0.0053
3985.00,0.0053
3984.00,0.0053
3983.00,0.0053
3982.00,0.0053
3981.00,0.0053
3980.00,0.0053
3979.00,0.0053
3978.00,0.0053
3977.00,0.0053
3976.00,0.0053
3975.00,0.0053
3974.00,0.0053
3973.00,0.0053
3972.00,0.0053
3971.00,0.0053
3970.00,0.0053
3969.00,0.0053
3968.00,0.0053
3967.00,0.0053
3966.00,0.0052
3965.00,0.0052
3964.00,0.0052
3963.00,0.0052
3962.00,0.0052
3961.00,0.0052
3960.00,0.0052
3959.00,0.0052
3958.00,0.0052
3957.00,0.0052
3956.00,0.0052
3955.00,0.0053
3954.00,0.0053
3953.00,0.0053
3952.00,0.0053
3951.00,0.0053
3950.00,0.0053
3949.00,0.0053
3948.00,0.0052
3947.00,0.0052
3946.00,0.0052
3945.00,0.0052
3944.00,0.0052
3943.00,0.0052
3942.00,0.0052
3941.00,0.0052
3940.00,0.0053
3939.00,0.0053
3938.00,0.0053
3937.00,0.0053
3936.00,0.0053
3935.00,0.0053
3934.00,0.0053
3933.00,0.0053
3932.00,0.0053
3931.00,0.0053
3930.00,0.0053
3929.00,0.0053
3928.00,0.0053
3927.00,0.0053
3926.00,0.0052
3925.00,0.0052
3924.00,0.0052
3923.00,0.0053
3922.00,0.0053
3921.00,0.0053
3920.00,0.0053
3919.00,0.0053
3918.00,0.0053
3917.00,0.0053
3916.00,0.0052
3915.00,0.0052
3914.00,0.0052
3913.00,0.0052
3912.00,0.0052
3911.00,0.0052
3910.00,0.0053
3909.00,0.0053
3908.00,0.0053
3907.00,0.0053
3906.00,0.0053
3905.00,0.0053
3904.00,0.0053
3903.00,0.0052
3902.00,0.0052
3901.00,0.0052
3900.00,0.0052
3899.00,0.0052
3898.00,0.0052
3897.00,0.0051
3896.00,0.0051
3895.00,0.0051
3894.00,0.0051
3893.00,0.0052
3892.00,0.0052
3891.00,0.0052
3890.00,0.0052
3889.00,0.0052
3888.00,0.0051
3887.00,0.0051
3886.00,0.0051
3885.00,0.0051
3884.00,0.0051
3883.00,0.0051
3882.00,0.0051
3881.00,0.0051
3880.00,0.0051
3879.00,0.0051
3878.00,0.0051
3877.00,0.0051
3876.00,0.0051
3875.00,0.0052
3874.00,0.0052
3873.00,0.0052
3872.00,0.0052
3871.00,0.0052
3870.00,0.0052
3869.00,0.0052
3868.00,0.0052
3867.00,0.0052
3866.00,0.0052
3865.00,0.0052
3864.00,0.0052
3863.00,0.0052
3862.00,0.0052
3861.00,0.0052
3860.00,0.0052
3859.00,0.0051
3858.00,0.0051
3857.00,0.0051
3856.00,0.0051
3855.00,0.0051
3854.00,0.0051
3853.00,0.0050
3852.00,0.0050
3851.00,0.0051
3850.00,0.0051
3849.00,0.0051
3848.00,0.0051
3847.00,0.0051
3846.00,0.0051
3845.00,0.0051
3844.00,0.0051
3843.00,0.0051
3842.00,0.0051
3841.00,0.0051
3840.00,0.0051
3839.00,0.0051
3838.00,0.0051
3837.00,0.0050
3836.00,0.0050
3835.00,0.0050
3834.00,0.0050
3833.00,0.0050
3832.00,0.0050
3831.00,0.0051
3830.00,0.0051
3829.00,0.0051
3828.00,0.0051
3827.00,0.0052
3826.00,0.0051
3825.00,0.0051
3824.00,0.0051
3823.00,0.0050
3822.00,0.0050
3821.00,0.0049
3820.00,0.0050
3819.00,0.0050
3818.00,0.0050
3817.00,0.0050
3816.00,0.0050
3815.00,0.0050
3814.00,0.0050
3813.00,0.0050
3812.00,0.0050
3811.00,0.0050
3810.00,0.0050
3809.00,0.0050
3808.00,0.0050
3807.00,0.0050
3806.00,0.0050
3805.00,0.0050
3804.00,0.0050
3803.00,0.0050
3802.00,0.0050
3801.00,0.0050
3800.00,0.0050
3799.00,0.0050
3798.00,0.0050
3797.00,0.0050
3796.00,0.0050
3795.00,0.0050
3794.00,0.0050
3793.00,0.0050
3792.00,0.0050
3791.00,0.0050
3790.00,0.0050
3789.00,0.0050
3788.00,0.0050
3787.00,0.0050
3786.00,0.0050
3785.00,0.0051
3784.00,0.0051
3783.00,0.0051
3782.00,0.0051
3781.00,0.0051
3780.00,0.0051
3779.00,0.0050
3778.00,0.0050
3777.00,0.0050
3776.00,0.0050
3775.00,0.0050
3774.00,0.0050
3773.00,0.0050
3772.00,0.0050
3771.00,0.0050
3770.00,0.0050
3769.00,0.0050
3768.00,0.0051
3767.00,0.0051
3766.00,0.0051
3765.00,0.0051
3764.00,0.0051
3763.00,0.0051
3762.00,0.0051
3761.00,0.0051
3760.00,0.0051
3759.00,0.0050
3758.00,0.0050
3757.00,0.0050
3756.00,0.0050
3755.00,0.0050
3754.00,0.0051
3753.00,0.0051
3752.00,0.0051
3751.00,0.0051
3750.00,0.0051
3749.00,0.0050
3748.00,0.0050
3747.00,0.0050
3746.00,0.0050
3745.00,0.0050
3744.00,0.0050
3743.00,0.0050
3742.00,0.0050
3741.00,0.0050
3740.00,0.0050
3739.00,0.0050
3738.00,0.0050
3737.00,0.0050
3736.00,0.0050
3735.00,0.0049
3734.00,0.0049
3733.00,0.0049
3732.00,0.0049
3731.00,0.0049
3730.00,0.0049
3729.00,0.0049
3728.00,0.0049
3727.00,0.0050
3726.00,0.0050
3725.00,0.0050
3724.00,0.0049
3723.00,0.0049
3722.00,0.0049
3721.00,0.0049
3720.00,0.0049
3719.00,0.0049
3718.00,0.0049
3717.00,0.0049
3716.00,0.0049
3715.00,0.0049
3714.00,0.0049
3713.00,0.0049
3712.00,0.0049
3711.00,0.0048
3710.00,0.0048
3709.00,0.0048
3708.00,0.0048
3707.00,0.0048
3706.00,0.0048
3705.00,0.0048
3704.00,0.0048
3703.00,0.0048
3702.00,0.0048
3701.00,0.0049
3700.00,0.0049
3699.00,0.0048
3698.00,0.0048
3697.00,0.0048
3696.00,0.0048
3695.00,0.0048
3694.00,0.0048
3693.00,0.0048
3692.00,0.0048
3691.00,0.0048
3690.00,0.0048
3689.00,0.0048
3688.00,0.0048
3687.00,0.0048
3686.00,0.0048
3685.00,0.0048
3684.00,0.0049
3683.00,0.0049
3682.00,0.0049
3681.00,0.0049
3680.00,0.0049
3679.00,0.0049
3678.00,0.0049
3677.00,0.0049
3676.00,0.0049
3675.00,0.0048
3674.00,0.0048
3673.00,0.0048
3672.00,0.0048
3671.00,0.0048
3670.00,0.0048
3669.00,0.0048
3668.00,0.0048
3667.00,0.0048
3666.00,0.0048
3665.00,0.0048
3664.00,0.0048
3663.00,0.0048
3662.00,0.0049
3661.00,0.0049
3660.00,0.0049
3659.00,0.0050
3658.00,0.0050
3657.00,0.0050
3656.00,0.0049
3655.00,0.0049
3654.00,0.0049
3653.00,0.0049
3652.00,0.0049
3651.00,0.0049
3650.00,0.0049
3649.00,0.0050
3648.00,0.0050
3647.00,0.0050
3646.00,0.0050
3645.00,0.0050
3644.00,0.0050
3643.00,0.0051
3642.00,0.0051
3641.00,0.0051
3640.00,0.0051
3639.00,0.0050
3638.00,0.0050
3637.00,0.0051
3636.00,0.0051
3635.00,0.0051
3634.00,0.0052
3633.00,0.0052
3632.00,0.0051
3631.00,0.0051
3630.00,0.0052
3629.00,0.0052
3628.00,0.0052
3627.00,0.0053
3626.00,0.0053
3625.00,0.0053
3624.00,0.0053
3623.00,0.0053
3622.00,0.0053
3621.00,0.0053
3620.00,0.0054
3619.00,0.0054
3618.00,0.0055
3617.00,0.0055
3616.00,0.0055
3615.00,0.0055
3614.00,0.0055
3613.00,0.0055
3612.00,0.0056
3611.00,0.0056
3610.00,0.0057
3609.00,0.0057
3608.00,0.0057
3607.00,0.0057
3606.00,0.0056
3605.00,0.0056
3604.00,0.0056
3603.00,0.0056
3602.00,0.0056
3601.00,0.0057
3600.00,0.0057
3599.00,0.0057
3598.00,0.0057
3597.00,0.0058
3596.00,0.0058
3595.00,0.0058
3594.00,0.0058
3593.00,0.0058
3592.00,0.0059
3591.00,0.0059
3590.00,0.0059
3589.00,0.0060
3588.00,0.0060
3587.00,0.0060
3586.00,0.0061
3585.00,0.0061
3584.00,0.0061
3583.00,0.0062
3582.00,0.0062
3581.00,0.0062
3580.00,0.0062
3579.00,0.0062
3578.00,0.0062
3577.00,0.0062
3576.00,0.0063
3575.00,0.0063
3574.00,0.0063
3573.00,0.0064
3572.00,0.0064
3571.00,0.0065
3570.00,0.0065
3569.00,0.0065
3568.00,0.0066
3567.00,0.0066
3566.00,0.0067
3565.00,0.0067
3564.00,0.0067
3563.00,0.0068
3562.00,0.0068
3561.00,0.0068
3560.00,0.0069
3559.00,0.0069
3558.00,0.0070
3557.00,0.0070
3556.00,0.0071
3555.00,0.0071
3554.00,0.0071
3553.00,0.0072
3552.00,0.0073
3551.00,0.0073
3550.00,0.0074
3549.00,0.0074
3548.00,0.0075
3547.00,0.0076
3546.00,0.0076
3545.00,0.0077
3544.00,0.0077
3543.00,0.0078
3542.00,0.0078
3541.00,0.0078
3540.00,0.0079
3539.00,0.0079
3538.00,0.0079
3537.00,0.0080
3536.00,0.0080
3535.00,0.0081
3534.00,0.0081
3533.00,0.0082
3532.00,0.0083
3531.00,0.0083
3530.00,0.0084
3529.00,0.0085
3528.00,0.0085
3527.00,0.0086
3526.00,0.0086
3525.00,0.0087
3524.00,0.0087
3523.00,0.0088
3522.00,0.0088
3521.00,0.0089
3520.00,0.0089
3519.00,0.0089
3518.00,0.0090
3517.00,0.0090
3516.00,0.0091
3515.00,0.0091
3514.00,0.0092
3513.00,0.0092
3512.00,0.0093
3511.00,0.0094
3510.00,0.0094
3509.00,0.0095
3508.00,0.0096
3507.00,0.0096
3506.00,0.0097
3505.00,0.0097
3504.00,0.0098
3503.00,0.0099
3502.00,0.0099
3501.00,0.0100
3500.00,0.0100
3499.00,0.0101
3498.00,0.0101
3497.00,0.0102
3496.00,0.0103
3495.00,0.0104
3494.00,0.0104
3493.00,0.0105
3492.00,0.0106
3491.00,0.0107
3490.00,0.0108
3489.00,0.0109
3488.00,0.0110
3487.00,0.0111
3486.00,0.0112
3485.00,0.0113
3484.00,0.0114
3483.00,0.0115
3482.00,0.0116
3481.00,0.0117
3480.00,0.0118
3479.00,0.0119
3478.00,0.0120
3477.00,0.0122
3476.00,0.0123
3475.00,0.0124
3474.00,0.0125
3473.00,0.0126
3472.00,0.0127
3471.00,0.0129
3470.00,0.0130
3469.00,0.0131
3468.00,0.0133
3467.00,0.0135
3466.00,0.0136
3465.00,0.0138
3464.00,0.0139
3463.00,0.0140
3462.00,0.0142
3461.00,0.0143
3460.00,0.0145
3459.00,0.0147
3458.00,0.0148
3457.00,0.0150
3456.00,0.0151
3455.00,0.0153
3454.00,0.0154
3453.00,0.0156
3452.00,0.0158
3451.00,0.0159
3450.00,0.0160
3449.00,0.0162
3448.00,0.0163
3447.00,0.0165
3446.00,0.0167
3445.00,0.0169
3444.00,0.0171
3443.00,0.0173
3442.00,0.0175
3441.00,0.0177
3440.00,0.0179
3439.00,0.0181
3438.00,0.0183
3437.00,0.0185
3436.00,0.0187
3435.00,0.0189
3434.00,0.0191
3433.00,0.0194
3432.00,0.0196
3431.00,0.0199
3430.00,0.0202
3429.00,0.0205
3428.00,0.0207
3427.00,0.0210
3426.00,0.0212
3425.00,0.0214
3424.00,0.0217
3423.00,0.0220
3422.00,0.0223
3421.00,0.0226
3420.00,0.0229
3419.00,0.0231
3418.00,0.0234
3417.00,0.0236
3416.00,0.0239
3415.00,0.0242
3414.00,0.0244
3413.00,0.0246
3412.00,0.0249
3411.00,0.0251
3410.00,0.0253
3409.00,0.0254
3408.00,0.0256
3407.00,0.0257
3406.00,0.0258
3405.00,0.0259
3404.00,0.0260
3403.00,0.0261
3402.00,0.0262
3401.00,0.0262
3400.00,0.0263
3399.00,0.0262
3398.00,0.0262
3397.00,0.0261
3396.00,0.0261
3395.00,0.0260
3394.00,0.0259
3393.00,0.0258
3392.00,0.0258
3391.00,0.0257
3390.00,0.0256
3389.00,0.0254
3388.00,0.0253
3387.00,0.0251
3386.00,0.0250
3385.00,0.0248
3384.00,0.0247
3383.00,0.0245
3382.00,0.0243
3381.00,0.0242
3380.00,0.0240
3379.00,0.0238
3378.00,0.0236
3377.00,0.0235
3376.00,0.0233
3375.00,0.0231
3374.00,0.0230
3373.00,0.0228
3372.00,0.0227
3371.00,0.0225
3370.00,0.0223
3369.00,0.0222
3368.00,0.0220
3367.00,0.0219
3366.00,0.0218
3365.00,0.0217
3364.00,0.0216
3363.00,0.0214
3362.00,0.0213
3361.00,0.0212
3360.00,0.0210
3359.00,0.0210
3358.00,0.0209
3357.00,0.0208
3356.00,0.0207
3355.00,0.0206
3354.00,0.0205
3353.00,0.0204
3352.00,0.0203
3351.00,0.0203
3350.00,0.0202
3349.00,0.0201
3348.00,0.0201
3347.00,0.0200
3346.00,0.0199
3345.00,0.0199
3344.00,0.0199
3343.00,0.0198
3342.00,0.0198
3341.00,0.0197
3340.00,0.0197
3339.00,0.0197
3338.00,0.0197
3337.00,0.0197
3336.00,0.0197
3335.00,0.0197
3334.00,0.0196
3333.00,0.0196
3332.00,0.0196
3331.00,0.0196
3330.00,0.0196
3329.00,0.0196
3328.00,0.0196
3327.00,0.0196
3326.00,0.0197
3325.00,0.0197
3324.00,0.0197
3323.00,0.0197
3322.00,0.0198
3321.00,0.0198
3320.00,0.0199
3319.00,0.0199
3318.00,0.0200
3317.00,0.0200
3316.00,0.0201
3315.00,0.0201
3314.00,0.0202
3313.00,0.0203
3312.00,0.0203
3311.00,0.0204
3310.00,0.0204
3309.00,0.0204
3308.00,0.0205
3307.00,0.0206
3306.00,0.0206
3305.00,0.0207
3304.00,0.0208
3303.00,0.0209
3302.00,0.0210
3301.00,0.0211
3300.00,0.0212
3299.00,0.0213
3298.00,0.0214
3297.00,0.0215
3296.00,0.0216
3295.00,0.0217
3294.00,0.0218
3293.00,0.0219
3292.00,0.0220
3291.00,0.0221
3290.00,0.0222
3289.00,0.0223
3288.00,0.0224
3287.00,0.0225
3286.00,0.0226
3285.00,0.0227
3284.00,0.0228
3283.00,0.0229
3282.00,0.0230
3281.00,0.0231
3280.00,0.0232
3279.00,0.0233
3278.00,0.0234
3277.00,0.0235
3276.00,0.0235
3275.00,0.0236
3274.00,0.0238
3273.00,0.0239
3272.00,0.0240
3271.00,0.0241
3270.00,0.0242
3269.00,0.0243
3268.00,0.0244
3267.00,0.0245
3266.00,0.0246
3265.00,0.0247
3264.00,0.0248
3263.00,0.0249
3262.00,0.0249
3261.00,0.0250
3260.00,0.0251
3259.00,0.0252
3258.00,0.0253
3257.00,0.0254
3256.00,0.0255
3255.00,0.0257
3254.00,0.0258
3253.00,0.0259
3252.00,0.0260
3251.00,0.0261
3250.00,0.0262
3249.00,0.0262
3248.00,0.0263
3247.00,0.0263
3246.00,0.0264
3245.00,0.0265
3244.00,0.0266
3243.00,0.0267
3242.00,0.0267
3241.00,0.0268
3240.00,0.0268
3239.00,0.0269
3238.00,0.0268
3237.00,0.0268
3236.00,0.0268
3235.00,0.0267
3234.00,0.0267
3233.00,0.0267
3232.00,0.0268
3231.00,0.0268
3230.00,0.0268
3229.00,0.0268
3228.00,0.0268
3227.00,0.0267
3226.00,0.0267
3225.00,0.0266
3224.00,0.0265
3223.00,0.0265
3222.00,0.0264
3221.00,0.0264
3220.00,0.0263
3219.00,0.0263
3218.00,0.0262
3217.00,0.0261
3216.00,0.0259
3215.00,0.0258
3214.00,0.0257
3213.00,0.0255
3212.00,0.0254
3211.00,0.0253
3210.00,0.0252
3209.00,0.0251
3208.00,0.0249
3207.00,0.0248
3206.00,0.0247
3205.00,0.0245
3204.00,0.0244
3203.00,0.0242
3202.00,0.0240
3201.00,0.0239
3200.00,0.0237
3199.00,0.0235
3198.00,0.0234
3197.00,0.0232
3196.00,0.0230
3195.00,0.0229
3194.00,0.0227
3193.00,0.0226
3192.00,0.0224
3191.00,0.0222
3190.00,0.0220
3189.00,0.0218
3188.00,0.0217
3187.00,0.0215
3186.00,0.0214
3185.00,0.0212
3184.00,0.0211
3183.00,0.0209
3182.00,0.0208
3181.00,0.0206
3180.00,0.0204
3179.00,0.0203
3178.00,0.0201
3177.00,0.0199
3176.00,0.0198
3175.00,0.0196
3174.00,0.0195
3173.00,0.0193
3172.00,0.0191
3171.00,0.0190
3170.00,0.0188
3169.00,0.0186
3168.00,0.0184
3167.00,0.0183
3166.00,0.0181
3165.00,0.0179
3164.00,0.0178
3163.00,0.0176
3162.00,0.0175
3161.00,0.0173
3160.00,0.0172
3159.00,0.0170
3158.00,0.0168
3157.00,0.0166
3156.00,0.0164
3155.00,0.0162
3154.00,0.0160
3153.00,0.0158
3152.00,0.0157
3151.00,0.0156
3150.00,0.0155
3149.00,0.0154
3148.00,0.0152
3147.00,0.0151
3146.00,0.0150
3145.00,0.0149
3144.00,0.0147
3143.00,0.0146
3142.00,0.0144
3141.00,0.0142
3140.00,0.0141
3139.00,0.0139
3138.00,0.0138
3137.00,0.0138
3136.00,0.0137
3135.00,0.0136
3134.00,0.0135
3133.00,0.0134
3132.00,0.0133
3131.00,0.0132
3130.00,0.0131
3129.00,0.0130
3128.00,0.0129
3127.00,0.0128
3126.00,0.0128
3125.00,0.0127
3124.00,0.0126
3123.00,0.0125
3122.00,0.0124
3121.00,0.0123
3120.00,0.0123
3119.00,0.0122
3118.00,0.0121
3117.00,0.0120
3116.00,0.0119
3115.00,0.0119
3114.00,0.0118
3113.00,0.0117
3112.00,0.0116
3111.00,0.0115
3110.00,0.0114
3109.00,0.0113
3108.00,0.0111
3107.00,0.0110
3106.00,0.0109
3105.00,0.0109
3104.00,0.0108
3103.00,0.0107
3102.00,0.0106
3101.00,0.0106
3100.00,0.0105
3099.00,0.0105
3098.00,0.0105
3097.00,0.0105
3096.00,0.0105
3095.00,0.0105
3094.00,0.0105
3093.00,0.0105
3092.00,0.0105
3091.00,0.0105
3090.00,0.0106
3089.00,0.0106
3088.00,0.0107
3087.00,0.0107
3086.00,0.0107
3085.00,0.0107
3084.00,0.0107
3083.00,0.0107
3082.00,0.0107
3081.00,0.0107
3080.00,0.0106
3079.00,0.0106
3078.00,0.0106
3077.00,0.0105
3076.00,0.0105
3075.00,0.0105
3074.00,0.0104
3073.00,0.0104
3072.00,0.0103
3071.00,0.0103
3070.00,0.0103
3069.00,0.0103
3068.00,0.0102
3067.00,0.0102
3066.00,0.0102
3065.00,0.0102
3064.00,0.0102
3063.00,0.0102
3062.00,0.0103
3061.00,0.0103
3060.00,0.0103
3059.00,0.0103
3058.00,0.0103
3057.00,0.0104
3056.00,0.0104
3055.00,0.0104
3054.00,0.0104
3053.00,0.0104
3052.00,0.0104
3051.00,0.0104
3050.00,0.0104
3049.00,0.0104
3048.00,0.0104
3047.00,0.0103
3046.00,0.0103
3045.00,0.0102
3044.00,0.0102
3043.00,0.0102
3042.00,0.0103
3041.00,0.0104
3040.00,0.0104
3039.00,0.0105
3038.00,0.0106
3037.00,0.0108
3036.00,0.0109
3035.00,0.0110
3034.00,0.0111
3033.00,0.0111
3032.00,0.0111
3031.00,0.0111
3030.00,0.0110
3029.00,0.0109
3028.00,0.0108
3027.00,0.0107
3026.00,0.0105
3025.00,0.0104
3024.00,0.0102
3023.00,0.0101
3022.00,0.0100
3021.00,0.0099
3020.00,0.0098
3019.00,0.0097
3018.00,0.0097
3017.00,0.0096
3016.00,0.0096
3015.00,0.0095
3014.00,0.0096
3013.00,0.0096
3012.00,0.0097
3011.00,0.0097
3010.00,0.0098
3009.00,0.0099
3008.00,0.0100
3007.00,0.0102
3006.00,0.0103
3005.00,0.0105
3004.00,0.0108
3003.00,0.0111
3002.00,0.0114
3001.00,0.0117
3000.00,0.0121
2999.00,0.0125
2998.00,0.0129
2997.00,0.0134
2996.00,0.0140
2995.00,0.0145
2994.00,0.0150
2993.00,0.0154
2992.00,0.0158
2991.00,0.0161
2990.00,0.0164
2989.00,0.0167
2988.00,0.0170
2987.00,0.0174
2986.00,0.0178
2985.00,0.0184
2984.00,0.0191
2983.00,0.0199
2982.00,0.0208
2981.00,0.0218
2980.00,0.0227
2979.00,0.0234
2978.00,0.0238
2977.00,0.0240
2976.00,0.0242
2975.00,0.0246
2974.00,0.0254
2973.00,0.0264
2972.00,0.0277
2971.00,0.0288
2970.00,0.0298
2969.00,0.0304
2968.00,0.0309
2967.00,0.0313
2966.00,0.0317
2965.00,0.0322
2964.00,0.0329
2963.00,0.0336
2962.00,0.0342
2961.00,0.0347
2960.00,0.0350
2959.00,0.0349
2958.00,0.0344
2957.00,0.0336
2956.00,0.0326
2955.00,0.0315
2954.00,0.0304
2953.00,0.0294
2952.00,0.0285
2951.00,0.0278
2950.00,0.0272
2949.00,0.0269
2948.00,0.0268
2947.00,0.0270
2946.00,0.0273
2945.00,0.0279
2944.00,0.0285
2943.00,0.0293
2942.00,0.0301
2941.00,0.0311
2940.00,0.0322
2939.00,0.0335
2938.00,0.0350
2937.00,0.0368
2936.00,0.0388
2935.00,0.0410
2934.00,0.0432
2933.00,0.0456
2932.00,0.0479
2931.00,0.0502
2930.00,0.0522
2929.00,0.0538
2928.00,0.0549
2927.00,0.0554
2926.00,0.0554
2925.00,0.0548
2924.00,0.0539
2923.00,0.0526
2922.00,0.0511
2921.00,0.0495
2920.00,0.0477
2919.00,0.0460
2918.00,0.0442
2917.00,0.0425
2916.00,0.0409
2915.00,0.0393
2914.00,0.0379
2913.00,0.0367
2912.00,0.0355
2911.00,0.0345
2910.00,0.0335
2909.00,0.0325
2908.00,0.0316
2907.00,0.0308
2906.00,0.0300
2905.00,0.0293
2904.00,0.0286
2903.00,0.0280
2902.00,0.0273
2901.00,0.0267
2900.00,0.0261
2899.00,0.0255
2898.00,0.0250
2897.00,0.0244
2896.00,0.0240
2895.00,0.0236
2894.00,0.0232
2893.00,0.0229
2892.00,0.0225
2891.00,0.0222
2890.00,0.0219
2889.00,0.0216
2888.00,0.0213
2887.00,0.0211
2886.00,0.0209
2885.00,0.0207
2884.00,0.0206
2883.00,0.0206
2882.00,0.0207
2881.00,0.0209
2880.00,0.0213
2879.00,0.0218
2878.00,0.0224
2877.00,0.0232
2876.00,0.0240
2875.00,0.0248
2874.00,0.0255
2873.00,0.0260
2872.00,0.0263
2871.00,0.0263
2870.00,0.0262
2869.00,0.0261
2868.00,0.0259
2867.00,0.0259
2866.00,0.0262
2865.00,0.0267
2864.00,0.0276
2863.00,0.0289
2862.00,0.0304
2861.00,0.0322
2860.00,0.0341
2859.00,0.0358
2858.00,0.0373
2857.00,0.0384
2856.00,0.0390
2855.00,0.0391
2854.00,0.0389
2853.00,0.0383
2852.00,0.0374
2851.00,0.0361
2850.00,0.0344
2849.00,0.0324
2848.00,0.0303
2847.00,0.0283
2846.00,0.0264
2845.00,0.0246
2844.00,0.0230
2843.00,0.0216
2842.00,0.0203
2841.00,0.0192
2840.00,0.0182
2839.00,0.0174
2838.00,0.0167
2837.00,0.0161
2836.00,0.0156
2835.00,0.0151
2834.00,0.0147
2833.00,0.0143
2832.00,0.0140
2831.00,0.0137
2830.00,0.0133
2829.00,0.0130
2828.00,0.0128
2827.00,0.0125
2826.00,0.0123
2825.00,0.0121
2824.00,0.0119
2823.00,0.0117
2822.00,0.0115
2821.00,0.0114
2820.00,0.0112
2819.00,0.0111
2818.00,0.0109
2817.00,0.0108
2816.00,0.0107
2815.00,0.0106
2814.00,0.0105
2813.00,0.0104
2812.00,0.0103
2811.00,0.0102
2810.00,0.0102
2809.00,0.0101
2808.00,0.0101
2807.00,0.0100
2806.00,0.0099
2805.00,0.0099
2804.00,0.0098
2803.00,0.0097
2802.00,0.0097
2801.00,0.0096
2800.00,0.0095
2799.00,0.0095
2798.00,0.0094
2797.00,0.0093
2796.00,0.0093
2795.00,0.0092
2794.00,0.0092
2793.00,0.0091
2792.00,0.0090
2791.00,0.0089
2790.00,0.0089
2789.00,0.0088
2788.00,0.0088
2787.00,0.0087
2786.00,0.0087
2785.00,0.0086
2784.00,0.0086
2783.00,0.0086
2782.00,0.0085
2781.00,0.0085
2780.00,0.0085
2779.00,0.0084
2778.00,0.0084
2777.00,0.0083
2776.00,0.0083
2775.00,0.0083
2774.00,0.0082
2773.00,0.0082
2772.00,0.0082
2771.00,0.0082
2770.00,0.0082
2769.00,0.0082
2768.00,0.0082
2767.00,0.0082
2766.00,0.0082
2765.00,0.0081
2764.00,0.0081
2763.00,0.0081
2762.00,0.0081
2761.00,0.0081
2760.00,0.0081
2759.00,0.0081
2758.00,0.0081
2757.00,0.0081
