Created as New Dataset,Sample 638 By YargerLab Date Saturday, June 07 2025
cm-1,A
4000.00,0.0087
3999.00,0.0087
3998.00,0.0087
3997.00,0.0087
3996.00,0.0087
3995.00,0.0087
3994.00,0.0087
3993.00,0.0087
3992.00,0.0087
3991.00,0.0087
3990.00,0.0087
3989.00,0.0087
3988.00,0.0087
3987.00,0.0087
3986.00,0.0087
3985.00,0.0087
3984.00,0.0087
3983.00,0.0087
3982.00,0.0087
3981.00,0.0087
3980.00,0.0087
3979.00,0.0087
3978.00,0.0086
3977.00,0.0086
3976.00,0.0086
3975.00,0.0086
3974.00,0.0086
3973.00,0.0086
3972.00,0.0087
3971.00,0.0086
3970.00,0.0086
3969.00,0.0086
3968.00,0.0086
3967.00,0.0086
3966.00,0.0086
3965.00,0.0086
3964.00,0.0086
3963.00,0.0086
3962.00,0.0085
3961.00,0.0085
3960.00,0.0085
3959.00,0.0085
3958.00,0.0086
3957.00,0.0086
3956.00,0.0086
3955.00,0.0086
3954.00,0.0085
3953.00,0.0085
3952.00,0.0085
3951.00,0.0085
3950.00,0.0085
3949.00,0.0085
3948.00,0.0084
3947.00,0.0084
3946.00,0.0084
3945.00,0.0084
3944.00,0.0084
3943.00,0.0085
3942.00,0.0085
3941.00,0.0085
3940.00,0.0085
3939.00,0.0085
3938.00,0.0085
3937.00,0.0085
3936.00,0.0085
3935.00,0.0084
3934.00,0.0084
3933.00,0.0083
3932.00,0.0084
3931.00,0.0085
3930.00,0.0085
3929.00,0.0086
3928.00,0.0086
3927.00,0.0086
3926.00,0.0087
3925.00,0.0087
3924.00,0.0087
3923.00,0.0087
3922.00,0.0086
3921.00,0.0085
3920.00,0.0084
3919.00,0.0084
3918.00,0.0084
3917.00,0.0084
3916.00,0.0084
3915.00,0.0085
3914.00,0.0085
3913.00,0.0085
3912.00,0.0086
3911.00,0.0086
3910.00,0.0086
3909.00,0.0086
3908.00,0.0085
3907.00,0.0085
3906.00,0.0084
3905.00,0.0082
3904.00,0.0080
3903.00,0.0078
3902.00,0.0077
3901.00,0.0076
3900.00,0.0077
3899.00,0.0078
3898.00,0.0079
3897.00,0.0080
3896.00,0.0080
3895.00,0.0081
3894.00,0.0082
3893.00,0.0083
3892.00,0.0083
3891.00,0.0083
3890.00,0.0082
3889.00,0.0081
3888.00,0.0079
3887.00,0.0078
3886.00,0.0078
3885.00,0.0079
3884.00,0.0079
3883.00,0.0078
3882.00,0.0078
3881.00,0.0078
3880.00,0.0079
3879.00,0.0079
3878.00,0.0079
3877.00,0.0079
3876.00,0.0078
3875.00,0.0079
3874.00,0.0080
3873.00,0.0080
3872.00,0.0079
3871.00,0.0078
3870.00,0.0077
3869.00,0.0077
3868.00,0.0077
3867.00,0.0077
3866.00,0.0076
3865.00,0.0076
3864.00,0.0077
3863.00,0.0078
3862.00,0.0077
3861.00,0.0076
3860.00,0.0077
3859.00,0.0078
3858.00,0.0080
3857.00,0.0083
3856.00,0.0084
3855.00,0.0083
3854.00,0.0082
3853.00,0.0080
3852.00,0.0078
3851.00,0.0077
3850.00,0.0076
3849.00,0.0076
3848.00,0.0076
3847.00,0.0077
3846.00,0.0077
3845.00,0.0077
3844.00,0.0077
3843.00,0.0076
3842.00,0.0076
3841.00,0.0076
3840.00,0.0076
3839.00,0.0076
3838.00,0.0076
3837.00,0.0076
3836.00,0.0076
3835.00,0.0076
3834.00,0.0076
3833.00,0.0076
3832.00,0.0076
3831.00,0.0077
3830.00,0.0077
3829.00,0.0077
3828.00,0.0077
3827.00,0.0077
3826.00,0.0078
3825.00,0.0078
3824.00,0.0077
3823.00,0.0075
3822.00,0.0075
3821.00,0.0076
3820.00,0.0077
3819.00,0.0077
3818.00,0.0076
3817.00,0.0076
3816.00,0.0076
3815.00,0.0078
3814.00,0.0079
3813.00,0.0079
3812.00,0.0079
3811.00,0.0080
3810.00,0.0081
3809.00,0.0080
3808.00,0.0080
3807.00,0.0079
3806.00,0.0078
3805.00,0.0078
3804.00,0.0077
3803.00,0.0076
3802.00,0.0076
3801.00,0.0077
3800.00,0.0077
3799.00,0.0077
3798.00,0.0076
3797.00,0.0076
3796.00,0.0077
3795.00,0.0079
3794.00,0.0079
3793.00,0.0080
3792.00,0.0080
3791.00,0.0081
3790.00,0.0082
3789.00,0.0082
3788.00,0.0082
3787.00,0.0082
3786.00,0.0081
3785.00,0.0081
3784.00,0.0081
3783.00,0.0080
3782.00,0.0079
3781.00,0.0079
3780.00,0.0079
3779.00,0.0079
3778.00,0.0079
3777.00,0.0079
3776.00,0.0079
3775.00,0.0079
3774.00,0.0080
3773.00,0.0079
3772.00,0.0079
3771.00,0.0078
3770.00,0.0077
3769.00,0.0077
3768.00,0.0076
3767.00,0.0076
3766.00,0.0076
3765.00,0.0076
3764.00,0.0077
3763.00,0.0077
3762.00,0.0076
3761.00,0.0076
3760.00,0.0076
3759.00,0.0076
3758.00,0.0076
3757.00,0.0075
3756.00,0.0075
3755.00,0.0074
3754.00,0.0073
3753.00,0.0073
3752.00,0.0072
3751.00,0.0071
3750.00,0.0070
3749.00,0.0069
3748.00,0.0069
3747.00,0.0069
3746.00,0.0068
3745.00,0.0068
3744.00,0.0068
3743.00,0.0069
3742.00,0.0069
3741.00,0.0068
3740.00,0.0067
3739.00,0.0066
3738.00,0.0066
3737.00,0.0065
3736.00,0.0066
3735.00,0.0067
3734.00,0.0068
3733.00,0.0068
3732.00,0.0068
3731.00,0.0069
3730.00,0.0071
3729.00,0.0072
3728.00,0.0072
3727.00,0.0072
3726.00,0.0072
3725.00,0.0073
3724.00,0.0073
3723.00,0.0073
3722.00,0.0073
3721.00,0.0074
3720.00,0.0074
3719.00,0.0075
3718.00,0.0075
3717.00,0.0075
3716.00,0.0075
3715.00,0.0074
3714.00,0.0073
3713.00,0.0073
3712.00,0.0072
3711.00,0.0072
3710.00,0.0072
3709.00,0.0072
3708.00,0.0072
3707.00,0.0072
3706.00,0.0073
3705.00,0.0073
3704.00,0.0073
3703.00,0.0074
3702.00,0.0074
3701.00,0.0075
3700.00,0.0075
3699.00,0.0074
3698.00,0.0074
3697.00,0.0074
3696.00,0.0075
3695.00,0.0075
3694.00,0.0074
3693.00,0.0074
3692.00,0.0074
3691.00,0.0074
3690.00,0.0073
3689.00,0.0072
3688.00,0.0071
3687.00,0.0071
3686.00,0.0071
3685.00,0.0072
3684.00,0.0072
3683.00,0.0072
3682.00,0.0072
3681.00,0.0071
3680.00,0.0071
3679.00,0.0071
3678.00,0.0071
3677.00,0.0069
3676.00,0.0068
3675.00,0.0068
3674.00,0.0068
3673.00,0.0068
3672.00,0.0066
3671.00,0.0066
3670.00,0.0067
3669.00,0.0068
3668.00,0.0069
3667.00,0.0069
3666.00,0.0069
3665.00,0.0070
3664.00,0.0072
3663.00,0.0073
3662.00,0.0073
3661.00,0.0073
3660.00,0.0073
3659.00,0.0073
3658.00,0.0073
3657.00,0.0072
3656.00,0.0071
3655.00,0.0070
3654.00,0.0069
3653.00,0.0067
3652.00,0.0065
3651.00,0.0064
3650.00,0.0064
3649.00,0.0063
3648.00,0.0063
3647.00,0.0063
3646.00,0.0064
3645.00,0.0065
3644.00,0.0067
3643.00,0.0068
3642.00,0.0070
3641.00,0.0071
3640.00,0.0071
3639.00,0.0071
3638.00,0.0071
3637.00,0.0070
3636.00,0.0069
3635.00,0.0069
3634.00,0.0069
3633.00,0.0069
3632.00,0.0068
3631.00,0.0067
3630.00,0.0066
3629.00,0.0065
3628.00,0.0065
3627.00,0.0064
3626.00,0.0064
3625.00,0.0065
3624.00,0.0065
3623.00,0.0066
3622.00,0.0067
3621.00,0.0068
3620.00,0.0068
3619.00,0.0067
3618.00,0.0066
3617.00,0.0065
3616.00,0.0064
3615.00,0.0063
3614.00,0.0063
3613.00,0.0063
3612.00,0.0063
3611.00,0.0063
3610.00,0.0062
3609.00,0.0063
3608.00,0.0064
3607.00,0.0065
3606.00,0.0066
3605.00,0.0066
3604.00,0.0067
3603.00,0.0067
3602.00,0.0068
3601.00,0.0068
3600.00,0.0068
3599.00,0.0067
3598.00,0.0067
3597.00,0.0067
3596.00,0.0066
3595.00,0.0067
3594.00,0.0067
3593.00,0.0066
3592.00,0.0066
3591.00,0.0065
3590.00,0.0064
3589.00,0.0064
3588.00,0.0064
3587.00,0.0065
3586.00,0.0065
3585.00,0.0065
3584.00,0.0065
3583.00,0.0066
3582.00,0.0066
3581.00,0.0067
3580.00,0.0068
3579.00,0.0068
3578.00,0.0068
3577.00,0.0069
3576.00,0.0069
3575.00,0.0069
3574.00,0.0069
3573.00,0.0068
3572.00,0.0067
3571.00,0.0066
3570.00,0.0065
3569.00,0.0063
3568.00,0.0063
3567.00,0.0063
3566.00,0.0063
3565.00,0.0064
3564.00,0.0064
3563.00,0.0065
3562.00,0.0066
3561.00,0.0067
3560.00,0.0067
3559.00,0.0068
3558.00,0.0069
3557.00,0.0069
3556.00,0.0068
3555.00,0.0068
3554.00,0.0068
3553.00,0.0068
3552.00,0.0069
3551.00,0.0068
3550.00,0.0068
3549.00,0.0067
3548.00,0.0066
3547.00,0.0066
3546.00,0.0066
3545.00,0.0066
3544.00,0.0067
3543.00,0.0068
3542.00,0.0068
3541.00,0.0069
3540.00,0.0069
3539.00,0.0069
3538.00,0.0069
3537.00,0.0069
3536.00,0.0069
3535.00,0.0069
3534.00,0.0069
3533.00,0.0068
3532.00,0.0068
3531.00,0.0068
3530.00,0.0068
3529.00,0.0068
3528.00,0.0067
3527.00,0.0067
3526.00,0.0067
3525.00,0.0066
3524.00,0.0066
3523.00,0.0067
3522.00,0.0067
3521.00,0.0067
3520.00,0.0068
3519.00,0.0068
3518.00,0.0068
3517.00,0.0068
3516.00,0.0068
3515.00,0.0068
3514.00,0.0068
3513.00,0.0068
3512.00,0.0068
3511.00,0.0068
3510.00,0.0067
3509.00,0.0067
3508.00,0.0067
3507.00,0.0067
3506.00,0.0067
3505.00,0.0067
3504.00,0.0067
3503.00,0.0067
3502.00,0.0067
3501.00,0.0067
3500.00,0.0067
3499.00,0.0067
3498.00,0.0067
3497.00,0.0067
3496.00,0.0067
3495.00,0.0067
3494.00,0.0067
3493.00,0.0067
3492.00,0.0067
3491.00,0.0068
3490.00,0.0068
3489.00,0.0068
3488.00,0.0068
3487.00,0.0067
3486.00,0.0067
3485.00,0.0067
3484.00,0.0067
3483.00,0.0067
3482.00,0.0067
3481.00,0.0067
3480.00,0.0067
3479.00,0.0067
3478.00,0.0067
3477.00,0.0067
3476.00,0.0067
3475.00,0.0067
3474.00,0.0067
3473.00,0.0067
3472.00,0.0067
3471.00,0.0067
3470.00,0.0067
3469.00,0.0067
3468.00,0.0067
3467.00,0.0067
3466.00,0.0067
3465.00,0.0067
3464.00,0.0067
3463.00,0.0067
3462.00,0.0067
3461.00,0.0067
3460.00,0.0067
3459.00,0.0067
3458.00,0.0067
3457.00,0.0068
3456.00,0.0068
3455.00,0.0067
3454.00,0.0067
3453.00,0.0068
3452.00,0.0068
3451.00,0.0068
3450.00,0.0067
3449.00,0.0067
3448.00,0.0067
3447.00,0.0067
3446.00,0.0068
3445.00,0.0068
3444.00,0.0068
3443.00,0.0068
3442.00,0.0068
3441.00,0.0068
3440.00,0.0068
3439.00,0.0068
3438.00,0.0069
3437.00,0.0069
3436.00,0.0070
3435.00,0.0070
3434.00,0.0070
3433.00,0.0071
3432.00,0.0071
3431.00,0.0072
3430.00,0.0072
3429.00,0.0073
3428.00,0.0073
3427.00,0.0074
3426.00,0.0074
3425.00,0.0075
3424.00,0.0075
3423.00,0.0076
3422.00,0.0077
3421.00,0.0078
3420.00,0.0079
3419.00,0.0080
3418.00,0.0081
3417.00,0.0082
3416.00,0.0083
3415.00,0.0084
3414.00,0.0085
3413.00,0.0087
3412.00,0.0088
3411.00,0.0090
3410.00,0.0092
3409.00,0.0095
3408.00,0.0098
3407.00,0.0101
3406.00,0.0103
3405.00,0.0106
3404.00,0.0108
3403.00,0.0111
3402.00,0.0113
3401.00,0.0117
3400.00,0.0122
3399.00,0.0128
3398.00,0.0134
3397.00,0.0141
3396.00,0.0147
3395.00,0.0154
3394.00,0.0160
3393.00,0.0168
3392.00,0.0178
3391.00,0.0189
3390.00,0.0202
3389.00,0.0216
3388.00,0.0232
3387.00,0.0249
3386.00,0.0268
3385.00,0.0289
3384.00,0.0312
3383.00,0.0336
3382.00,0.0363
3381.00,0.0392
3380.00,0.0422
3379.00,0.0454
3378.00,0.0486
3377.00,0.0518
3376.00,0.0548
3375.00,0.0575
3374.00,0.0598
3373.00,0.0617
3372.00,0.0630
3371.00,0.0638
3370.00,0.0641
3369.00,0.0639
3368.00,0.0635
3367.00,0.0627
3366.00,0.0616
3365.00,0.0603
3364.00,0.0587
3363.00,0.0570
3362.00,0.0551
3361.00,0.0532
3360.00,0.0513
3359.00,0.0493
3358.00,0.0474
3357.00,0.0456
3356.00,0.0437
3355.00,0.0419
3354.00,0.0401
3353.00,0.0384
3352.00,0.0368
3351.00,0.0353
3350.00,0.0339
3349.00,0.0327
3348.00,0.0315
3347.00,0.0303
3346.00,0.0293
3345.00,0.0283
3344.00,0.0273
3343.00,0.0265
3342.00,0.0257
3341.00,0.0249
3340.00,0.0242
3339.00,0.0235
3338.00,0.0230
3337.00,0.0224
3336.00,0.0219
3335.00,0.0214
3334.00,0.0210
3333.00,0.0205
3332.00,0.0201
3331.00,0.0198
3330.00,0.0194
3329.00,0.0191
3328.00,0.0188
3327.00,0.0185
3326.00,0.0182
3325.00,0.0180
3324.00,0.0178
3323.00,0.0176
3322.00,0.0174
3321.00,0.0172
3320.00,0.0170
3319.00,0.0169
3318.00,0.0167
3317.00,0.0166
3316.00,0.0164
3315.00,0.0163
3314.00,0.0161
3313.00,0.0159
3312.00,0.0158
3311.00,0.0156
3310.00,0.0155
3309.00,0.0153
3308.00,0.0152
3307.00,0.0151
3306.00,0.0150
3305.00,0.0149
3304.00,0.0148
3303.00,0.0148
3302.00,0.0147
3301.00,0.0146
3300.00,0.0144
3299.00,0.0143
3298.00,0.0141
3297.00,0.0139
3296.00,0.0137
3295.00,0.0136
3294.00,0.0134
3293.00,0.0133
3292.00,0.0132
3291.00,0.0131
3290.00,0.0130
3289.00,0.0129
3288.00,0.0128
3287.00,0.0127
3286.00,0.0125
3285.00,0.0124
3284.00,0.0123
3283.00,0.0121
3282.00,0.0120
3281.00,0.0119
3280.00,0.0117
3279.00,0.0116
3278.00,0.0114
3277.00,0.0113
3276.00,0.0112
3275.00,0.0111
3274.00,0.0109
3273.00,0.0109
3272.00,0.0108
3271.00,0.0107
3270.00,0.0107
3269.00,0.0107
3268.00,0.0108
3267.00,0.0108
3266.00,0.0108
3265.00,0.0108
3264.00,0.0107
3263.00,0.0107
3262.00,0.0107
3261.00,0.0107
3260.00,0.0106
3259.00,0.0106
3258.00,0.0105
3257.00,0.0105
3256.00,0.0105
3255.00,0.0106
3254.00,0.0106
3253.00,0.0107
3252.00,0.0107
3251.00,0.0107
3250.00,0.0107
3249.00,0.0106
3248.00,0.0106
3247.00,0.0106
3246.00,0.0106
3245.00,0.0107
3244.00,0.0108
3243.00,0.0109
3242.00,0.0109
3241.00,0.0109
3240.00,0.0110
3239.00,0.0110
3238.00,0.0110
3237.00,0.0109
3236.00,0.0108
3235.00,0.0107
3234.00,0.0107
3233.00,0.0107
3232.00,0.0107
3231.00,0.0108
3230.00,0.0108
3229.00,0.0108
3228.00,0.0107
3227.00,0.0107
3226.00,0.0106
3225.00,0.0105
3224.00,0.0104
3223.00,0.0103
3222.00,0.0103
3221.00,0.0102
3220.00,0.0100
3219.00,0.0099
3218.00,0.0098
3217.00,0.0097
3216.00,0.0097
3215.00,0.0096
3214.00,0.0096
3213.00,0.0095
3212.00,0.0095
3211.00,0.0094
3210.00,0.0094
3209.00,0.0093
3208.00,0.0092
3207.00,0.0092
3206.00,0.0091
3205.00,0.0090
3204.00,0.0090
3203.00,0.0089
3202.00,0.0089
3201.00,0.0089
3200.00,0.0089
3199.00,0.0088
3198.00,0.0088
3197.00,0.0088
3196.00,0.0087
3195.00,0.0087
3194.00,0.0087
3193.00,0.0087
3192.00,0.0086
3191.00,0.0086
3190.00,0.0086
3189.00,0.0085
3188.00,0.0085
3187.00,0.0085
3186.00,0.0085
3185.00,0.0085
3184.00,0.0085
3183.00,0.0085
3182.00,0.0085
3181.00,0.0085
3180.00,0.0085
3179.00,0.0085
3178.00,0.0084
3177.00,0.0084
3176.00,0.0084
3175.00,0.0084
3174.00,0.0084
3173.00,0.0084
3172.00,0.0084
3171.00,0.0083
3170.00,0.0083
3169.00,0.0083
3168.00,0.0083
3167.00,0.0083
3166.00,0.0084
3165.00,0.0084
3164.00,0.0083
3163.00,0.0083
3162.00,0.0083
3161.00,0.0083
3160.00,0.0083
3159.00,0.0083
3158.00,0.0083
3157.00,0.0082
3156.00,0.0082
3155.00,0.0082
3154.00,0.0082
3153.00,0.0082
3152.00,0.0082
3151.00,0.0083
3150.00,0.0083
3149.00,0.0084
3148.00,0.0084
3147.00,0.0084
3146.00,0.0085
3145.00,0.0085
3144.00,0.0085
3143.00,0.0085
3142.00,0.0085
3141.00,0.0085
3140.00,0.0085
3139.00,0.0085
3138.00,0.0085
3137.00,0.0085
3136.00,0.0086
3135.00,0.0086
3134.00,0.0086
3133.00,0.0087
3132.00,0.0087
3131.00,0.0087
3130.00,0.0087
3129.00,0.0088
3128.00,0.0088
3127.00,0.0089
3126.00,0.0090
3125.00,0.0090
3124.00,0.0090
3123.00,0.0090
3122.00,0.0090
3121.00,0.0091
3120.00,0.0091
3119.00,0.0091
3118.00,0.0092
3117.00,0.0093
3116.00,0.0094
3115.00,0.0095
3114.00,0.0096
3113.00,0.0097
3112.00,0.0098
3111.00,0.0099
3110.00,0.0100
3109.00,0.0101
3108.00,0.0102
3107.00,0.0103
3106.00,0.0104
3105.00,0.0104
3104.00,0.0105
3103.00,0.0106
3102.00,0.0106
3101.00,0.0107
3100.00,0.0108
3099.00,0.0108
3098.00,0.0108
3097.00,0.0108
3096.00,0.0108
3095.00,0.0107
3094.00,0.0107
3093.00,0.0106
3092.00,0.0106
3091.00,0.0105
3090.00,0.0104
3089.00,0.0104
3088.00,0.0103
3087.00,0.0103
3086.00,0.0102
3085.00,0.0102
3084.00,0.0102
3083.00,0.0102
3082.00,0.0102
3081.00,0.0102
3080.00,0.0102
3079.00,0.0103
3078.00,0.0103
3077.00,0.0104
3076.00,0.0105
3075.00,0.0107
3074.00,0.0108
3073.00,0.0110
3072.00,0.0112
3071.00,0.0113
3070.00,0.0114
3069.00,0.0113
3068.00,0.0112
3067.00,0.0110
3066.00,0.0107
3065.00,0.0105
3064.00,0.0102
3063.00,0.0100
3062.00,0.0098
3061.00,0.0096
3060.00,0.0095
3059.00,0.0094
3058.00,0.0094
3057.00,0.0094
3056.00,0.0095
3055.00,0.0095
3054.00,0.0096
3053.00,0.0096
3052.00,0.0096
3051.00,0.0095
3050.00,0.0095
3049.00,0.0094
3048.00,0.0093
3047.00,0.0092
3046.00,0.0091
3045.00,0.0090
3044.00,0.0090
3043.00,0.0089
3042.00,0.0089
3041.00,0.0089
3040.00,0.0089
3039.00,0.0089
3038.00,0.0090
3037.00,0.0090
3036.00,0.0089
3035.00,0.0089
3034.00,0.0089
3033.00,0.0090
3032.00,0.0091
3031.00,0.0092
3030.00,0.0093
3029.00,0.0094
3028.00,0.0096
3027.00,0.0097
3026.00,0.0098
3025.00,0.0100
3024.00,0.0101
3023.00,0.0103
3022.00,0.0104
3021.00,0.0106
3020.00,0.0107
3019.00,0.0108
3018.00,0.0110
3017.00,0.0111
3016.00,0.0112
3015.00,0.0113
3014.00,0.0114
3013.00,0.0115
3012.00,0.0117
3011.00,0.0120
3010.00,0.0122
3009.00,0.0125
3008.00,0.0129
3007.00,0.0132
3006.00,0.0135
3005.00,0.0139
3004.00,0.0142
3003.00,0.0145
3002.00,0.0149
3001.00,0.0153
3000.00,0.0157
2999.00,0.0162
2998.00,0.0167
2997.00,0.0172
2996.00,0.0178
2995.00,0.0184
2994.00,0.0189
2993.00,0.0194
2992.00,0.0199
2991.00,0.0204
2990.00,0.0207
2989.00,0.0209
2988.00,0.0211
2987.00,0.0212
2986.00,0.0213
2985.00,0.0215
2984.00,0.0216
2983.00,0.0217
2982.00,0.0218
2981.00,0.0218
2980.00,0.0216
2979.00,0.0213
2978.00,0.0208
2977.00,0.0202
2976.00,0.0195
2975.00,0.0187
2974.00,0.0181
2973.00,0.0175
2972.00,0.0170
2971.00,0.0167
2970.00,0.0164
2969.00,0.0163
2968.00,0.0162
2967.00,0.0162
2966.00,0.0163
2965.00,0.0164
2964.00,0.0167
2963.00,0.0171
2962.00,0.0174
2961.00,0.0179
2960.00,0.0183
2959.00,0.0188
2958.00,0.0192
2957.00,0.0197
2956.00,0.0202
2955.00,0.0206
2954.00,0.0212
2953.00,0.0218
2952.00,0.0224
2951.00,0.0230
2950.00,0.0234
2949.00,0.0237
2948.00,0.0238
2947.00,0.0238
2946.00,0.0235
2945.00,0.0232
2944.00,0.0229
2943.00,0.0225
2942.00,0.0222
2941.00,0.0218
2940.00,0.0213
2939.00,0.0209
2938.00,0.0205
2937.00,0.0202
2936.00,0.0198
2935.00,0.0195
2934.00,0.0190
2933.00,0.0185
2932.00,0.0180
2931.00,0.0174
2930.00,0.0169
2929.00,0.0165
2928.00,0.0161
2927.00,0.0158
2926.00,0.0154
2925.00,0.0151
2924.00,0.0148
2923.00,0.0145
2922.00,0.0142
2921.00,0.0139
2920.00,0.0137
2919.00,0.0134
2918.00,0.0133
2917.00,0.0131
2916.00,0.0131
2915.00,0.0130
2914.00,0.0130
2913.00,0.0130
2912.00,0.0131
2911.00,0.0131
2910.00,0.0132
2909.00,0.0133
2908.00,0.0134
2907.00,0.0135
2906.00,0.0135
2905.00,0.0136
2904.00,0.0136
2903.00,0.0136
2902.00,0.0136
2901.00,0.0136
2900.00,0.0136
2899.00,0.0135
2898.00,0.0134
2897.00,0.0133
2896.00,0.0132
2895.00,0.0131
2894.00,0.0130
2893.00,0.0129
2892.00,0.0128
2891.00,0.0127
2890.00,0.0126
2889.00,0.0125
2888.00,0.0124
2887.00,0.0124
2886.00,0.0123
2885.00,0.0122
2884.00,0.0121
2883.00,0.0121
2882.00,0.0120
2881.00,0.0119
2880.00,0.0119
2879.00,0.0118
2878.00,0.0117
2877.00,0.0116
2876.00,0.0115
2875.00,0.0114
2874.00,0.0113
2873.00,0.0112
2872.00,0.0111
2871.00,0.0110
2870.00,0.0108
2869.00,0.0107
2868.00,0.0105
2867.00,0.0104
2866.00,0.0103
2865.00,0.0103
2864.00,0.0102
2863.00,0.0101
2862.00,0.0100
2861.00,0.0100
2860.00,0.0099
2859.00,0.0099
2858.00,0.0100
2857.00,0.0100
2856.00,0.0100
2855.00,0.0101
2854.00,0.0101
2853.00,0.0101
2852.00,0.0102
2851.00,0.0101
2850.00,0.0101
2849.00,0.0101
2848.00,0.0101
2847.00,0.0101
2846.00,0.0102
2845.00,0.0102
2844.00,0.0103
2843.00,0.0104
2842.00,0.0105
2841.00,0.0105
2840.00,0.0105
2839.00,0.0106
2838.00,0.0106
2837.00,0.0106
2836.00,0.0106
2835.00,0.0105
2834.00,0.0104
2833.00,0.0103
2832.00,0.0102
2831.00,0.0102
2830.00,0.0101
2829.00,0.0100
2828.00,0.0099
2827.00,0.0098
2826.00,0.0097
2825.00,0.0096
2824.00,0.0095
2823.00,0.0094
2822.00,0.0093
2821.00,0.0093
2820.00,0.0093
2819.00,0.0093
2818.00,0.0094
2817.00,0.0094
2816.00,0.0094
2815.00,0.0094
2814.00,0.0094
2813.00,0.0095
2812.00,0.0095
2811.00,0.0096
2810.00,0.0096
2809.00,0.0096
2808.00,0.0096
2807.00,0.0097
2806.00,0.0097
2805.00,0.0097
2804.00,0.0097
2803.00,0.0097
2802.00,0.0096
2801.00,0.0096
2800.00,0.0095
2799.00,0.0095
2798.00,0.0094
2797.00,0.0093
2796.00,0.0093
2795.00,0.0092
2794.00,0.0091
2793.00,0.0090
2792.00,0.0089
2791.00,0.0088
2790.00,0.0087
2789.00,0.0086
2788.00,0.0085
2787.00,0.0084
2786.00,0.0083
2785.00,0.0083
2784.00,0.0082
2783.00,0.0082
2782.00,0.0081
2781.00,0.0080
2780.00,0.0080
2779.00,0.0079
2778.00,0.0079
2777.00,0.0079
2776.00,0.0078
2775.00,0.0078
2774.00,0.0078
2773.00,0.0077
2772.00,0.0078
2771.00,0.0078
2770.00,0.0078
2769.00,0.0078
2768.00,0.0078
2767.00,0.0078
2766.00,0.0078
2765.00,0.0078
2764.00,0.0078
2763.00,0.0078
2762.00,0.0078
2761.00,0.0078
2760.00,0.0078
2759.00,0.0078
2758.00,0.0077
2757.00,0.0077
