Created as New Dataset,Sample 729 By YargerLab Date Thursday, June 26 2025
cm-1,A
4000.00,0.0003
3999.00,0.0004
3998.00,0.0004
3997.00,0.0004
3996.00,0.0004
3995.00,0.0004
3994.00,0.0004
3993.00,0.0004
3992.00,0.0004
3991.00,0.0004
3990.00,0.0004
3989.00,0.0004
3988.00,0.0004
3987.00,0.0004
3986.00,0.0004
3985.00,0.0004
3984.00,0.0004
3983.00,0.0004
3982.00,0.0004
3981.00,0.0004
3980.00,0.0004
3979.00,0.0004
3978.00,0.0003
3977.00,0.0003
3976.00,0.0004
3975.00,0.0004
3974.00,0.0004
3973.00,0.0004
3972.00,0.0004
3971.00,0.0003
3970.00,0.0003
3969.00,0.0003
3968.00,0.0003
3967.00,0.0003
3966.00,0.0003
3965.00,0.0003
3964.00,0.0003
3963.00,0.0003
3962.00,0.0003
3961.00,0.0003
3960.00,0.0003
3959.00,0.0004
3958.00,0.0004
3957.00,0.0004
3956.00,0.0004
3955.00,0.0004
3954.00,0.0003
3953.00,0.0003
3952.00,0.0003
3951.00,0.0003
3950.00,0.0003
3949.00,0.0003
3948.00,0.0003
3947.00,0.0004
3946.00,0.0004
3945.00,0.0003
3944.00,0.0003
3943.00,0.0003
3942.00,0.0003
3941.00,0.0003
3940.00,0.0003
3939.00,0.0003
3938.00,0.0003
3937.00,0.0003
3936.00,0.0003
3935.00,0.0003
3934.00,0.0003
3933.00,0.0003
3932.00,0.0003
3931.00,0.0003
3930.00,0.0003
3929.00,0.0003
3928.00,0.0003
3927.00,0.0003
3926.00,0.0003
3925.00,0.0003
3924.00,0.0003
3923.00,0.0003
3922.00,0.0002
3921.00,0.0002
3920.00,0.0002
3919.00,0.0002
3918.00,0.0002
3917.00,0.0003
3916.00,0.0003
3915.00,0.0003
3914.00,0.0003
3913.00,0.0003
3912.00,0.0003
3911.00,0.0003
3910.00,0.0003
3909.00,0.0003
3908.00,0.0003
3907.00,0.0002
3906.00,0.0002
3905.00,0.0002
3904.00,0.0001
3903.00,0.0001
3902.00,0.0002
3901.00,0.0002
3900.00,0.0002
3899.00,0.0002
3898.00,0.0003
3897.00,0.0003
3896.00,0.0002
3895.00,0.0002
3894.00,0.0002
3893.00,0.0002
3892.00,0.0002
3891.00,0.0002
3890.00,0.0002
3889.00,0.0002
3888.00,0.0002
3887.00,0.0002
3886.00,0.0002
3885.00,0.0002
3884.00,0.0002
3883.00,0.0002
3882.00,0.0002
3881.00,0.0002
3880.00,0.0002
3879.00,0.0002
3878.00,0.0002
3877.00,0.0002
3876.00,0.0002
3875.00,0.0002
3874.00,0.0002
3873.00,0.0002
3872.00,0.0002
3871.00,0.0002
3870.00,0.0002
3869.00,0.0002
3868.00,0.0002
3867.00,0.0002
3866.00,0.0002
3865.00,0.0002
3864.00,0.0003
3863.00,0.0002
3862.00,0.0002
3861.00,0.0002
3860.00,0.0002
3859.00,0.0002
3858.00,0.0002
3857.00,0.0002
3856.00,0.0001
3855.00,0.0001
3854.00,0.0001
3853.00,0.0001
3852.00,0.0001
3851.00,0.0001
3850.00,0.0001
3849.00,0.0002
3848.00,0.0002
3847.00,0.0002
3846.00,0.0003
3845.00,0.0003
3844.00,0.0003
3843.00,0.0003
3842.00,0.0003
3841.00,0.0003
3840.00,0.0002
3839.00,0.0002
3838.00,0.0002
3837.00,0.0002
3836.00,0.0002
3835.00,0.0002
3834.00,0.0002
3833.00,0.0002
3832.00,0.0002
3831.00,0.0002
3830.00,0.0002
3829.00,0.0002
3828.00,0.0003
3827.00,0.0003
3826.00,0.0003
3825.00,0.0003
3824.00,0.0003
3823.00,0.0002
3822.00,0.0003
3821.00,0.0003
3820.00,0.0003
3819.00,0.0002
3818.00,0.0002
3817.00,0.0002
3816.00,0.0002
3815.00,0.0002
3814.00,0.0003
3813.00,0.0003
3812.00,0.0003
3811.00,0.0003
3810.00,0.0003
3809.00,0.0003
3808.00,0.0003
3807.00,0.0003
3806.00,0.0003
3805.00,0.0003
3804.00,0.0003
3803.00,0.0003
3802.00,0.0003
3801.00,0.0003
3800.00,0.0003
3799.00,0.0003
3798.00,0.0003
3797.00,0.0003
3796.00,0.0003
3795.00,0.0003
3794.00,0.0003
3793.00,0.0003
3792.00,0.0003
3791.00,0.0003
3790.00,0.0003
3789.00,0.0003
3788.00,0.0003
3787.00,0.0003
3786.00,0.0004
3785.00,0.0004
3784.00,0.0003
3783.00,0.0003
3782.00,0.0003
3781.00,0.0003
3780.00,0.0003
3779.00,0.0004
3778.00,0.0003
3777.00,0.0003
3776.00,0.0003
3775.00,0.0003
3774.00,0.0003
3773.00,0.0003
3772.00,0.0003
3771.00,0.0003
3770.00,0.0003
3769.00,0.0003
3768.00,0.0003
3767.00,0.0003
3766.00,0.0003
3765.00,0.0003
3764.00,0.0003
3763.00,0.0003
3762.00,0.0003
3761.00,0.0003
3760.00,0.0003
3759.00,0.0003
3758.00,0.0003
3757.00,0.0003
3756.00,0.0004
3755.00,0.0004
3754.00,0.0004
3753.00,0.0004
3752.00,0.0004
3751.00,0.0003
3750.00,0.0003
3749.00,0.0002
3748.00,0.0002
3747.00,0.0002
3746.00,0.0002
3745.00,0.0002
3744.00,0.0003
3743.00,0.0002
3742.00,0.0002
3741.00,0.0002
3740.00,0.0002
3739.00,0.0002
3738.00,0.0002
3737.00,0.0002
3736.00,0.0002
3735.00,0.0002
3734.00,0.0002
3733.00,0.0002
3732.00,0.0001
3731.00,0.0001
3730.00,0.0001
3729.00,0.0001
3728.00,0.0001
3727.00,0.0002
3726.00,0.0002
3725.00,0.0002
3724.00,0.0003
3723.00,0.0003
3722.00,0.0003
3721.00,0.0003
3720.00,0.0003
3719.00,0.0003
3718.00,0.0003
3717.00,0.0003
3716.00,0.0003
3715.00,0.0003
3714.00,0.0002
3713.00,0.0002
3712.00,0.0003
3711.00,0.0003
3710.00,0.0003
3709.00,0.0003
3708.00,0.0003
3707.00,0.0003
3706.00,0.0003
3705.00,0.0003
3704.00,0.0003
3703.00,0.0003
3702.00,0.0003
3701.00,0.0003
3700.00,0.0003
3699.00,0.0003
3698.00,0.0003
3697.00,0.0003
3696.00,0.0004
3695.00,0.0003
3694.00,0.0003
3693.00,0.0003
3692.00,0.0003
3691.00,0.0003
3690.00,0.0003
3689.00,0.0004
3688.00,0.0004
3687.00,0.0004
3686.00,0.0004
3685.00,0.0004
3684.00,0.0005
3683.00,0.0005
3682.00,0.0006
3681.00,0.0006
3680.00,0.0006
3679.00,0.0006
3678.00,0.0006
3677.00,0.0006
3676.00,0.0006
3675.00,0.0006
3674.00,0.0006
3673.00,0.0006
3672.00,0.0006
3671.00,0.0007
3670.00,0.0007
3669.00,0.0008
3668.00,0.0008
3667.00,0.0008
3666.00,0.0009
3665.00,0.0009
3664.00,0.0010
3663.00,0.0010
3662.00,0.0010
3661.00,0.0011
3660.00,0.0011
3659.00,0.0011
3658.00,0.0012
3657.00,0.0012
3656.00,0.0012
3655.00,0.0013
3654.00,0.0013
3653.00,0.0013
3652.00,0.0013
3651.00,0.0014
3650.00,0.0014
3649.00,0.0014
3648.00,0.0014
3647.00,0.0014
3646.00,0.0014
3645.00,0.0015
3644.00,0.0015
3643.00,0.0016
3642.00,0.0017
3641.00,0.0018
3640.00,0.0018
3639.00,0.0019
3638.00,0.0019
3637.00,0.0019
3636.00,0.0020
3635.00,0.0020
3634.00,0.0021
3633.00,0.0021
3632.00,0.0021
3631.00,0.0022
3630.00,0.0022
3629.00,0.0022
3628.00,0.0023
3627.00,0.0023
3626.00,0.0024
3625.00,0.0025
3624.00,0.0026
3623.00,0.0026
3622.00,0.0027
3621.00,0.0027
3620.00,0.0028
3619.00,0.0028
3618.00,0.0028
3617.00,0.0028
3616.00,0.0029
3615.00,0.0029
3614.00,0.0030
3613.00,0.0031
3612.00,0.0031
3611.00,0.0032
3610.00,0.0032
3609.00,0.0033
3608.00,0.0033
3607.00,0.0033
3606.00,0.0034
3605.00,0.0034
3604.00,0.0035
3603.00,0.0036
3602.00,0.0037
3601.00,0.0038
3600.00,0.0038
3599.00,0.0039
3598.00,0.0039
3597.00,0.0040
3596.00,0.0040
3595.00,0.0041
3594.00,0.0041
3593.00,0.0042
3592.00,0.0043
3591.00,0.0043
3590.00,0.0044
3589.00,0.0044
3588.00,0.0045
3587.00,0.0045
3586.00,0.0045
3585.00,0.0046
3584.00,0.0046
3583.00,0.0047
3582.00,0.0048
3581.00,0.0049
3580.00,0.0050
3579.00,0.0050
3578.00,0.0051
3577.00,0.0052
3576.00,0.0052
3575.00,0.0053
3574.00,0.0054
3573.00,0.0054
3572.00,0.0055
3571.00,0.0056
3570.00,0.0056
3569.00,0.0057
3568.00,0.0057
3567.00,0.0057
3566.00,0.0057
3565.00,0.0058
3564.00,0.0058
3563.00,0.0059
3562.00,0.0060
3561.00,0.0061
3560.00,0.0062
3559.00,0.0063
3558.00,0.0064
3557.00,0.0065
3556.00,0.0066
3555.00,0.0066
3554.00,0.0067
3553.00,0.0067
3552.00,0.0067
3551.00,0.0068
3550.00,0.0068
3549.00,0.0069
3548.00,0.0070
3547.00,0.0071
3546.00,0.0071
3545.00,0.0071
3544.00,0.0072
3543.00,0.0073
3542.00,0.0073
3541.00,0.0074
3540.00,0.0075
3539.00,0.0076
3538.00,0.0076
3537.00,0.0077
3536.00,0.0077
3535.00,0.0078
3534.00,0.0079
3533.00,0.0079
3532.00,0.0080
3531.00,0.0081
3530.00,0.0082
3529.00,0.0082
3528.00,0.0083
3527.00,0.0083
3526.00,0.0084
3525.00,0.0084
3524.00,0.0084
3523.00,0.0085
3522.00,0.0085
3521.00,0.0086
3520.00,0.0087
3519.00,0.0088
3518.00,0.0089
3517.00,0.0090
3516.00,0.0090
3515.00,0.0091
3514.00,0.0092
3513.00,0.0092
3512.00,0.0093
3511.00,0.0093
3510.00,0.0094
3509.00,0.0094
3508.00,0.0095
3507.00,0.0095
3506.00,0.0096
3505.00,0.0097
3504.00,0.0097
3503.00,0.0098
3502.00,0.0098
3501.00,0.0098
3500.00,0.0099
3499.00,0.0100
3498.00,0.0100
3497.00,0.0101
3496.00,0.0102
3495.00,0.0102
3494.00,0.0103
3493.00,0.0104
3492.00,0.0104
3491.00,0.0105
3490.00,0.0106
3489.00,0.0106
3488.00,0.0107
3487.00,0.0107
3486.00,0.0108
3485.00,0.0109
3484.00,0.0109
3483.00,0.0110
3482.00,0.0111
3481.00,0.0111
3480.00,0.0112
3479.00,0.0113
3478.00,0.0114
3477.00,0.0114
3476.00,0.0115
3475.00,0.0116
3474.00,0.0117
3473.00,0.0117
3472.00,0.0118
3471.00,0.0118
3470.00,0.0119
3469.00,0.0120
3468.00,0.0120
3467.00,0.0121
3466.00,0.0121
3465.00,0.0122
3464.00,0.0123
3463.00,0.0123
3462.00,0.0124
3461.00,0.0124
3460.00,0.0125
3459.00,0.0125
3458.00,0.0126
3457.00,0.0127
3456.00,0.0127
3455.00,0.0128
3454.00,0.0129
3453.00,0.0129
3452.00,0.0130
3451.00,0.0131
3450.00,0.0132
3449.00,0.0132
3448.00,0.0133
3447.00,0.0134
3446.00,0.0134
3445.00,0.0135
3444.00,0.0135
3443.00,0.0136
3442.00,0.0137
3441.00,0.0138
3440.00,0.0138
3439.00,0.0139
3438.00,0.0140
3437.00,0.0141
3436.00,0.0142
3435.00,0.0142
3434.00,0.0143
3433.00,0.0144
3432.00,0.0145
3431.00,0.0145
3430.00,0.0146
3429.00,0.0147
3428.00,0.0147
3427.00,0.0148
3426.00,0.0149
3425.00,0.0149
3424.00,0.0150
3423.00,0.0151
3422.00,0.0152
3421.00,0.0153
3420.00,0.0153
3419.00,0.0154
3418.00,0.0154
3417.00,0.0155
3416.00,0.0156
3415.00,0.0157
3414.00,0.0158
3413.00,0.0159
3412.00,0.0159
3411.00,0.0160
3410.00,0.0161
3409.00,0.0161
3408.00,0.0162
3407.00,0.0163
3406.00,0.0163
3405.00,0.0164
3404.00,0.0165
3403.00,0.0165
3402.00,0.0166
3401.00,0.0166
3400.00,0.0167
3399.00,0.0167
3398.00,0.0168
3397.00,0.0169
3396.00,0.0170
3395.00,0.0171
3394.00,0.0171
3393.00,0.0172
3392.00,0.0173
3391.00,0.0174
3390.00,0.0175
3389.00,0.0176
3388.00,0.0177
3387.00,0.0177
3386.00,0.0178
3385.00,0.0179
3384.00,0.0179
3383.00,0.0180
3382.00,0.0181
3381.00,0.0181
3380.00,0.0182
3379.00,0.0183
3378.00,0.0184
3377.00,0.0185
3376.00,0.0186
3375.00,0.0187
3374.00,0.0188
3373.00,0.0189
3372.00,0.0189
3371.00,0.0190
3370.00,0.0192
3369.00,0.0193
3368.00,0.0194
3367.00,0.0195
3366.00,0.0196
3365.00,0.0196
3364.00,0.0198
3363.00,0.0199
3362.00,0.0200
3361.00,0.0201
3360.00,0.0202
3359.00,0.0203
3358.00,0.0204
3357.00,0.0205
3356.00,0.0206
3355.00,0.0208
3354.00,0.0209
3353.00,0.0210
3352.00,0.0211
3351.00,0.0213
3350.00,0.0214
3349.00,0.0215
3348.00,0.0216
3347.00,0.0217
3346.00,0.0218
3345.00,0.0219
3344.00,0.0221
3343.00,0.0222
3342.00,0.0224
3341.00,0.0225
3340.00,0.0227
3339.00,0.0228
3338.00,0.0230
3337.00,0.0231
3336.00,0.0233
3335.00,0.0234
3334.00,0.0235
3333.00,0.0237
3332.00,0.0239
3331.00,0.0240
3330.00,0.0242
3329.00,0.0244
3328.00,0.0246
3327.00,0.0247
3326.00,0.0249
3325.00,0.0251
3324.00,0.0252
3323.00,0.0254
3322.00,0.0256
3321.00,0.0258
3320.00,0.0260
3319.00,0.0262
3318.00,0.0265
3317.00,0.0267
3316.00,0.0269
3315.00,0.0271
3314.00,0.0273
3313.00,0.0275
3312.00,0.0277
3311.00,0.0280
3310.00,0.0282
3309.00,0.0284
3308.00,0.0286
3307.00,0.0288
3306.00,0.0290
3305.00,0.0293
3304.00,0.0295
3303.00,0.0298
3302.00,0.0300
3301.00,0.0303
3300.00,0.0305
3299.00,0.0307
3298.00,0.0309
3297.00,0.0312
3296.00,0.0314
3295.00,0.0316
3294.00,0.0319
3293.00,0.0321
3292.00,0.0323
3291.00,0.0326
3290.00,0.0328
3289.00,0.0330
3288.00,0.0332
3287.00,0.0334
3286.00,0.0336
3285.00,0.0338
3284.00,0.0340
3283.00,0.0342
3282.00,0.0344
3281.00,0.0345
3280.00,0.0346
3279.00,0.0347
3278.00,0.0348
3277.00,0.0349
3276.00,0.0350
3275.00,0.0350
3274.00,0.0350
3273.00,0.0350
3272.00,0.0350
3271.00,0.0349
3270.00,0.0349
3269.00,0.0348
3268.00,0.0348
3267.00,0.0347
3266.00,0.0346
3265.00,0.0344
3264.00,0.0343
3263.00,0.0342
3262.00,0.0340
3261.00,0.0338
3260.00,0.0337
3259.00,0.0335
3258.00,0.0333
3257.00,0.0331
3256.00,0.0329
3255.00,0.0326
3254.00,0.0324
3253.00,0.0321
3252.00,0.0319
3251.00,0.0316
3250.00,0.0314
3249.00,0.0312
3248.00,0.0310
3247.00,0.0307
3246.00,0.0305
3245.00,0.0303
3244.00,0.0301
3243.00,0.0299
3242.00,0.0297
3241.00,0.0295
3240.00,0.0293
3239.00,0.0291
3238.00,0.0289
3237.00,0.0287
3236.00,0.0285
3235.00,0.0283
3234.00,0.0280
3233.00,0.0278
3232.00,0.0277
3231.00,0.0275
3230.00,0.0274
3229.00,0.0272
3228.00,0.0271
3227.00,0.0269
3226.00,0.0267
3225.00,0.0266
3224.00,0.0264
3223.00,0.0263
3222.00,0.0261
3221.00,0.0260
3220.00,0.0258
3219.00,0.0257
3218.00,0.0255
3217.00,0.0254
3216.00,0.0252
3215.00,0.0251
3214.00,0.0250
3213.00,0.0248
3212.00,0.0247
3211.00,0.0245
3210.00,0.0244
3209.00,0.0243
3208.00,0.0241
3207.00,0.0240
3206.00,0.0239
3205.00,0.0238
3204.00,0.0236
3203.00,0.0235
3202.00,0.0234
3201.00,0.0233
3200.00,0.0232
3199.00,0.0230
3198.00,0.0229
3197.00,0.0227
3196.00,0.0226
3195.00,0.0225
3194.00,0.0224
3193.00,0.0222
3192.00,0.0221
3191.00,0.0220
3190.00,0.0219
3189.00,0.0218
3188.00,0.0217
3187.00,0.0215
3186.00,0.0214
3185.00,0.0213
3184.00,0.0212
3183.00,0.0211
3182.00,0.0209
3181.00,0.0208
3180.00,0.0207
3179.00,0.0206
3178.00,0.0205
3177.00,0.0204
3176.00,0.0203
3175.00,0.0202
3174.00,0.0200
3173.00,0.0199
3172.00,0.0198
3171.00,0.0197
3170.00,0.0196
3169.00,0.0195
3168.00,0.0194
3167.00,0.0192
3166.00,0.0191
3165.00,0.0190
3164.00,0.0189
3163.00,0.0188
3162.00,0.0187
3161.00,0.0186
3160.00,0.0186
3159.00,0.0185
3158.00,0.0184
3157.00,0.0183
3156.00,0.0183
3155.00,0.0182
3154.00,0.0181
3153.00,0.0180
3152.00,0.0179
3151.00,0.0178
3150.00,0.0177
3149.00,0.0177
3148.00,0.0176
3147.00,0.0176
3146.00,0.0175
3145.00,0.0174
3144.00,0.0173
3143.00,0.0173
3142.00,0.0172
3141.00,0.0171
3140.00,0.0170
3139.00,0.0170
3138.00,0.0169
3137.00,0.0169
3136.00,0.0168
3135.00,0.0168
3134.00,0.0167
3133.00,0.0167
3132.00,0.0166
3131.00,0.0166
3130.00,0.0165
3129.00,0.0165
3128.00,0.0165
3127.00,0.0164
3126.00,0.0164
3125.00,0.0164
3124.00,0.0163
3123.00,0.0163
3122.00,0.0162
3121.00,0.0162
3120.00,0.0162
3119.00,0.0162
3118.00,0.0162
3117.00,0.0162
3116.00,0.0162
3115.00,0.0162
3114.00,0.0162
3113.00,0.0162
3112.00,0.0163
3111.00,0.0163
3110.00,0.0163
3109.00,0.0163
3108.00,0.0163
3107.00,0.0163
3106.00,0.0164
3105.00,0.0164
3104.00,0.0164
3103.00,0.0165
3102.00,0.0165
3101.00,0.0165
3100.00,0.0165
3099.00,0.0165
3098.00,0.0166
3097.00,0.0167
3096.00,0.0167
3095.00,0.0168
3094.00,0.0169
3093.00,0.0169
3092.00,0.0169
3091.00,0.0169
3090.00,0.0170
3089.00,0.0170
3088.00,0.0170
3087.00,0.0170
3086.00,0.0170
3085.00,0.0170
3084.00,0.0170
3083.00,0.0170
3082.00,0.0171
3081.00,0.0171
3080.00,0.0171
3079.00,0.0171
3078.00,0.0171
3077.00,0.0171
3076.00,0.0171
3075.00,0.0171
3074.00,0.0171
3073.00,0.0171
3072.00,0.0171
3071.00,0.0171
3070.00,0.0170
3069.00,0.0169
3068.00,0.0169
3067.00,0.0168
3066.00,0.0167
3065.00,0.0167
3064.00,0.0167
3063.00,0.0166
3062.00,0.0166
3061.00,0.0166
3060.00,0.0165
3059.00,0.0164
3058.00,0.0163
3057.00,0.0162
3056.00,0.0161
3055.00,0.0160
3054.00,0.0159
3053.00,0.0158
3052.00,0.0157
3051.00,0.0156
3050.00,0.0155
3049.00,0.0154
3048.00,0.0153
3047.00,0.0152
3046.00,0.0151
3045.00,0.0150
3044.00,0.0149
3043.00,0.0149
3042.00,0.0148
3041.00,0.0147
3040.00,0.0146
3039.00,0.0146
3038.00,0.0145
3037.00,0.0145
3036.00,0.0144
3035.00,0.0143
3034.00,0.0142
3033.00,0.0142
3032.00,0.0141
3031.00,0.0141
3030.00,0.0140
3029.00,0.0139
3028.00,0.0138
3027.00,0.0138
3026.00,0.0137
3025.00,0.0136
3024.00,0.0135
3023.00,0.0134
3022.00,0.0133
3021.00,0.0132
3020.00,0.0132
3019.00,0.0131
3018.00,0.0131
3017.00,0.0130
3016.00,0.0129
3015.00,0.0128
3014.00,0.0127
3013.00,0.0126
3012.00,0.0126
3011.00,0.0126
3010.00,0.0125
3009.00,0.0125
3008.00,0.0125
3007.00,0.0125
3006.00,0.0125
3005.00,0.0125
3004.00,0.0124
3003.00,0.0124
3002.00,0.0124
3001.00,0.0124
3000.00,0.0124
2999.00,0.0124
2998.00,0.0124
2997.00,0.0124
2996.00,0.0125
2995.00,0.0126
2994.00,0.0127
2993.00,0.0127
2992.00,0.0128
2991.00,0.0129
2990.00,0.0130
2989.00,0.0132
2988.00,0.0133
2987.00,0.0135
2986.00,0.0136
2985.00,0.0138
2984.00,0.0139
2983.00,0.0141
2982.00,0.0143
2981.00,0.0145
2980.00,0.0147
2979.00,0.0149
2978.00,0.0152
2977.00,0.0154
2976.00,0.0157
2975.00,0.0159
2974.00,0.0161
2973.00,0.0164
2972.00,0.0166
2971.00,0.0168
2970.00,0.0170
2969.00,0.0172
2968.00,0.0174
2967.00,0.0176
2966.00,0.0178
2965.00,0.0180
2964.00,0.0181
2963.00,0.0182
2962.00,0.0182
2961.00,0.0183
2960.00,0.0183
2959.00,0.0183
2958.00,0.0182
2957.00,0.0180
2956.00,0.0179
2955.00,0.0177
2954.00,0.0175
2953.00,0.0174
2952.00,0.0172
2951.00,0.0170
2950.00,0.0169
2949.00,0.0168
2948.00,0.0168
2947.00,0.0168
2946.00,0.0167
2945.00,0.0168
2944.00,0.0168
2943.00,0.0169
2942.00,0.0171
2941.00,0.0172
2940.00,0.0174
2939.00,0.0176
2938.00,0.0177
2937.00,0.0179
2936.00,0.0180
2935.00,0.0182
2934.00,0.0183
2933.00,0.0184
2932.00,0.0185
2931.00,0.0186
2930.00,0.0186
2929.00,0.0187
2928.00,0.0187
2927.00,0.0187
2926.00,0.0187
2925.00,0.0187
2924.00,0.0186
2923.00,0.0186
2922.00,0.0184
2921.00,0.0183
2920.00,0.0182
2919.00,0.0180
2918.00,0.0178
2917.00,0.0176
2916.00,0.0173
2915.00,0.0171
2914.00,0.0168
2913.00,0.0165
2912.00,0.0163
2911.00,0.0160
2910.00,0.0158
2909.00,0.0155
2908.00,0.0153
2907.00,0.0151
2906.00,0.0149
2905.00,0.0148
2904.00,0.0146
2903.00,0.0145
2902.00,0.0144
2901.00,0.0143
2900.00,0.0141
2899.00,0.0140
2898.00,0.0139
2897.00,0.0138
2896.00,0.0137
2895.00,0.0136
2894.00,0.0135
2893.00,0.0134
2892.00,0.0133
2891.00,0.0133
2890.00,0.0133
2889.00,0.0132
2888.00,0.0132
2887.00,0.0132
2886.00,0.0132
2885.00,0.0132
2884.00,0.0133
2883.00,0.0133
2882.00,0.0134
2881.00,0.0135
2880.00,0.0136
2879.00,0.0137
2878.00,0.0138
2877.00,0.0138
2876.00,0.0139
2875.00,0.0139
2874.00,0.0139
2873.00,0.0139
2872.00,0.0138
2871.00,0.0137
2870.00,0.0136
2869.00,0.0134
2868.00,0.0133
2867.00,0.0131
2866.00,0.0129
2865.00,0.0127
2864.00,0.0126
2863.00,0.0125
2862.00,0.0124
2861.00,0.0123
2860.00,0.0123
2859.00,0.0123
2858.00,0.0122
2857.00,0.0122
2856.00,0.0122
2855.00,0.0122
2854.00,0.0122
2853.00,0.0121
2852.00,0.0121
2851.00,0.0120
2850.00,0.0118
2849.00,0.0116
2848.00,0.0114
2847.00,0.0112
2846.00,0.0109
2845.00,0.0107
2844.00,0.0105
2843.00,0.0103
2842.00,0.0101
2841.00,0.0099
2840.00,0.0098
2839.00,0.0097
2838.00,0.0096
2837.00,0.0095
2836.00,0.0095
2835.00,0.0094
2834.00,0.0093
2833.00,0.0093
2832.00,0.0092
2831.00,0.0092
2830.00,0.0091
2829.00,0.0091
2828.00,0.0090
2827.00,0.0090
2826.00,0.0090
2825.00,0.0089
2824.00,0.0089
2823.00,0.0088
2822.00,0.0088
2821.00,0.0088
2820.00,0.0087
2819.00,0.0087
2818.00,0.0087
2817.00,0.0087
2816.00,0.0087
2815.00,0.0086
2814.00,0.0086
2813.00,0.0085
2812.00,0.0085
2811.00,0.0085
2810.00,0.0085
2809.00,0.0084
2808.00,0.0084
2807.00,0.0084
2806.00,0.0083
2805.00,0.0083
2804.00,0.0083
2803.00,0.0083
2802.00,0.0082
2801.00,0.0082
2800.00,0.0082
2799.00,0.0081
2798.00,0.0081
2797.00,0.0081
2796.00,0.0081
2795.00,0.0080
2794.00,0.0080
2793.00,0.0080
2792.00,0.0079
2791.00,0.0079
2790.00,0.0079
2789.00,0.0079
2788.00,0.0079
2787.00,0.0078
2786.00,0.0078
2785.00,0.0078
2784.00,0.0077
2783.00,0.0077
2782.00,0.0077
2781.00,0.0077
2780.00,0.0077
2779.00,0.0076
2778.00,0.0076
2777.00,0.0075
2776.00,0.0075
2775.00,0.0075
2774.00,0.0075
2773.00,0.0074
2772.00,0.0074
2771.00,0.0073
2770.00,0.0073
2769.00,0.0073
2768.00,0.0073
2767.00,0.0073
2766.00,0.0073
2765.00,0.0072
2764.00,0.0072
2763.00,0.0072
2762.00,0.0071
2761.00,0.0071
2760.00,0.0070
2759.00,0.0070
2758.00,0.0070
2757.00,0.0070
