Created as New Dataset,Sample 926 By YargerLab Date Saturday, July 26 2025
cm-1,A
4000.00,0.0041
3999.00,0.0041
3998.00,0.0041
3997.00,0.0041
3996.00,0.0041
3995.00,0.0041
3994.00,0.0041
3993.00,0.0041
3992.00,0.0041
3991.00,0.0041
3990.00,0.0041
3989.00,0.0041
3988.00,0.0041
3987.00,0.0041
3986.00,0.0041
3985.00,0.0041
3984.00,0.0041
3983.00,0.0041
3982.00,0.0041
3981.00,0.0041
3980.00,0.0041
3979.00,0.0040
3978.00,0.0040
3977.00,0.0040
3976.00,0.0040
3975.00,0.0040
3974.00,0.0040
3973.00,0.0040
3972.00,0.0040
3971.00,0.0040
3970.00,0.0040
3969.00,0.0040
3968.00,0.0041
3967.00,0.0041
3966.00,0.0041
3965.00,0.0040
3964.00,0.0040
3963.00,0.0040
3962.00,0.0040
3961.00,0.0040
3960.00,0.0040
3959.00,0.0040
3958.00,0.0040
3957.00,0.0040
3956.00,0.0040
3955.00,0.0040
3954.00,0.0040
3953.00,0.0040
3952.00,0.0040
3951.00,0.0040
3950.00,0.0040
3949.00,0.0040
3948.00,0.0040
3947.00,0.0040
3946.00,0.0040
3945.00,0.0040
3944.00,0.0041
3943.00,0.0041
3942.00,0.0041
3941.00,0.0040
3940.00,0.0040
3939.00,0.0040
3938.00,0.0040
3937.00,0.0040
3936.00,0.0040
3935.00,0.0040
3934.00,0.0040
3933.00,0.0040
3932.00,0.0040
3931.00,0.0040
3930.00,0.0040
3929.00,0.0040
3928.00,0.0040
3927.00,0.0040
3926.00,0.0040
3925.00,0.0041
3924.00,0.0041
3923.00,0.0040
3922.00,0.0040
3921.00,0.0040
3920.00,0.0040
3919.00,0.0040
3918.00,0.0040
3917.00,0.0040
3916.00,0.0040
3915.00,0.0041
3914.00,0.0041
3913.00,0.0041
3912.00,0.0041
3911.00,0.0041
3910.00,0.0041
3909.00,0.0041
3908.00,0.0041
3907.00,0.0040
3906.00,0.0040
3905.00,0.0040
3904.00,0.0040
3903.00,0.0040
3902.00,0.0040
3901.00,0.0040
3900.00,0.0040
3899.00,0.0040
3898.00,0.0040
3897.00,0.0040
3896.00,0.0040
3895.00,0.0040
3894.00,0.0040
3893.00,0.0040
3892.00,0.0040
3891.00,0.0041
3890.00,0.0041
3889.00,0.0040
3888.00,0.0040
3887.00,0.0040
3886.00,0.0040
3885.00,0.0040
3884.00,0.0040
3883.00,0.0040
3882.00,0.0039
3881.00,0.0040
3880.00,0.0040
3879.00,0.0040
3878.00,0.0040
3877.00,0.0040
3876.00,0.0040
3875.00,0.0040
3874.00,0.0040
3873.00,0.0040
3872.00,0.0039
3871.00,0.0039
3870.00,0.0040
3869.00,0.0040
3868.00,0.0040
3867.00,0.0039
3866.00,0.0039
3865.00,0.0039
3864.00,0.0040
3863.00,0.0040
3862.00,0.0040
3861.00,0.0040
3860.00,0.0040
3859.00,0.0040
3858.00,0.0041
3857.00,0.0041
3856.00,0.0040
3855.00,0.0040
3854.00,0.0040
3853.00,0.0040
3852.00,0.0039
3851.00,0.0038
3850.00,0.0038
3849.00,0.0039
3848.00,0.0039
3847.00,0.0039
3846.00,0.0040
3845.00,0.0040
3844.00,0.0040
3843.00,0.0040
3842.00,0.0039
3841.00,0.0039
3840.00,0.0039
3839.00,0.0039
3838.00,0.0039
3837.00,0.0039
3836.00,0.0039
3835.00,0.0039
3834.00,0.0039
3833.00,0.0040
3832.00,0.0040
3831.00,0.0040
3830.00,0.0040
3829.00,0.0040
3828.00,0.0040
3827.00,0.0040
3826.00,0.0041
3825.00,0.0041
3824.00,0.0041
3823.00,0.0040
3822.00,0.0040
3821.00,0.0041
3820.00,0.0040
3819.00,0.0040
3818.00,0.0040
3817.00,0.0040
3816.00,0.0041
3815.00,0.0041
3814.00,0.0041
3813.00,0.0041
3812.00,0.0041
3811.00,0.0041
3810.00,0.0041
3809.00,0.0040
3808.00,0.0040
3807.00,0.0040
3806.00,0.0040
3805.00,0.0040
3804.00,0.0039
3803.00,0.0039
3802.00,0.0040
3801.00,0.0040
3800.00,0.0040
3799.00,0.0039
3798.00,0.0040
3797.00,0.0040
3796.00,0.0041
3795.00,0.0041
3794.00,0.0041
3793.00,0.0041
3792.00,0.0041
3791.00,0.0041
3790.00,0.0041
3789.00,0.0041
3788.00,0.0041
3787.00,0.0041
3786.00,0.0041
3785.00,0.0041
3784.00,0.0041
3783.00,0.0041
3782.00,0.0041
3781.00,0.0041
3780.00,0.0041
3779.00,0.0041
3778.00,0.0041
3777.00,0.0041
3776.00,0.0041
3775.00,0.0041
3774.00,0.0041
3773.00,0.0041
3772.00,0.0041
3771.00,0.0041
3770.00,0.0041
3769.00,0.0041
3768.00,0.0041
3767.00,0.0041
3766.00,0.0041
3765.00,0.0041
3764.00,0.0041
3763.00,0.0040
3762.00,0.0040
3761.00,0.0040
3760.00,0.0041
3759.00,0.0041
3758.00,0.0041
3757.00,0.0041
3756.00,0.0040
3755.00,0.0040
3754.00,0.0040
3753.00,0.0040
3752.00,0.0041
3751.00,0.0041
3750.00,0.0041
3749.00,0.0040
3748.00,0.0040
3747.00,0.0040
3746.00,0.0040
3745.00,0.0040
3744.00,0.0040
3743.00,0.0040
3742.00,0.0039
3741.00,0.0039
3740.00,0.0039
3739.00,0.0039
3738.00,0.0039
3737.00,0.0038
3736.00,0.0038
3735.00,0.0038
3734.00,0.0039
3733.00,0.0039
3732.00,0.0039
3731.00,0.0039
3730.00,0.0039
3729.00,0.0039
3728.00,0.0039
3727.00,0.0039
3726.00,0.0039
3725.00,0.0039
3724.00,0.0039
3723.00,0.0039
3722.00,0.0039
3721.00,0.0039
3720.00,0.0039
3719.00,0.0039
3718.00,0.0040
3717.00,0.0040
3716.00,0.0040
3715.00,0.0040
3714.00,0.0040
3713.00,0.0040
3712.00,0.0040
3711.00,0.0039
3710.00,0.0039
3709.00,0.0039
3708.00,0.0039
3707.00,0.0039
3706.00,0.0039
3705.00,0.0040
3704.00,0.0040
3703.00,0.0040
3702.00,0.0040
3701.00,0.0040
3700.00,0.0040
3699.00,0.0040
3698.00,0.0040
3697.00,0.0040
3696.00,0.0040
3695.00,0.0040
3694.00,0.0040
3693.00,0.0040
3692.00,0.0040
3691.00,0.0040
3690.00,0.0040
3689.00,0.0041
3688.00,0.0041
3687.00,0.0041
3686.00,0.0042
3685.00,0.0042
3684.00,0.0043
3683.00,0.0043
3682.00,0.0043
3681.00,0.0043
3680.00,0.0043
3679.00,0.0042
3678.00,0.0042
3677.00,0.0042
3676.00,0.0043
3675.00,0.0043
3674.00,0.0044
3673.00,0.0044
3672.00,0.0044
3671.00,0.0044
3670.00,0.0045
3669.00,0.0045
3668.00,0.0045
3667.00,0.0045
3666.00,0.0046
3665.00,0.0046
3664.00,0.0047
3663.00,0.0047
3662.00,0.0047
3661.00,0.0047
3660.00,0.0047
3659.00,0.0048
3658.00,0.0048
3657.00,0.0048
3656.00,0.0049
3655.00,0.0049
3654.00,0.0049
3653.00,0.0049
3652.00,0.0049
3651.00,0.0049
3650.00,0.0049
3649.00,0.0049
3648.00,0.0049
3647.00,0.0050
3646.00,0.0051
3645.00,0.0052
3644.00,0.0052
3643.00,0.0053
3642.00,0.0054
3641.00,0.0054
3640.00,0.0055
3639.00,0.0055
3638.00,0.0056
3637.00,0.0057
3636.00,0.0057
3635.00,0.0058
3634.00,0.0059
3633.00,0.0059
3632.00,0.0059
3631.00,0.0059
3630.00,0.0060
3629.00,0.0060
3628.00,0.0061
3627.00,0.0061
3626.00,0.0062
3625.00,0.0063
3624.00,0.0064
3623.00,0.0064
3622.00,0.0065
3621.00,0.0065
3620.00,0.0066
3619.00,0.0067
3618.00,0.0067
3617.00,0.0068
3616.00,0.0069
3615.00,0.0070
3614.00,0.0071
3613.00,0.0072
3612.00,0.0073
3611.00,0.0074
3610.00,0.0075
3609.00,0.0075
3608.00,0.0076
3607.00,0.0077
3606.00,0.0078
3605.00,0.0078
3604.00,0.0079
3603.00,0.0080
3602.00,0.0081
3601.00,0.0082
3600.00,0.0083
3599.00,0.0084
3598.00,0.0085
3597.00,0.0086
3596.00,0.0086
3595.00,0.0087
3594.00,0.0088
3593.00,0.0089
3592.00,0.0091
3591.00,0.0092
3590.00,0.0093
3589.00,0.0094
3588.00,0.0095
3587.00,0.0096
3586.00,0.0097
3585.00,0.0098
3584.00,0.0099
3583.00,0.0100
3582.00,0.0101
3581.00,0.0103
3580.00,0.0104
3579.00,0.0105
3578.00,0.0107
3577.00,0.0108
3576.00,0.0109
3575.00,0.0111
3574.00,0.0112
3573.00,0.0113
3572.00,0.0114
3571.00,0.0115
3570.00,0.0116
3569.00,0.0117
3568.00,0.0118
3567.00,0.0119
3566.00,0.0120
3565.00,0.0121
3564.00,0.0123
3563.00,0.0124
3562.00,0.0126
3561.00,0.0127
3560.00,0.0129
3559.00,0.0130
3558.00,0.0131
3557.00,0.0132
3556.00,0.0133
3555.00,0.0135
3554.00,0.0136
3553.00,0.0137
3552.00,0.0138
3551.00,0.0139
3550.00,0.0140
3549.00,0.0141
3548.00,0.0142
3547.00,0.0143
3546.00,0.0144
3545.00,0.0145
3544.00,0.0146
3543.00,0.0147
3542.00,0.0148
3541.00,0.0149
3540.00,0.0150
3539.00,0.0151
3538.00,0.0153
3537.00,0.0154
3536.00,0.0154
3535.00,0.0155
3534.00,0.0156
3533.00,0.0157
3532.00,0.0158
3531.00,0.0159
3530.00,0.0160
3529.00,0.0161
3528.00,0.0162
3527.00,0.0163
3526.00,0.0163
3525.00,0.0164
3524.00,0.0164
3523.00,0.0165
3522.00,0.0166
3521.00,0.0167
3520.00,0.0168
3519.00,0.0168
3518.00,0.0169
3517.00,0.0170
3516.00,0.0171
3515.00,0.0171
3514.00,0.0172
3513.00,0.0172
3512.00,0.0173
3511.00,0.0174
3510.00,0.0174
3509.00,0.0175
3508.00,0.0175
3507.00,0.0176
3506.00,0.0177
3505.00,0.0177
3504.00,0.0177
3503.00,0.0178
3502.00,0.0178
3501.00,0.0179
3500.00,0.0179
3499.00,0.0180
3498.00,0.0181
3497.00,0.0182
3496.00,0.0182
3495.00,0.0182
3494.00,0.0183
3493.00,0.0183
3492.00,0.0184
3491.00,0.0184
3490.00,0.0185
3489.00,0.0185
3488.00,0.0185
3487.00,0.0186
3486.00,0.0186
3485.00,0.0187
3484.00,0.0187
3483.00,0.0188
3482.00,0.0189
3481.00,0.0189
3480.00,0.0190
3479.00,0.0191
3478.00,0.0191
3477.00,0.0192
3476.00,0.0192
3475.00,0.0192
3474.00,0.0193
3473.00,0.0193
3472.00,0.0194
3471.00,0.0195
3470.00,0.0196
3469.00,0.0197
3468.00,0.0197
3467.00,0.0198
3466.00,0.0198
3465.00,0.0198
3464.00,0.0199
3463.00,0.0199
3462.00,0.0200
3461.00,0.0200
3460.00,0.0200
3459.00,0.0201
3458.00,0.0201
3457.00,0.0202
3456.00,0.0202
3455.00,0.0203
3454.00,0.0203
3453.00,0.0204
3452.00,0.0204
3451.00,0.0204
3450.00,0.0205
3449.00,0.0205
3448.00,0.0205
3447.00,0.0205
3446.00,0.0206
3445.00,0.0206
3444.00,0.0207
3443.00,0.0207
3442.00,0.0208
3441.00,0.0208
3440.00,0.0209
3439.00,0.0209
3438.00,0.0210
3437.00,0.0210
3436.00,0.0211
3435.00,0.0211
3434.00,0.0211
3433.00,0.0211
3432.00,0.0212
3431.00,0.0212
3430.00,0.0212
3429.00,0.0213
3428.00,0.0213
3427.00,0.0214
3426.00,0.0214
3425.00,0.0214
3424.00,0.0214
3423.00,0.0215
3422.00,0.0215
3421.00,0.0215
3420.00,0.0215
3419.00,0.0216
3418.00,0.0216
3417.00,0.0216
3416.00,0.0217
3415.00,0.0217
3414.00,0.0217
3413.00,0.0218
3412.00,0.0218
3411.00,0.0219
3410.00,0.0219
3409.00,0.0219
3408.00,0.0219
3407.00,0.0219
3406.00,0.0219
3405.00,0.0219
3404.00,0.0219
3403.00,0.0218
3402.00,0.0218
3401.00,0.0218
3400.00,0.0218
3399.00,0.0218
3398.00,0.0217
3397.00,0.0217
3396.00,0.0217
3395.00,0.0216
3394.00,0.0216
3393.00,0.0215
3392.00,0.0215
3391.00,0.0214
3390.00,0.0214
3389.00,0.0213
3388.00,0.0213
3387.00,0.0212
3386.00,0.0212
3385.00,0.0211
3384.00,0.0210
3383.00,0.0210
3382.00,0.0209
3381.00,0.0209
3380.00,0.0208
3379.00,0.0207
3378.00,0.0206
3377.00,0.0206
3376.00,0.0205
3375.00,0.0204
3374.00,0.0203
3373.00,0.0202
3372.00,0.0201
3371.00,0.0200
3370.00,0.0199
3369.00,0.0199
3368.00,0.0198
3367.00,0.0198
3366.00,0.0197
3365.00,0.0197
3364.00,0.0196
3363.00,0.0195
3362.00,0.0195
3361.00,0.0194
3360.00,0.0194
3359.00,0.0193
3358.00,0.0193
3357.00,0.0193
3356.00,0.0192
3355.00,0.0191
3354.00,0.0190
3353.00,0.0189
3352.00,0.0188
3351.00,0.0188
3350.00,0.0188
3349.00,0.0188
3348.00,0.0188
3347.00,0.0187
3346.00,0.0187
3345.00,0.0186
3344.00,0.0185
3343.00,0.0185
3342.00,0.0184
3341.00,0.0183
3340.00,0.0183
3339.00,0.0182
3338.00,0.0182
3337.00,0.0182
3336.00,0.0182
3335.00,0.0182
3334.00,0.0182
3333.00,0.0182
3332.00,0.0181
3331.00,0.0181
3330.00,0.0180
3329.00,0.0180
3328.00,0.0179
3327.00,0.0179
3326.00,0.0178
3325.00,0.0178
3324.00,0.0179
3323.00,0.0179
3322.00,0.0179
3321.00,0.0179
3320.00,0.0179
3319.00,0.0179
3318.00,0.0179
3317.00,0.0179
3316.00,0.0179
3315.00,0.0179
3314.00,0.0178
3313.00,0.0177
3312.00,0.0177
3311.00,0.0175
3310.00,0.0174
3309.00,0.0173
3308.00,0.0173
3307.00,0.0172
3306.00,0.0172
3305.00,0.0173
3304.00,0.0174
3303.00,0.0175
3302.00,0.0176
3301.00,0.0176
3300.00,0.0176
3299.00,0.0176
3298.00,0.0175
3297.00,0.0175
3296.00,0.0174
3295.00,0.0174
3294.00,0.0174
3293.00,0.0174
3292.00,0.0174
3291.00,0.0175
3290.00,0.0175
3289.00,0.0176
3288.00,0.0176
3287.00,0.0176
3286.00,0.0176
3285.00,0.0176
3284.00,0.0176
3283.00,0.0176
3282.00,0.0176
3281.00,0.0175
3280.00,0.0175
3279.00,0.0175
3278.00,0.0174
3277.00,0.0174
3276.00,0.0173
3275.00,0.0172
3274.00,0.0172
3273.00,0.0171
3272.00,0.0171
3271.00,0.0170
3270.00,0.0170
3269.00,0.0171
3268.00,0.0171
3267.00,0.0171
3266.00,0.0171
3265.00,0.0171
3264.00,0.0171
3263.00,0.0170
3262.00,0.0170
3261.00,0.0170
3260.00,0.0170
3259.00,0.0169
3258.00,0.0169
3257.00,0.0168
3256.00,0.0167
3255.00,0.0167
3254.00,0.0167
3253.00,0.0166
3252.00,0.0166
3251.00,0.0166
3250.00,0.0165
3249.00,0.0165
3248.00,0.0164
3247.00,0.0164
3246.00,0.0163
3245.00,0.0163
3244.00,0.0163
3243.00,0.0162
3242.00,0.0162
3241.00,0.0161
3240.00,0.0161
3239.00,0.0160
3238.00,0.0160
3237.00,0.0159
3236.00,0.0159
3235.00,0.0158
3234.00,0.0157
3233.00,0.0157
3232.00,0.0156
3231.00,0.0156
3230.00,0.0155
3229.00,0.0155
3228.00,0.0154
3227.00,0.0154
3226.00,0.0153
3225.00,0.0153
3224.00,0.0152
3223.00,0.0151
3222.00,0.0150
3221.00,0.0149
3220.00,0.0149
3219.00,0.0148
3218.00,0.0148
3217.00,0.0147
3216.00,0.0147
3215.00,0.0146
3214.00,0.0145
3213.00,0.0145
3212.00,0.0144
3211.00,0.0144
3210.00,0.0143
3209.00,0.0142
3208.00,0.0141
3207.00,0.0140
3206.00,0.0139
3205.00,0.0139
3204.00,0.0138
3203.00,0.0138
3202.00,0.0137
3201.00,0.0136
3200.00,0.0136
3199.00,0.0135
3198.00,0.0134
3197.00,0.0133
3196.00,0.0132
3195.00,0.0131
3194.00,0.0131
3193.00,0.0130
3192.00,0.0129
3191.00,0.0128
3190.00,0.0128
3189.00,0.0127
3188.00,0.0126
3187.00,0.0125
3186.00,0.0125
3185.00,0.0124
3184.00,0.0124
3183.00,0.0123
3182.00,0.0122
3181.00,0.0122
3180.00,0.0121
3179.00,0.0120
3178.00,0.0119
3177.00,0.0118
3176.00,0.0118
3175.00,0.0117
3174.00,0.0116
3173.00,0.0116
3172.00,0.0115
3171.00,0.0115
3170.00,0.0114
3169.00,0.0114
3168.00,0.0113
3167.00,0.0112
3166.00,0.0111
3165.00,0.0111
3164.00,0.0110
3163.00,0.0109
3162.00,0.0109
3161.00,0.0108
3160.00,0.0107
3159.00,0.0107
3158.00,0.0106
3157.00,0.0106
3156.00,0.0105
3155.00,0.0105
3154.00,0.0104
3153.00,0.0104
3152.00,0.0103
3151.00,0.0102
3150.00,0.0102
3149.00,0.0101
3148.00,0.0100
3147.00,0.0100
3146.00,0.0099
3145.00,0.0099
3144.00,0.0099
3143.00,0.0098
3142.00,0.0098
3141.00,0.0097
3140.00,0.0097
3139.00,0.0096
3138.00,0.0096
3137.00,0.0096
3136.00,0.0095
3135.00,0.0095
3134.00,0.0094
3133.00,0.0094
3132.00,0.0093
3131.00,0.0093
3130.00,0.0093
3129.00,0.0092
3128.00,0.0092
3127.00,0.0092
3126.00,0.0091
3125.00,0.0091
3124.00,0.0090
3123.00,0.0090
3122.00,0.0089
3121.00,0.0089
3120.00,0.0089
3119.00,0.0088
3118.00,0.0088
3117.00,0.0088
3116.00,0.0087
3115.00,0.0087
3114.00,0.0087
3113.00,0.0087
3112.00,0.0086
3111.00,0.0086
3110.00,0.0085
3109.00,0.0085
3108.00,0.0085
3107.00,0.0085
3106.00,0.0084
3105.00,0.0084
3104.00,0.0083
3103.00,0.0083
3102.00,0.0082
3101.00,0.0082
3100.00,0.0082
3099.00,0.0081
3098.00,0.0081
3097.00,0.0081
3096.00,0.0081
3095.00,0.0081
3094.00,0.0080
3093.00,0.0080
3092.00,0.0080
3091.00,0.0080
3090.00,0.0080
3089.00,0.0080
3088.00,0.0080
3087.00,0.0080
3086.00,0.0079
3085.00,0.0079
3084.00,0.0079
3083.00,0.0079
3082.00,0.0078
3081.00,0.0078
3080.00,0.0077
3079.00,0.0077
3078.00,0.0077
3077.00,0.0077
3076.00,0.0077
3075.00,0.0076
3074.00,0.0076
3073.00,0.0076
3072.00,0.0076
3071.00,0.0076
3070.00,0.0076
3069.00,0.0075
3068.00,0.0075
3067.00,0.0075
3066.00,0.0075
3065.00,0.0075
3064.00,0.0075
3063.00,0.0075
3062.00,0.0075
3061.00,0.0075
3060.00,0.0075
3059.00,0.0075
3058.00,0.0075
3057.00,0.0075
3056.00,0.0075
3055.00,0.0074
3054.00,0.0074
3053.00,0.0074
3052.00,0.0074
3051.00,0.0074
3050.00,0.0074
3049.00,0.0074
3048.00,0.0074
3047.00,0.0073
3046.00,0.0073
3045.00,0.0073
3044.00,0.0073
3043.00,0.0073
3042.00,0.0073
3041.00,0.0073
3040.00,0.0073
3039.00,0.0073
3038.00,0.0073
3037.00,0.0073
3036.00,0.0074
3035.00,0.0074
3034.00,0.0074
3033.00,0.0074
3032.00,0.0074
3031.00,0.0074
3030.00,0.0074
3029.00,0.0074
3028.00,0.0074
3027.00,0.0074
3026.00,0.0074
3025.00,0.0074
3024.00,0.0074
3023.00,0.0074
3022.00,0.0074
3021.00,0.0074
3020.00,0.0075
3019.00,0.0075
3018.00,0.0076
3017.00,0.0076
3016.00,0.0077
3015.00,0.0077
3014.00,0.0078
3013.00,0.0078
3012.00,0.0079
3011.00,0.0080
3010.00,0.0081
3009.00,0.0083
3008.00,0.0084
3007.00,0.0085
3006.00,0.0087
3005.00,0.0089
3004.00,0.0091
3003.00,0.0093
3002.00,0.0095
3001.00,0.0098
3000.00,0.0100
2999.00,0.0103
2998.00,0.0106
2997.00,0.0109
2996.00,0.0112
2995.00,0.0115
2994.00,0.0118
2993.00,0.0121
2992.00,0.0124
2991.00,0.0127
2990.00,0.0129
2989.00,0.0132
2988.00,0.0135
2987.00,0.0138
2986.00,0.0141
2985.00,0.0143
2984.00,0.0146
2983.00,0.0149
2982.00,0.0152
2981.00,0.0155
2980.00,0.0159
2979.00,0.0162
2978.00,0.0164
2977.00,0.0166
2976.00,0.0168
2975.00,0.0170
2974.00,0.0172
2973.00,0.0175
2972.00,0.0179
2971.00,0.0182
2970.00,0.0186
2969.00,0.0189
2968.00,0.0191
2967.00,0.0194
2966.00,0.0196
2965.00,0.0199
2964.00,0.0202
2963.00,0.0204
2962.00,0.0207
2961.00,0.0210
2960.00,0.0212
2959.00,0.0213
2958.00,0.0214
2957.00,0.0215
2956.00,0.0214
2955.00,0.0214
2954.00,0.0213
2953.00,0.0212
2952.00,0.0210
2951.00,0.0209
2950.00,0.0208
2949.00,0.0207
2948.00,0.0207
2947.00,0.0206
2946.00,0.0205
2945.00,0.0205
2944.00,0.0204
2943.00,0.0204
2942.00,0.0205
2941.00,0.0205
2940.00,0.0206
2939.00,0.0207
2938.00,0.0208
2937.00,0.0209
2936.00,0.0212
2935.00,0.0214
2934.00,0.0217
2933.00,0.0221
2932.00,0.0224
2931.00,0.0228
2930.00,0.0232
2929.00,0.0235
2928.00,0.0238
2927.00,0.0240
2926.00,0.0242
2925.00,0.0242
2924.00,0.0242
2923.00,0.0240
2922.00,0.0238
2921.00,0.0236
2920.00,0.0234
2919.00,0.0231
2918.00,0.0227
2917.00,0.0224
2916.00,0.0220
2915.00,0.0216
2914.00,0.0213
2913.00,0.0209
2912.00,0.0206
2911.00,0.0203
2910.00,0.0200
2909.00,0.0197
2908.00,0.0195
2907.00,0.0192
2906.00,0.0190
2905.00,0.0188
2904.00,0.0186
2903.00,0.0185
2902.00,0.0183
2901.00,0.0183
2900.00,0.0182
2899.00,0.0181
2898.00,0.0181
2897.00,0.0180
2896.00,0.0180
2895.00,0.0180
2894.00,0.0180
2893.00,0.0179
2892.00,0.0179
2891.00,0.0179
2890.00,0.0178
2889.00,0.0178
2888.00,0.0177
2887.00,0.0177
2886.00,0.0177
2885.00,0.0176
2884.00,0.0176
2883.00,0.0176
2882.00,0.0175
2881.00,0.0175
2880.00,0.0175
2879.00,0.0175
2878.00,0.0176
2877.00,0.0176
2876.00,0.0176
2875.00,0.0176
2874.00,0.0177
2873.00,0.0177
2872.00,0.0176
2871.00,0.0176
2870.00,0.0175
2869.00,0.0175
2868.00,0.0174
2867.00,0.0173
2866.00,0.0172
2865.00,0.0172
2864.00,0.0172
2863.00,0.0172
2862.00,0.0173
2861.00,0.0174
2860.00,0.0176
2859.00,0.0177
2858.00,0.0178
2857.00,0.0179
2856.00,0.0179
2855.00,0.0178
2854.00,0.0176
2853.00,0.0174
2852.00,0.0171
2851.00,0.0168
2850.00,0.0164
2849.00,0.0159
2848.00,0.0155
2847.00,0.0150
2846.00,0.0145
2845.00,0.0141
2844.00,0.0137
2843.00,0.0133
2842.00,0.0129
2841.00,0.0125
2840.00,0.0122
2839.00,0.0119
2838.00,0.0116
2837.00,0.0114
2836.00,0.0113
2835.00,0.0111
2834.00,0.0109
2833.00,0.0107
2832.00,0.0105
2831.00,0.0104
2830.00,0.0102
2829.00,0.0100
2828.00,0.0099
2827.00,0.0097
2826.00,0.0096
2825.00,0.0094
2824.00,0.0093
2823.00,0.0091
2822.00,0.0090
2821.00,0.0089
2820.00,0.0088
2819.00,0.0087
2818.00,0.0086
2817.00,0.0086
2816.00,0.0085
2815.00,0.0084
2814.00,0.0083
2813.00,0.0083
2812.00,0.0082
2811.00,0.0082
2810.00,0.0081
2809.00,0.0080
2808.00,0.0080
2807.00,0.0079
2806.00,0.0079
2805.00,0.0078
2804.00,0.0078
2803.00,0.0078
2802.00,0.0077
2801.00,0.0077
2800.00,0.0076
2799.00,0.0076
2798.00,0.0076
2797.00,0.0075
2796.00,0.0075
2795.00,0.0075
2794.00,0.0075
2793.00,0.0074
2792.00,0.0074
2791.00,0.0074
2790.00,0.0073
2789.00,0.0073
2788.00,0.0073
2787.00,0.0073
2786.00,0.0073
2785.00,0.0072
2784.00,0.0072
2783.00,0.0072
2782.00,0.0072
2781.00,0.0071
2780.00,0.0071
2779.00,0.0071
2778.00,0.0071
2777.00,0.0070
2776.00,0.0070
2775.00,0.0070
2774.00,0.0070
2773.00,0.0070
2772.00,0.0070
2771.00,0.0070
2770.00,0.0069
2769.00,0.0069
2768.00,0.0069
2767.00,0.0069
2766.00,0.0069
2765.00,0.0069
2764.00,0.0069
2763.00,0.0069
2762.00,0.0068
2761.00,0.0068
2760.00,0.0068
2759.00,0.0068
2758.00,0.0068
2757.00,0.0068
