Created as New Dataset,Sample 628 By YargerLab Date Friday, June 06 2025
cm-1,A
4000.00,0.0073
3999.00,0.0073
3998.00,0.0073
3997.00,0.0073
3996.00,0.0073
3995.00,0.0073
3994.00,0.0073
3993.00,0.0073
3992.00,0.0073
3991.00,0.0073
3990.00,0.0073
3989.00,0.0073
3988.00,0.0073
3987.00,0.0073
3986.00,0.0073
3985.00,0.0073
3984.00,0.0073
3983.00,0.0073
3982.00,0.0073
3981.00,0.0073
3980.00,0.0073
3979.00,0.0073
3978.00,0.0073
3977.00,0.0074
3976.00,0.0074
3975.00,0.0073
3974.00,0.0073
3973.00,0.0073
3972.00,0.0073
3971.00,0.0073
3970.00,0.0073
3969.00,0.0073
3968.00,0.0073
3967.00,0.0073
3966.00,0.0073
3965.00,0.0074
3964.00,0.0074
3963.00,0.0074
3962.00,0.0073
3961.00,0.0073
3960.00,0.0073
3959.00,0.0073
3958.00,0.0073
3957.00,0.0074
3956.00,0.0073
3955.00,0.0073
3954.00,0.0073
3953.00,0.0073
3952.00,0.0073
3951.00,0.0073
3950.00,0.0073
3949.00,0.0073
3948.00,0.0073
3947.00,0.0073
3946.00,0.0073
3945.00,0.0073
3944.00,0.0073
3943.00,0.0073
3942.00,0.0073
3941.00,0.0073
3940.00,0.0073
3939.00,0.0074
3938.00,0.0074
3937.00,0.0073
3936.00,0.0073
3935.00,0.0073
3934.00,0.0073
3933.00,0.0073
3932.00,0.0073
3931.00,0.0073
3930.00,0.0073
3929.00,0.0073
3928.00,0.0073
3927.00,0.0073
3926.00,0.0073
3925.00,0.0073
3924.00,0.0073
3923.00,0.0073
3922.00,0.0072
3921.00,0.0072
3920.00,0.0072
3919.00,0.0073
3918.00,0.0073
3917.00,0.0073
3916.00,0.0073
3915.00,0.0073
3914.00,0.0072
3913.00,0.0072
3912.00,0.0072
3911.00,0.0072
3910.00,0.0072
3909.00,0.0072
3908.00,0.0072
3907.00,0.0072
3906.00,0.0072
3905.00,0.0072
3904.00,0.0072
3903.00,0.0072
3902.00,0.0072
3901.00,0.0072
3900.00,0.0073
3899.00,0.0073
3898.00,0.0072
3897.00,0.0072
3896.00,0.0072
3895.00,0.0072
3894.00,0.0071
3893.00,0.0071
3892.00,0.0071
3891.00,0.0071
3890.00,0.0070
3889.00,0.0070
3888.00,0.0071
3887.00,0.0071
3886.00,0.0071
3885.00,0.0071
3884.00,0.0071
3883.00,0.0071
3882.00,0.0071
3881.00,0.0071
3880.00,0.0071
3879.00,0.0071
3878.00,0.0071
3877.00,0.0071
3876.00,0.0071
3875.00,0.0071
3874.00,0.0071
3873.00,0.0071
3872.00,0.0071
3871.00,0.0071
3870.00,0.0070
3869.00,0.0069
3868.00,0.0070
3867.00,0.0070
3866.00,0.0070
3865.00,0.0071
3864.00,0.0071
3863.00,0.0071
3862.00,0.0071
3861.00,0.0071
3860.00,0.0070
3859.00,0.0070
3858.00,0.0070
3857.00,0.0070
3856.00,0.0070
3855.00,0.0070
3854.00,0.0071
3853.00,0.0071
3852.00,0.0071
3851.00,0.0071
3850.00,0.0071
3849.00,0.0071
3848.00,0.0071
3847.00,0.0070
3846.00,0.0070
3845.00,0.0070
3844.00,0.0070
3843.00,0.0070
3842.00,0.0070
3841.00,0.0070
3840.00,0.0070
3839.00,0.0070
3838.00,0.0070
3837.00,0.0070
3836.00,0.0070
3835.00,0.0070
3834.00,0.0071
3833.00,0.0071
3832.00,0.0070
3831.00,0.0070
3830.00,0.0070
3829.00,0.0070
3828.00,0.0070
3827.00,0.0070
3826.00,0.0070
3825.00,0.0069
3824.00,0.0070
3823.00,0.0070
3822.00,0.0070
3821.00,0.0070
3820.00,0.0070
3819.00,0.0070
3818.00,0.0070
3817.00,0.0070
3816.00,0.0070
3815.00,0.0069
3814.00,0.0070
3813.00,0.0070
3812.00,0.0069
3811.00,0.0069
3810.00,0.0069
3809.00,0.0069
3808.00,0.0070
3807.00,0.0070
3806.00,0.0069
3805.00,0.0069
3804.00,0.0069
3803.00,0.0070
3802.00,0.0070
3801.00,0.0069
3800.00,0.0069
3799.00,0.0069
3798.00,0.0069
3797.00,0.0069
3796.00,0.0069
3795.00,0.0069
3794.00,0.0069
3793.00,0.0070
3792.00,0.0070
3791.00,0.0070
3790.00,0.0069
3789.00,0.0070
3788.00,0.0070
3787.00,0.0070
3786.00,0.0070
3785.00,0.0070
3784.00,0.0070
3783.00,0.0069
3782.00,0.0069
3781.00,0.0070
3780.00,0.0070
3779.00,0.0070
3778.00,0.0070
3777.00,0.0070
3776.00,0.0070
3775.00,0.0070
3774.00,0.0070
3773.00,0.0070
3772.00,0.0070
3771.00,0.0070
3770.00,0.0070
3769.00,0.0070
3768.00,0.0070
3767.00,0.0070
3766.00,0.0070
3765.00,0.0070
3764.00,0.0070
3763.00,0.0069
3762.00,0.0069
3761.00,0.0069
3760.00,0.0070
3759.00,0.0070
3758.00,0.0070
3757.00,0.0070
3756.00,0.0070
3755.00,0.0070
3754.00,0.0070
3753.00,0.0069
3752.00,0.0069
3751.00,0.0069
3750.00,0.0069
3749.00,0.0069
3748.00,0.0069
3747.00,0.0069
3746.00,0.0069
3745.00,0.0069
3744.00,0.0069
3743.00,0.0069
3742.00,0.0069
3741.00,0.0069
3740.00,0.0068
3739.00,0.0068
3738.00,0.0068
3737.00,0.0068
3736.00,0.0068
3735.00,0.0068
3734.00,0.0068
3733.00,0.0068
3732.00,0.0068
3731.00,0.0068
3730.00,0.0068
3729.00,0.0068
3728.00,0.0069
3727.00,0.0069
3726.00,0.0068
3725.00,0.0068
3724.00,0.0068
3723.00,0.0068
3722.00,0.0068
3721.00,0.0067
3720.00,0.0067
3719.00,0.0067
3718.00,0.0067
3717.00,0.0067
3716.00,0.0067
3715.00,0.0067
3714.00,0.0067
3713.00,0.0068
3712.00,0.0068
3711.00,0.0068
3710.00,0.0068
3709.00,0.0068
3708.00,0.0068
3707.00,0.0068
3706.00,0.0068
3705.00,0.0067
3704.00,0.0067
3703.00,0.0067
3702.00,0.0067
3701.00,0.0067
3700.00,0.0067
3699.00,0.0067
3698.00,0.0067
3697.00,0.0066
3696.00,0.0066
3695.00,0.0066
3694.00,0.0065
3693.00,0.0065
3692.00,0.0065
3691.00,0.0064
3690.00,0.0064
3689.00,0.0064
3688.00,0.0063
3687.00,0.0063
3686.00,0.0063
3685.00,0.0063
3684.00,0.0063
3683.00,0.0062
3682.00,0.0061
3681.00,0.0060
3680.00,0.0059
3679.00,0.0058
3678.00,0.0058
3677.00,0.0057
3676.00,0.0057
3675.00,0.0056
3674.00,0.0056
3673.00,0.0056
3672.00,0.0056
3671.00,0.0055
3670.00,0.0055
3669.00,0.0055
3668.00,0.0055
3667.00,0.0055
3666.00,0.0055
3665.00,0.0054
3664.00,0.0054
3663.00,0.0053
3662.00,0.0053
3661.00,0.0053
3660.00,0.0053
3659.00,0.0053
3658.00,0.0053
3657.00,0.0053
3656.00,0.0053
3655.00,0.0053
3654.00,0.0053
3653.00,0.0053
3652.00,0.0054
3651.00,0.0054
3650.00,0.0054
3649.00,0.0053
3648.00,0.0053
3647.00,0.0053
3646.00,0.0054
3645.00,0.0054
3644.00,0.0055
3643.00,0.0055
3642.00,0.0055
3641.00,0.0056
3640.00,0.0056
3639.00,0.0056
3638.00,0.0056
3637.00,0.0056
3636.00,0.0057
3635.00,0.0058
3634.00,0.0059
3633.00,0.0060
3632.00,0.0060
3631.00,0.0061
3630.00,0.0062
3629.00,0.0063
3628.00,0.0063
3627.00,0.0063
3626.00,0.0063
3625.00,0.0063
3624.00,0.0062
3623.00,0.0062
3622.00,0.0062
3621.00,0.0062
3620.00,0.0062
3619.00,0.0062
3618.00,0.0063
3617.00,0.0063
3616.00,0.0064
3615.00,0.0064
3614.00,0.0064
3613.00,0.0064
3612.00,0.0064
3611.00,0.0064
3610.00,0.0064
3609.00,0.0064
3608.00,0.0064
3607.00,0.0064
3606.00,0.0064
3605.00,0.0064
3604.00,0.0064
3603.00,0.0064
3602.00,0.0064
3601.00,0.0064
3600.00,0.0064
3599.00,0.0064
3598.00,0.0064
3597.00,0.0064
3596.00,0.0064
3595.00,0.0064
3594.00,0.0064
3593.00,0.0064
3592.00,0.0064
3591.00,0.0063
3590.00,0.0063
3589.00,0.0063
3588.00,0.0063
3587.00,0.0063
3586.00,0.0063
3585.00,0.0063
3584.00,0.0064
3583.00,0.0064
3582.00,0.0064
3581.00,0.0064
3580.00,0.0064
3579.00,0.0064
3578.00,0.0064
3577.00,0.0064
3576.00,0.0063
3575.00,0.0063
3574.00,0.0063
3573.00,0.0063
3572.00,0.0063
3571.00,0.0063
3570.00,0.0063
3569.00,0.0064
3568.00,0.0063
3567.00,0.0063
3566.00,0.0063
3565.00,0.0063
3564.00,0.0063
3563.00,0.0063
3562.00,0.0063
3561.00,0.0063
3560.00,0.0063
3559.00,0.0063
3558.00,0.0063
3557.00,0.0063
3556.00,0.0064
3555.00,0.0064
3554.00,0.0063
3553.00,0.0063
3552.00,0.0063
3551.00,0.0063
3550.00,0.0063
3549.00,0.0063
3548.00,0.0064
3547.00,0.0064
3546.00,0.0064
3545.00,0.0063
3544.00,0.0064
3543.00,0.0064
3542.00,0.0064
3541.00,0.0064
3540.00,0.0064
3539.00,0.0064
3538.00,0.0064
3537.00,0.0064
3536.00,0.0064
3535.00,0.0064
3534.00,0.0064
3533.00,0.0064
3532.00,0.0063
3531.00,0.0063
3530.00,0.0063
3529.00,0.0063
3528.00,0.0063
3527.00,0.0063
3526.00,0.0063
3525.00,0.0063
3524.00,0.0063
3523.00,0.0063
3522.00,0.0063
3521.00,0.0064
3520.00,0.0064
3519.00,0.0064
3518.00,0.0064
3517.00,0.0064
3516.00,0.0064
3515.00,0.0063
3514.00,0.0063
3513.00,0.0063
3512.00,0.0063
3511.00,0.0063
3510.00,0.0063
3509.00,0.0063
3508.00,0.0063
3507.00,0.0063
3506.00,0.0063
3505.00,0.0063
3504.00,0.0063
3503.00,0.0063
3502.00,0.0063
3501.00,0.0063
3500.00,0.0063
3499.00,0.0062
3498.00,0.0062
3497.00,0.0063
3496.00,0.0063
3495.00,0.0063
3494.00,0.0063
3493.00,0.0063
3492.00,0.0063
3491.00,0.0062
3490.00,0.0062
3489.00,0.0063
3488.00,0.0063
3487.00,0.0063
3486.00,0.0063
3485.00,0.0063
3484.00,0.0063
3483.00,0.0063
3482.00,0.0063
3481.00,0.0063
3480.00,0.0062
3479.00,0.0062
3478.00,0.0062
3477.00,0.0063
3476.00,0.0063
3475.00,0.0063
3474.00,0.0063
3473.00,0.0062
3472.00,0.0062
3471.00,0.0063
3470.00,0.0063
3469.00,0.0063
3468.00,0.0063
3467.00,0.0063
3466.00,0.0063
3465.00,0.0062
3464.00,0.0062
3463.00,0.0062
3462.00,0.0062
3461.00,0.0062
3460.00,0.0062
3459.00,0.0062
3458.00,0.0062
3457.00,0.0062
3456.00,0.0062
3455.00,0.0063
3454.00,0.0063
3453.00,0.0063
3452.00,0.0063
3451.00,0.0063
3450.00,0.0063
3449.00,0.0063
3448.00,0.0063
3447.00,0.0063
3446.00,0.0063
3445.00,0.0063
3444.00,0.0063
3443.00,0.0063
3442.00,0.0063
3441.00,0.0063
3440.00,0.0063
3439.00,0.0063
3438.00,0.0063
3437.00,0.0063
3436.00,0.0063
3435.00,0.0064
3434.00,0.0064
3433.00,0.0064
3432.00,0.0064
3431.00,0.0065
3430.00,0.0065
3429.00,0.0065
3428.00,0.0065
3427.00,0.0065
3426.00,0.0065
3425.00,0.0065
3424.00,0.0066
3423.00,0.0066
3422.00,0.0067
3421.00,0.0067
3420.00,0.0068
3419.00,0.0068
3418.00,0.0068
3417.00,0.0068
3416.00,0.0068
3415.00,0.0068
3414.00,0.0069
3413.00,0.0069
3412.00,0.0069
3411.00,0.0070
3410.00,0.0070
3409.00,0.0071
3408.00,0.0072
3407.00,0.0072
3406.00,0.0073
3405.00,0.0073
3404.00,0.0073
3403.00,0.0074
3402.00,0.0074
3401.00,0.0075
3400.00,0.0076
3399.00,0.0077
3398.00,0.0078
3397.00,0.0079
3396.00,0.0080
3395.00,0.0081
3394.00,0.0082
3393.00,0.0083
3392.00,0.0084
3391.00,0.0086
3390.00,0.0088
3389.00,0.0090
3388.00,0.0092
3387.00,0.0094
3386.00,0.0096
3385.00,0.0098
3384.00,0.0100
3383.00,0.0102
3382.00,0.0104
3381.00,0.0105
3380.00,0.0107
3379.00,0.0109
3378.00,0.0112
3377.00,0.0114
3376.00,0.0117
3375.00,0.0119
3374.00,0.0121
3373.00,0.0123
3372.00,0.0124
3371.00,0.0125
3370.00,0.0127
3369.00,0.0130
3368.00,0.0133
3367.00,0.0138
3366.00,0.0143
3365.00,0.0149
3364.00,0.0154
3363.00,0.0159
3362.00,0.0164
3361.00,0.0170
3360.00,0.0176
3359.00,0.0183
3358.00,0.0191
3357.00,0.0198
3356.00,0.0206
3355.00,0.0214
3354.00,0.0221
3353.00,0.0229
3352.00,0.0238
3351.00,0.0248
3350.00,0.0260
3349.00,0.0273
3348.00,0.0288
3347.00,0.0303
3346.00,0.0318
3345.00,0.0335
3344.00,0.0353
3343.00,0.0373
3342.00,0.0395
3341.00,0.0417
3340.00,0.0441
3339.00,0.0466
3338.00,0.0491
3337.00,0.0516
3336.00,0.0539
3335.00,0.0561
3334.00,0.0579
3333.00,0.0593
3332.00,0.0604
3331.00,0.0612
3330.00,0.0617
3329.00,0.0619
3328.00,0.0620
3327.00,0.0619
3326.00,0.0617
3325.00,0.0615
3324.00,0.0612
3323.00,0.0607
3322.00,0.0602
3321.00,0.0594
3320.00,0.0585
3319.00,0.0574
3318.00,0.0561
3317.00,0.0547
3316.00,0.0532
3315.00,0.0516
3314.00,0.0500
3313.00,0.0484
3312.00,0.0468
3311.00,0.0452
3310.00,0.0436
3309.00,0.0421
3308.00,0.0408
3307.00,0.0395
3306.00,0.0384
3305.00,0.0374
3304.00,0.0365
3303.00,0.0357
3302.00,0.0349
3301.00,0.0342
3300.00,0.0335
3299.00,0.0328
3298.00,0.0322
3297.00,0.0316
3296.00,0.0311
3295.00,0.0306
3294.00,0.0302
3293.00,0.0298
3292.00,0.0294
3291.00,0.0290
3290.00,0.0287
3289.00,0.0282
3288.00,0.0278
3287.00,0.0272
3286.00,0.0267
3285.00,0.0262
3284.00,0.0257
3283.00,0.0252
3282.00,0.0248
3281.00,0.0244
3280.00,0.0240
3279.00,0.0237
3278.00,0.0234
3277.00,0.0232
3276.00,0.0230
3275.00,0.0228
3274.00,0.0227
3273.00,0.0226
3272.00,0.0225
3271.00,0.0225
3270.00,0.0225
3269.00,0.0225
3268.00,0.0226
3267.00,0.0226
3266.00,0.0226
3265.00,0.0225
3264.00,0.0225
3263.00,0.0225
3262.00,0.0224
3261.00,0.0223
3260.00,0.0222
3259.00,0.0220
3258.00,0.0219
3257.00,0.0217
3256.00,0.0216
3255.00,0.0216
3254.00,0.0215
3253.00,0.0214
3252.00,0.0214
3251.00,0.0213
3250.00,0.0212
3249.00,0.0211
3248.00,0.0211
3247.00,0.0211
3246.00,0.0211
3245.00,0.0211
3244.00,0.0212
3243.00,0.0212
3242.00,0.0212
3241.00,0.0212
3240.00,0.0211
3239.00,0.0210
3238.00,0.0208
3237.00,0.0206
3236.00,0.0204
3235.00,0.0201
3234.00,0.0198
3233.00,0.0196
3232.00,0.0193
3231.00,0.0191
3230.00,0.0188
3229.00,0.0185
3228.00,0.0181
3227.00,0.0178
3226.00,0.0175
3225.00,0.0172
3224.00,0.0168
3223.00,0.0165
3222.00,0.0162
3221.00,0.0160
3220.00,0.0157
3219.00,0.0155
3218.00,0.0153
3217.00,0.0150
3216.00,0.0148
3215.00,0.0146
3214.00,0.0144
3213.00,0.0142
3212.00,0.0141
3211.00,0.0139
3210.00,0.0138
3209.00,0.0137
3208.00,0.0135
3207.00,0.0134
3206.00,0.0132
3205.00,0.0131
3204.00,0.0130
3203.00,0.0129
3202.00,0.0127
3201.00,0.0126
3200.00,0.0125
3199.00,0.0123
3198.00,0.0122
3197.00,0.0121
3196.00,0.0120
3195.00,0.0119
3194.00,0.0119
3193.00,0.0118
3192.00,0.0117
3191.00,0.0116
3190.00,0.0116
3189.00,0.0115
3188.00,0.0115
3187.00,0.0115
3186.00,0.0114
3185.00,0.0114
3184.00,0.0114
3183.00,0.0114
3182.00,0.0114
3181.00,0.0114
3180.00,0.0114
3179.00,0.0113
3178.00,0.0113
3177.00,0.0113
3176.00,0.0112
3175.00,0.0112
3174.00,0.0112
3173.00,0.0111
3172.00,0.0111
3171.00,0.0111
3170.00,0.0110
3169.00,0.0110
3168.00,0.0110
3167.00,0.0110
3166.00,0.0110
3165.00,0.0109
3164.00,0.0109
3163.00,0.0109
3162.00,0.0109
3161.00,0.0109
3160.00,0.0109
3159.00,0.0108
3158.00,0.0108
3157.00,0.0108
3156.00,0.0108
3155.00,0.0108
3154.00,0.0108
3153.00,0.0109
3152.00,0.0109
3151.00,0.0110
3150.00,0.0111
3149.00,0.0111
3148.00,0.0112
3147.00,0.0112
3146.00,0.0112
3145.00,0.0112
3144.00,0.0113
3143.00,0.0113
3142.00,0.0113
3141.00,0.0113
3140.00,0.0113
3139.00,0.0114
3138.00,0.0114
3137.00,0.0114
3136.00,0.0115
3135.00,0.0115
3134.00,0.0116
3133.00,0.0117
3132.00,0.0118
3131.00,0.0119
3130.00,0.0120
3129.00,0.0120
3128.00,0.0121
3127.00,0.0122
3126.00,0.0123
3125.00,0.0124
3124.00,0.0125
3123.00,0.0127
3122.00,0.0128
3121.00,0.0129
3120.00,0.0131
3119.00,0.0133
3118.00,0.0135
3117.00,0.0137
3116.00,0.0139
3115.00,0.0142
3114.00,0.0145
3113.00,0.0147
3112.00,0.0150
3111.00,0.0153
3110.00,0.0156
3109.00,0.0159
3108.00,0.0162
3107.00,0.0164
3106.00,0.0167
3105.00,0.0168
3104.00,0.0170
3103.00,0.0170
3102.00,0.0170
3101.00,0.0170
3100.00,0.0169
3099.00,0.0167
3098.00,0.0165
3097.00,0.0163
3096.00,0.0161
3095.00,0.0158
3094.00,0.0156
3093.00,0.0153
3092.00,0.0152
3091.00,0.0150
3090.00,0.0149
3089.00,0.0148
3088.00,0.0148
3087.00,0.0149
3086.00,0.0149
3085.00,0.0150
3084.00,0.0151
3083.00,0.0151
3082.00,0.0151
3081.00,0.0150
3080.00,0.0150
3079.00,0.0149
3078.00,0.0148
3077.00,0.0147
3076.00,0.0144
3075.00,0.0141
3074.00,0.0137
3073.00,0.0134
3072.00,0.0130
3071.00,0.0128
3070.00,0.0126
3069.00,0.0125
3068.00,0.0124
3067.00,0.0125
3066.00,0.0127
3065.00,0.0128
3064.00,0.0130
3063.00,0.0130
3062.00,0.0130
3061.00,0.0129
3060.00,0.0128
3059.00,0.0126
3058.00,0.0124
3057.00,0.0122
3056.00,0.0120
3055.00,0.0119
3054.00,0.0118
3053.00,0.0118
3052.00,0.0117
3051.00,0.0117
3050.00,0.0117
3049.00,0.0117
3048.00,0.0117
3047.00,0.0117
3046.00,0.0116
3045.00,0.0116
3044.00,0.0116
3043.00,0.0117
3042.00,0.0118
3041.00,0.0120
3040.00,0.0122
3039.00,0.0124
3038.00,0.0126
3037.00,0.0127
3036.00,0.0128
3035.00,0.0128
3034.00,0.0129
3033.00,0.0131
3032.00,0.0132
3031.00,0.0134
3030.00,0.0135
3029.00,0.0136
3028.00,0.0137
3027.00,0.0136
3026.00,0.0136
3025.00,0.0135
3024.00,0.0133
3023.00,0.0132
3022.00,0.0130
3021.00,0.0129
3020.00,0.0127
3019.00,0.0126
3018.00,0.0124
3017.00,0.0123
3016.00,0.0122
3015.00,0.0122
3014.00,0.0121
3013.00,0.0121
3012.00,0.0122
3011.00,0.0123
3010.00,0.0125
3009.00,0.0127
3008.00,0.0130
3007.00,0.0132
3006.00,0.0135
3005.00,0.0138
3004.00,0.0140
3003.00,0.0142
3002.00,0.0144
3001.00,0.0146
3000.00,0.0146
2999.00,0.0146
2998.00,0.0145
2997.00,0.0143
2996.00,0.0138
2995.00,0.0132
2994.00,0.0124
2993.00,0.0116
2992.00,0.0107
2991.00,0.0100
2990.00,0.0094
2989.00,0.0088
2988.00,0.0083
2987.00,0.0077
2986.00,0.0069
2985.00,0.0058
2984.00,0.0046
2983.00,0.0033
2982.00,0.0024
2981.00,0.0020
2980.00,0.0021
2979.00,0.0027
2978.00,0.0033
2977.00,0.0038
2976.00,0.0043
2975.00,0.0045
2974.00,0.0046
2973.00,0.0046
2972.00,0.0047
2971.00,0.0050
2970.00,0.0056
2969.00,0.0064
2968.00,0.0073
2967.00,0.0081
2966.00,0.0091
2965.00,0.0101
2964.00,0.0113
2963.00,0.0127
2962.00,0.0142
2961.00,0.0159
2960.00,0.0176
2959.00,0.0193
2958.00,0.0209
2957.00,0.0223
2956.00,0.0234
2955.00,0.0242
2954.00,0.0245
2953.00,0.0244
2952.00,0.0240
2951.00,0.0232
2950.00,0.0221
2949.00,0.0209
2948.00,0.0197
2947.00,0.0186
2946.00,0.0177
2945.00,0.0169
2944.00,0.0163
2943.00,0.0158
2942.00,0.0153
2941.00,0.0150
2940.00,0.0148
2939.00,0.0146
2938.00,0.0144
2937.00,0.0143
2936.00,0.0143
2935.00,0.0142
2934.00,0.0142
2933.00,0.0141
2932.00,0.0140
2931.00,0.0139
2930.00,0.0138
2929.00,0.0137
2928.00,0.0136
2927.00,0.0135
2926.00,0.0133
2925.00,0.0131
2924.00,0.0129
2923.00,0.0127
2922.00,0.0125
2921.00,0.0123
2920.00,0.0121
2919.00,0.0118
2918.00,0.0116
2917.00,0.0114
2916.00,0.0113
2915.00,0.0112
2914.00,0.0111
2913.00,0.0110
2912.00,0.0109
2911.00,0.0109
2910.00,0.0107
2909.00,0.0106
2908.00,0.0105
2907.00,0.0103
2906.00,0.0101
2905.00,0.0100
2904.00,0.0099
2903.00,0.0098
2902.00,0.0097
2901.00,0.0096
2900.00,0.0095
2899.00,0.0094
2898.00,0.0092
2897.00,0.0090
2896.00,0.0088
2895.00,0.0087
2894.00,0.0086
2893.00,0.0085
2892.00,0.0084
2891.00,0.0083
2890.00,0.0083
2889.00,0.0083
2888.00,0.0084
2887.00,0.0085
2886.00,0.0085
2885.00,0.0086
2884.00,0.0087
2883.00,0.0088
2882.00,0.0090
2881.00,0.0092
2880.00,0.0095
2879.00,0.0097
2878.00,0.0099
2877.00,0.0101
2876.00,0.0103
2875.00,0.0104
2874.00,0.0106
2873.00,0.0108
2872.00,0.0110
2871.00,0.0112
2870.00,0.0114
2869.00,0.0114
2868.00,0.0114
2867.00,0.0114
2866.00,0.0113
2865.00,0.0112
2864.00,0.0111
2863.00,0.0110
2862.00,0.0109
2861.00,0.0108
2860.00,0.0108
2859.00,0.0108
2858.00,0.0108
2857.00,0.0108
2856.00,0.0109
2855.00,0.0109
2854.00,0.0109
2853.00,0.0110
2852.00,0.0111
2851.00,0.0113
2850.00,0.0115
2849.00,0.0118
2848.00,0.0121
2847.00,0.0125
2846.00,0.0129
2845.00,0.0133
2844.00,0.0135
2843.00,0.0136
2842.00,0.0135
2841.00,0.0132
2840.00,0.0129
2839.00,0.0125
2838.00,0.0122
2837.00,0.0118
2836.00,0.0115
2835.00,0.0113
2834.00,0.0111
2833.00,0.0109
2832.00,0.0108
2831.00,0.0107
2830.00,0.0106
2829.00,0.0105
2828.00,0.0105
2827.00,0.0104
2826.00,0.0104
2825.00,0.0104
2824.00,0.0104
2823.00,0.0104
2822.00,0.0104
2821.00,0.0104
2820.00,0.0104
2819.00,0.0104
2818.00,0.0104
2817.00,0.0105
2816.00,0.0105
2815.00,0.0105
2814.00,0.0106
2813.00,0.0106
2812.00,0.0106
2811.00,0.0106
2810.00,0.0106
2809.00,0.0106
2808.00,0.0106
2807.00,0.0106
2806.00,0.0106
2805.00,0.0105
2804.00,0.0105
2803.00,0.0104
2802.00,0.0103
2801.00,0.0103
2800.00,0.0102
2799.00,0.0101
2798.00,0.0100
2797.00,0.0099
2796.00,0.0098
2795.00,0.0097
2794.00,0.0096
2793.00,0.0095
2792.00,0.0094
2791.00,0.0093
2790.00,0.0092
2789.00,0.0091
2788.00,0.0091
2787.00,0.0090
2786.00,0.0089
2785.00,0.0088
2784.00,0.0088
2783.00,0.0087
2782.00,0.0087
2781.00,0.0087
2780.00,0.0086
2779.00,0.0086
2778.00,0.0086
2777.00,0.0086
2776.00,0.0086
2775.00,0.0086
2774.00,0.0086
2773.00,0.0086
2772.00,0.0086
2771.00,0.0086
2770.00,0.0085
2769.00,0.0085
2768.00,0.0085
2767.00,0.0086
2766.00,0.0085
2765.00,0.0086
2764.00,0.0086
2763.00,0.0085
2762.00,0.0085
2761.00,0.0085
2760.00,0.0085
2759.00,0.0085
2758.00,0.0085
2757.00,0.0084
