Created as New Dataset,Sample 814 By YargerLab Date Thursday, July 10 2025
cm-1,A
4000.00,0.0057
3999.00,0.0057
3998.00,0.0057
3997.00,0.0057
3996.00,0.0056
3995.00,0.0056
3994.00,0.0056
3993.00,0.0056
3992.00,0.0056
3991.00,0.0056
3990.00,0.0056
3989.00,0.0056
3988.00,0.0056
3987.00,0.0056
3986.00,0.0056
3985.00,0.0056
3984.00,0.0056
3983.00,0.0056
3982.00,0.0056
3981.00,0.0056
3980.00,0.0056
3979.00,0.0056
3978.00,0.0056
3977.00,0.0056
3976.00,0.0056
3975.00,0.0056
3974.00,0.0056
3973.00,0.0056
3972.00,0.0056
3971.00,0.0056
3970.00,0.0056
3969.00,0.0056
3968.00,0.0056
3967.00,0.0056
3966.00,0.0055
3965.00,0.0055
3964.00,0.0055
3963.00,0.0055
3962.00,0.0055
3961.00,0.0055
3960.00,0.0055
3959.00,0.0055
3958.00,0.0056
3957.00,0.0056
3956.00,0.0056
3955.00,0.0055
3954.00,0.0055
3953.00,0.0055
3952.00,0.0055
3951.00,0.0055
3950.00,0.0055
3949.00,0.0055
3948.00,0.0055
3947.00,0.0055
3946.00,0.0055
3945.00,0.0055
3944.00,0.0055
3943.00,0.0055
3942.00,0.0055
3941.00,0.0055
3940.00,0.0055
3939.00,0.0055
3938.00,0.0055
3937.00,0.0055
3936.00,0.0055
3935.00,0.0055
3934.00,0.0055
3933.00,0.0055
3932.00,0.0055
3931.00,0.0055
3930.00,0.0055
3929.00,0.0055
3928.00,0.0055
3927.00,0.0055
3926.00,0.0055
3925.00,0.0055
3924.00,0.0055
3923.00,0.0056
3922.00,0.0055
3921.00,0.0055
3920.00,0.0055
3919.00,0.0055
3918.00,0.0055
3917.00,0.0055
3916.00,0.0055
3915.00,0.0055
3914.00,0.0055
3913.00,0.0055
3912.00,0.0055
3911.00,0.0055
3910.00,0.0055
3909.00,0.0055
3908.00,0.0056
3907.00,0.0056
3906.00,0.0056
3905.00,0.0056
3904.00,0.0056
3903.00,0.0056
3902.00,0.0056
3901.00,0.0056
3900.00,0.0055
3899.00,0.0055
3898.00,0.0055
3897.00,0.0055
3896.00,0.0055
3895.00,0.0055
3894.00,0.0055
3893.00,0.0056
3892.00,0.0056
3891.00,0.0056
3890.00,0.0056
3889.00,0.0056
3888.00,0.0056
3887.00,0.0056
3886.00,0.0056
3885.00,0.0055
3884.00,0.0055
3883.00,0.0055
3882.00,0.0056
3881.00,0.0056
3880.00,0.0055
3879.00,0.0055
3878.00,0.0055
3877.00,0.0055
3876.00,0.0055
3875.00,0.0055
3874.00,0.0055
3873.00,0.0055
3872.00,0.0056
3871.00,0.0056
3870.00,0.0056
3869.00,0.0055
3868.00,0.0055
3867.00,0.0055
3866.00,0.0055
3865.00,0.0055
3864.00,0.0055
3863.00,0.0054
3862.00,0.0055
3861.00,0.0055
3860.00,0.0055
3859.00,0.0056
3858.00,0.0056
3857.00,0.0056
3856.00,0.0056
3855.00,0.0057
3854.00,0.0057
3853.00,0.0056
3852.00,0.0056
3851.00,0.0055
3850.00,0.0056
3849.00,0.0055
3848.00,0.0055
3847.00,0.0055
3846.00,0.0055
3845.00,0.0055
3844.00,0.0056
3843.00,0.0056
3842.00,0.0057
3841.00,0.0057
3840.00,0.0057
3839.00,0.0057
3838.00,0.0056
3837.00,0.0056
3836.00,0.0056
3835.00,0.0056
3834.00,0.0055
3833.00,0.0055
3832.00,0.0055
3831.00,0.0055
3830.00,0.0055
3829.00,0.0055
3828.00,0.0055
3827.00,0.0055
3826.00,0.0055
3825.00,0.0055
3824.00,0.0055
3823.00,0.0056
3822.00,0.0056
3821.00,0.0056
3820.00,0.0056
3819.00,0.0056
3818.00,0.0056
3817.00,0.0056
3816.00,0.0056
3815.00,0.0055
3814.00,0.0055
3813.00,0.0055
3812.00,0.0055
3811.00,0.0055
3810.00,0.0055
3809.00,0.0055
3808.00,0.0055
3807.00,0.0055
3806.00,0.0056
3805.00,0.0056
3804.00,0.0056
3803.00,0.0057
3802.00,0.0056
3801.00,0.0056
3800.00,0.0055
3799.00,0.0055
3798.00,0.0056
3797.00,0.0055
3796.00,0.0055
3795.00,0.0054
3794.00,0.0054
3793.00,0.0054
3792.00,0.0054
3791.00,0.0054
3790.00,0.0054
3789.00,0.0054
3788.00,0.0055
3787.00,0.0055
3786.00,0.0055
3785.00,0.0055
3784.00,0.0055
3783.00,0.0055
3782.00,0.0055
3781.00,0.0055
3780.00,0.0055
3779.00,0.0055
3778.00,0.0055
3777.00,0.0055
3776.00,0.0055
3775.00,0.0055
3774.00,0.0055
3773.00,0.0055
3772.00,0.0055
3771.00,0.0056
3770.00,0.0056
3769.00,0.0056
3768.00,0.0056
3767.00,0.0056
3766.00,0.0056
3765.00,0.0056
3764.00,0.0056
3763.00,0.0056
3762.00,0.0056
3761.00,0.0057
3760.00,0.0056
3759.00,0.0056
3758.00,0.0056
3757.00,0.0056
3756.00,0.0056
3755.00,0.0057
3754.00,0.0057
3753.00,0.0058
3752.00,0.0058
3751.00,0.0058
3750.00,0.0058
3749.00,0.0057
3748.00,0.0057
3747.00,0.0058
3746.00,0.0058
3745.00,0.0058
3744.00,0.0057
3743.00,0.0057
3742.00,0.0057
3741.00,0.0057
3740.00,0.0057
3739.00,0.0057
3738.00,0.0057
3737.00,0.0056
3736.00,0.0056
3735.00,0.0056
3734.00,0.0055
3733.00,0.0055
3732.00,0.0054
3731.00,0.0054
3730.00,0.0054
3729.00,0.0054
3728.00,0.0054
3727.00,0.0054
3726.00,0.0054
3725.00,0.0055
3724.00,0.0055
3723.00,0.0056
3722.00,0.0056
3721.00,0.0056
3720.00,0.0055
3719.00,0.0055
3718.00,0.0055
3717.00,0.0055
3716.00,0.0055
3715.00,0.0056
3714.00,0.0057
3713.00,0.0057
3712.00,0.0057
3711.00,0.0057
3710.00,0.0056
3709.00,0.0055
3708.00,0.0055
3707.00,0.0054
3706.00,0.0054
3705.00,0.0055
3704.00,0.0055
3703.00,0.0055
3702.00,0.0055
3701.00,0.0055
3700.00,0.0055
3699.00,0.0055
3698.00,0.0056
3697.00,0.0056
3696.00,0.0056
3695.00,0.0056
3694.00,0.0057
3693.00,0.0057
3692.00,0.0058
3691.00,0.0058
3690.00,0.0059
3689.00,0.0060
3688.00,0.0060
3687.00,0.0061
3686.00,0.0061
3685.00,0.0062
3684.00,0.0063
3683.00,0.0063
3682.00,0.0064
3681.00,0.0064
3680.00,0.0065
3679.00,0.0066
3678.00,0.0066
3677.00,0.0067
3676.00,0.0068
3675.00,0.0068
3674.00,0.0068
3673.00,0.0069
3672.00,0.0069
3671.00,0.0070
3670.00,0.0070
3669.00,0.0070
3668.00,0.0071
3667.00,0.0071
3666.00,0.0071
3665.00,0.0071
3664.00,0.0071
3663.00,0.0072
3662.00,0.0073
3661.00,0.0074
3660.00,0.0075
3659.00,0.0075
3658.00,0.0076
3657.00,0.0077
3656.00,0.0078
3655.00,0.0079
3654.00,0.0080
3653.00,0.0081
3652.00,0.0082
3651.00,0.0083
3650.00,0.0085
3649.00,0.0086
3648.00,0.0088
3647.00,0.0089
3646.00,0.0090
3645.00,0.0091
3644.00,0.0092
3643.00,0.0093
3642.00,0.0094
3641.00,0.0095
3640.00,0.0097
3639.00,0.0098
3638.00,0.0099
3637.00,0.0100
3636.00,0.0102
3635.00,0.0103
3634.00,0.0104
3633.00,0.0105
3632.00,0.0107
3631.00,0.0109
3630.00,0.0111
3629.00,0.0115
3628.00,0.0117
3627.00,0.0119
3626.00,0.0120
3625.00,0.0120
3624.00,0.0121
3623.00,0.0122
3622.00,0.0123
3621.00,0.0126
3620.00,0.0129
3619.00,0.0132
3618.00,0.0135
3617.00,0.0137
3616.00,0.0139
3615.00,0.0141
3614.00,0.0143
3613.00,0.0145
3612.00,0.0147
3611.00,0.0149
3610.00,0.0151
3609.00,0.0154
3608.00,0.0156
3607.00,0.0158
3606.00,0.0160
3605.00,0.0162
3604.00,0.0163
3603.00,0.0165
3602.00,0.0167
3601.00,0.0170
3600.00,0.0173
3599.00,0.0175
3598.00,0.0178
3597.00,0.0180
3596.00,0.0183
3595.00,0.0186
3594.00,0.0189
3593.00,0.0192
3592.00,0.0194
3591.00,0.0196
3590.00,0.0199
3589.00,0.0202
3588.00,0.0206
3587.00,0.0211
3586.00,0.0215
3585.00,0.0218
3584.00,0.0220
3583.00,0.0222
3582.00,0.0224
3581.00,0.0227
3580.00,0.0230
3579.00,0.0233
3578.00,0.0237
3577.00,0.0240
3576.00,0.0243
3575.00,0.0246
3574.00,0.0249
3573.00,0.0252
3572.00,0.0254
3571.00,0.0257
3570.00,0.0259
3569.00,0.0262
3568.00,0.0267
3567.00,0.0273
3566.00,0.0278
3565.00,0.0282
3564.00,0.0285
3563.00,0.0287
3562.00,0.0290
3561.00,0.0293
3560.00,0.0296
3559.00,0.0299
3558.00,0.0301
3557.00,0.0304
3556.00,0.0307
3555.00,0.0310
3554.00,0.0313
3553.00,0.0317
3552.00,0.0320
3551.00,0.0323
3550.00,0.0325
3549.00,0.0328
3548.00,0.0330
3547.00,0.0334
3546.00,0.0338
3545.00,0.0342
3544.00,0.0345
3543.00,0.0347
3542.00,0.0350
3541.00,0.0352
3540.00,0.0354
3539.00,0.0356
3538.00,0.0358
3537.00,0.0361
3536.00,0.0364
3535.00,0.0366
3534.00,0.0369
3533.00,0.0371
3532.00,0.0373
3531.00,0.0374
3530.00,0.0376
3529.00,0.0379
3528.00,0.0382
3527.00,0.0384
3526.00,0.0387
3525.00,0.0389
3524.00,0.0391
3523.00,0.0394
3522.00,0.0396
3521.00,0.0397
3520.00,0.0399
3519.00,0.0400
3518.00,0.0402
3517.00,0.0404
3516.00,0.0406
3515.00,0.0407
3514.00,0.0409
3513.00,0.0410
3512.00,0.0411
3511.00,0.0413
3510.00,0.0415
3509.00,0.0416
3508.00,0.0418
3507.00,0.0419
3506.00,0.0420
3505.00,0.0422
3504.00,0.0424
3503.00,0.0426
3502.00,0.0428
3501.00,0.0430
3500.00,0.0430
3499.00,0.0431
3498.00,0.0432
3497.00,0.0433
3496.00,0.0434
3495.00,0.0435
3494.00,0.0437
3493.00,0.0438
3492.00,0.0438
3491.00,0.0439
3490.00,0.0440
3489.00,0.0442
3488.00,0.0443
3487.00,0.0445
3486.00,0.0446
3485.00,0.0447
3484.00,0.0447
3483.00,0.0449
3482.00,0.0450
3481.00,0.0452
3480.00,0.0453
3479.00,0.0454
3478.00,0.0455
3477.00,0.0455
3476.00,0.0456
3475.00,0.0457
3474.00,0.0458
3473.00,0.0459
3472.00,0.0460
3471.00,0.0462
3470.00,0.0463
3469.00,0.0464
3468.00,0.0465
3467.00,0.0465
3466.00,0.0466
3465.00,0.0466
3464.00,0.0467
3463.00,0.0468
3462.00,0.0469
3461.00,0.0470
3460.00,0.0471
3459.00,0.0471
3458.00,0.0472
3457.00,0.0472
3456.00,0.0473
3455.00,0.0473
3454.00,0.0474
3453.00,0.0475
3452.00,0.0475
3451.00,0.0475
3450.00,0.0476
3449.00,0.0476
3448.00,0.0477
3447.00,0.0478
3446.00,0.0479
3445.00,0.0480
3444.00,0.0480
3443.00,0.0481
3442.00,0.0481
3441.00,0.0482
3440.00,0.0482
3439.00,0.0482
3438.00,0.0482
3437.00,0.0483
3436.00,0.0483
3435.00,0.0483
3434.00,0.0483
3433.00,0.0483
3432.00,0.0483
3431.00,0.0483
3430.00,0.0484
3429.00,0.0483
3428.00,0.0483
3427.00,0.0483
3426.00,0.0483
3425.00,0.0483
3424.00,0.0482
3423.00,0.0482
3422.00,0.0482
3421.00,0.0482
3420.00,0.0482
3419.00,0.0482
3418.00,0.0481
3417.00,0.0481
3416.00,0.0480
3415.00,0.0480
3414.00,0.0479
3413.00,0.0479
3412.00,0.0478
3411.00,0.0478
3410.00,0.0477
3409.00,0.0477
3408.00,0.0476
3407.00,0.0475
3406.00,0.0474
3405.00,0.0473
3404.00,0.0473
3403.00,0.0472
3402.00,0.0471
3401.00,0.0470
3400.00,0.0469
3399.00,0.0468
3398.00,0.0467
3397.00,0.0467
3396.00,0.0466
3395.00,0.0465
3394.00,0.0463
3393.00,0.0462
3392.00,0.0461
3391.00,0.0460
3390.00,0.0458
3389.00,0.0457
3388.00,0.0455
3387.00,0.0454
3386.00,0.0453
3385.00,0.0452
3384.00,0.0451
3383.00,0.0449
3382.00,0.0448
3381.00,0.0446
3380.00,0.0444
3379.00,0.0443
3378.00,0.0441
3377.00,0.0440
3376.00,0.0439
3375.00,0.0437
3374.00,0.0435
3373.00,0.0433
3372.00,0.0431
3371.00,0.0429
3370.00,0.0427
3369.00,0.0425
3368.00,0.0424
3367.00,0.0423
3366.00,0.0422
3365.00,0.0421
3364.00,0.0419
3363.00,0.0417
3362.00,0.0415
3361.00,0.0414
3360.00,0.0413
3359.00,0.0412
3358.00,0.0410
3357.00,0.0409
3356.00,0.0407
3355.00,0.0405
3354.00,0.0403
3353.00,0.0401
3352.00,0.0399
3351.00,0.0397
3350.00,0.0396
3349.00,0.0395
3348.00,0.0394
3347.00,0.0393
3346.00,0.0391
3345.00,0.0389
3344.00,0.0387
3343.00,0.0386
3342.00,0.0384
3341.00,0.0382
3340.00,0.0380
3339.00,0.0379
3338.00,0.0378
3337.00,0.0378
3336.00,0.0378
3335.00,0.0378
3334.00,0.0378
3333.00,0.0377
3332.00,0.0376
3331.00,0.0374
3330.00,0.0373
3329.00,0.0371
3328.00,0.0369
3327.00,0.0367
3326.00,0.0366
3325.00,0.0365
3324.00,0.0365
3323.00,0.0365
3322.00,0.0365
3321.00,0.0365
3320.00,0.0364
3319.00,0.0363
3318.00,0.0363
3317.00,0.0362
3316.00,0.0361
3315.00,0.0359
3314.00,0.0358
3313.00,0.0356
3312.00,0.0354
3311.00,0.0352
3310.00,0.0349
3309.00,0.0346
3308.00,0.0344
3307.00,0.0343
3306.00,0.0343
3305.00,0.0344
3304.00,0.0345
3303.00,0.0347
3302.00,0.0348
3301.00,0.0348
3300.00,0.0347
3299.00,0.0345
3298.00,0.0343
3297.00,0.0341
3296.00,0.0339
3295.00,0.0338
3294.00,0.0337
3293.00,0.0337
3292.00,0.0337
3291.00,0.0338
3290.00,0.0338
3289.00,0.0339
3288.00,0.0339
3287.00,0.0338
3286.00,0.0337
3285.00,0.0336
3284.00,0.0335
3283.00,0.0334
3282.00,0.0333
3281.00,0.0331
3280.00,0.0330
3279.00,0.0328
3278.00,0.0326
3277.00,0.0324
3276.00,0.0322
3275.00,0.0320
3274.00,0.0318
3273.00,0.0316
3272.00,0.0314
3271.00,0.0313
3270.00,0.0313
3269.00,0.0313
3268.00,0.0313
3267.00,0.0313
3266.00,0.0312
3265.00,0.0311
3264.00,0.0310
3263.00,0.0308
3262.00,0.0307
3261.00,0.0305
3260.00,0.0303
3259.00,0.0301
3258.00,0.0299
3257.00,0.0297
3256.00,0.0295
3255.00,0.0294
3254.00,0.0293
3253.00,0.0292
3252.00,0.0290
3251.00,0.0288
3250.00,0.0286
3249.00,0.0283
3248.00,0.0281
3247.00,0.0280
3246.00,0.0279
3245.00,0.0278
3244.00,0.0277
3243.00,0.0276
3242.00,0.0274
3241.00,0.0272
3240.00,0.0270
3239.00,0.0269
3238.00,0.0267
3237.00,0.0265
3236.00,0.0263
3235.00,0.0261
3234.00,0.0259
3233.00,0.0258
3232.00,0.0257
3231.00,0.0256
3230.00,0.0255
3229.00,0.0253
3228.00,0.0251
3227.00,0.0249
3226.00,0.0247
3225.00,0.0246
3224.00,0.0244
3223.00,0.0242
3222.00,0.0241
3221.00,0.0239
3220.00,0.0238
3219.00,0.0237
3218.00,0.0235
3217.00,0.0233
3216.00,0.0232
3215.00,0.0230
3214.00,0.0228
3213.00,0.0227
3212.00,0.0225
3211.00,0.0224
3210.00,0.0222
3209.00,0.0221
3208.00,0.0219
3207.00,0.0218
3206.00,0.0216
3205.00,0.0215
3204.00,0.0213
3203.00,0.0211
3202.00,0.0210
3201.00,0.0208
3200.00,0.0207
3199.00,0.0205
3198.00,0.0204
3197.00,0.0203
3196.00,0.0201
3195.00,0.0200
3194.00,0.0198
3193.00,0.0197
3192.00,0.0195
3191.00,0.0194
3190.00,0.0193
3189.00,0.0192
3188.00,0.0190
3187.00,0.0189
3186.00,0.0188
3185.00,0.0187
3184.00,0.0186
3183.00,0.0185
3182.00,0.0184
3181.00,0.0182
3180.00,0.0181
3179.00,0.0180
3178.00,0.0179
3177.00,0.0178
3176.00,0.0177
3175.00,0.0176
3174.00,0.0175
3173.00,0.0174
3172.00,0.0173
3171.00,0.0172
3170.00,0.0171
3169.00,0.0170
3168.00,0.0169
3167.00,0.0168
3166.00,0.0167
3165.00,0.0166
3164.00,0.0165
3163.00,0.0164
3162.00,0.0163
3161.00,0.0162
3160.00,0.0161
3159.00,0.0160
3158.00,0.0159
3157.00,0.0158
3156.00,0.0157
3155.00,0.0157
3154.00,0.0156
3153.00,0.0155
3152.00,0.0154
3151.00,0.0153
3150.00,0.0152
3149.00,0.0151
3148.00,0.0151
3147.00,0.0150
3146.00,0.0149
3145.00,0.0148
3144.00,0.0147
3143.00,0.0146
3142.00,0.0146
3141.00,0.0145
3140.00,0.0144
3139.00,0.0144
3138.00,0.0144
3137.00,0.0143
3136.00,0.0142
3135.00,0.0141
3134.00,0.0141
3133.00,0.0140
3132.00,0.0139
3131.00,0.0138
3130.00,0.0138
3129.00,0.0137
3128.00,0.0137
3127.00,0.0136
3126.00,0.0136
3125.00,0.0135
3124.00,0.0134
3123.00,0.0133
3122.00,0.0133
3121.00,0.0132
3120.00,0.0132
3119.00,0.0131
3118.00,0.0131
3117.00,0.0130
3116.00,0.0130
3115.00,0.0130
3114.00,0.0129
3113.00,0.0129
3112.00,0.0129
3111.00,0.0128
3110.00,0.0127
3109.00,0.0127
3108.00,0.0126
3107.00,0.0126
3106.00,0.0126
3105.00,0.0126
3104.00,0.0125
3103.00,0.0125
3102.00,0.0124
3101.00,0.0123
3100.00,0.0122
3099.00,0.0122
3098.00,0.0121
3097.00,0.0121
3096.00,0.0121
3095.00,0.0121
3094.00,0.0120
3093.00,0.0120
3092.00,0.0119
3091.00,0.0119
3090.00,0.0118
3089.00,0.0118
3088.00,0.0117
3087.00,0.0117
3086.00,0.0116
3085.00,0.0116
3084.00,0.0116
3083.00,0.0115
3082.00,0.0115
3081.00,0.0114
3080.00,0.0114
3079.00,0.0113
3078.00,0.0113
3077.00,0.0112
3076.00,0.0112
3075.00,0.0112
3074.00,0.0112
3073.00,0.0111
3072.00,0.0111
3071.00,0.0110
3070.00,0.0110
3069.00,0.0110
3068.00,0.0109
3067.00,0.0109
3066.00,0.0109
3065.00,0.0109
3064.00,0.0109
3063.00,0.0108
3062.00,0.0108
3061.00,0.0108
3060.00,0.0108
3059.00,0.0108
3058.00,0.0108
3057.00,0.0107
3056.00,0.0107
3055.00,0.0107
3054.00,0.0106
3053.00,0.0106
3052.00,0.0106
3051.00,0.0106
3050.00,0.0105
3049.00,0.0105
3048.00,0.0105
3047.00,0.0105
3046.00,0.0105
3045.00,0.0105
3044.00,0.0104
3043.00,0.0104
3042.00,0.0104
3041.00,0.0104
3040.00,0.0104
3039.00,0.0104
3038.00,0.0104
3037.00,0.0103
3036.00,0.0103
3035.00,0.0103
3034.00,0.0103
3033.00,0.0103
3032.00,0.0103
3031.00,0.0104
3030.00,0.0104
3029.00,0.0104
3028.00,0.0104
3027.00,0.0105
3026.00,0.0105
3025.00,0.0106
3024.00,0.0106
3023.00,0.0107
3022.00,0.0108
3021.00,0.0109
3020.00,0.0109
3019.00,0.0108
3018.00,0.0107
3017.00,0.0106
3016.00,0.0106
3015.00,0.0107
3014.00,0.0110
3013.00,0.0114
3012.00,0.0119
3011.00,0.0122
3010.00,0.0125
3009.00,0.0128
3008.00,0.0131
3007.00,0.0134
3006.00,0.0137
3005.00,0.0141
3004.00,0.0144
3003.00,0.0148
3002.00,0.0152
3001.00,0.0156
3000.00,0.0161
2999.00,0.0165
2998.00,0.0171
2997.00,0.0177
2996.00,0.0183
2995.00,0.0189
2994.00,0.0195
2993.00,0.0202
2992.00,0.0209
2991.00,0.0216
2990.00,0.0223
2989.00,0.0229
2988.00,0.0236
2987.00,0.0241
2986.00,0.0247
2985.00,0.0251
2984.00,0.0255
2983.00,0.0258
2982.00,0.0262
2981.00,0.0266
2980.00,0.0271
2979.00,0.0275
2978.00,0.0279
2977.00,0.0281
2976.00,0.0284
2975.00,0.0289
2974.00,0.0295
2973.00,0.0303
2972.00,0.0311
2971.00,0.0318
2970.00,0.0325
2969.00,0.0331
2968.00,0.0337
2967.00,0.0343
2966.00,0.0348
2965.00,0.0353
2964.00,0.0358
2963.00,0.0363
2962.00,0.0367
2961.00,0.0371
2960.00,0.0375
2959.00,0.0378
2958.00,0.0381
2957.00,0.0383
2956.00,0.0386
2955.00,0.0388
2954.00,0.0389
2953.00,0.0390
2952.00,0.0391
2951.00,0.0391
2950.00,0.0390
2949.00,0.0389
2948.00,0.0387
2947.00,0.0385
2946.00,0.0383
2945.00,0.0380
2944.00,0.0378
2943.00,0.0375
2942.00,0.0373
2941.00,0.0370
2940.00,0.0368
2939.00,0.0366
2938.00,0.0364
2937.00,0.0363
2936.00,0.0363
2935.00,0.0362
2934.00,0.0363
2933.00,0.0363
2932.00,0.0363
2931.00,0.0364
2930.00,0.0365
2929.00,0.0367
2928.00,0.0369
2927.00,0.0371
2926.00,0.0372
2925.00,0.0373
2924.00,0.0374
2923.00,0.0374
2922.00,0.0373
2921.00,0.0372
2920.00,0.0369
2919.00,0.0367
2918.00,0.0364
2917.00,0.0360
2916.00,0.0357
2915.00,0.0353
2914.00,0.0348
2913.00,0.0344
2912.00,0.0339
2911.00,0.0335
2910.00,0.0330
2909.00,0.0326
2908.00,0.0323
2907.00,0.0319
2906.00,0.0317
2905.00,0.0314
2904.00,0.0313
2903.00,0.0312
2902.00,0.0312
2901.00,0.0312
2900.00,0.0313
2899.00,0.0313
2898.00,0.0314
2897.00,0.0314
2896.00,0.0315
2895.00,0.0316
2894.00,0.0317
2893.00,0.0317
2892.00,0.0317
2891.00,0.0317
2890.00,0.0317
2889.00,0.0317
2888.00,0.0317
2887.00,0.0317
2886.00,0.0317
2885.00,0.0317
2884.00,0.0317
2883.00,0.0316
2882.00,0.0316
2881.00,0.0316
2880.00,0.0315
2879.00,0.0315
2878.00,0.0314
2877.00,0.0312
2876.00,0.0310
2875.00,0.0308
2874.00,0.0306
2873.00,0.0305
2872.00,0.0303
2871.00,0.0302
2870.00,0.0300
2869.00,0.0298
2868.00,0.0296
2867.00,0.0294
2866.00,0.0292
2865.00,0.0290
2864.00,0.0287
2863.00,0.0285
2862.00,0.0282
2861.00,0.0278
2860.00,0.0275
2859.00,0.0271
2858.00,0.0267
2857.00,0.0263
2856.00,0.0258
2855.00,0.0253
2854.00,0.0248
2853.00,0.0242
2852.00,0.0237
2851.00,0.0231
2850.00,0.0225
2849.00,0.0220
2848.00,0.0215
2847.00,0.0210
2846.00,0.0205
2845.00,0.0200
2844.00,0.0196
2843.00,0.0192
2842.00,0.0187
2841.00,0.0183
2840.00,0.0179
2839.00,0.0176
2838.00,0.0173
2837.00,0.0170
2836.00,0.0168
2835.00,0.0165
2834.00,0.0163
2833.00,0.0160
2832.00,0.0158
2831.00,0.0155
2830.00,0.0152
2829.00,0.0149
2828.00,0.0146
2827.00,0.0143
2826.00,0.0141
2825.00,0.0138
2824.00,0.0136
2823.00,0.0133
2822.00,0.0131
2821.00,0.0129
2820.00,0.0127
2819.00,0.0125
2818.00,0.0124
2817.00,0.0122
2816.00,0.0121
2815.00,0.0120
2814.00,0.0118
2813.00,0.0117
2812.00,0.0116
2811.00,0.0115
2810.00,0.0114
2809.00,0.0113
2808.00,0.0112
2807.00,0.0112
2806.00,0.0111
2805.00,0.0111
2804.00,0.0110
2803.00,0.0109
2802.00,0.0109
2801.00,0.0108
2800.00,0.0107
2799.00,0.0107
2798.00,0.0106
2797.00,0.0105
2796.00,0.0105
2795.00,0.0105
2794.00,0.0104
2793.00,0.0104
2792.00,0.0103
2791.00,0.0103
2790.00,0.0102
2789.00,0.0102
2788.00,0.0102
2787.00,0.0101
2786.00,0.0101
2785.00,0.0101
2784.00,0.0100
2783.00,0.0100
2782.00,0.0099
2781.00,0.0099
2780.00,0.0099
2779.00,0.0098
2778.00,0.0098
2777.00,0.0098
2776.00,0.0098
2775.00,0.0097
2774.00,0.0097
2773.00,0.0097
2772.00,0.0096
2771.00,0.0096
2770.00,0.0096
2769.00,0.0095
2768.00,0.0095
2767.00,0.0095
2766.00,0.0094
2765.00,0.0094
2764.00,0.0094
2763.00,0.0094
2762.00,0.0094
2761.00,0.0094
2760.00,0.0094
2759.00,0.0093
2758.00,0.0093
2757.00,0.0093
