Created as New Dataset,Sample 728 By YargerLab Date Thursday, June 26 2025
cm-1,A
4000.00,0.0004
3999.00,0.0004
3998.00,0.0004
3997.00,0.0005
3996.00,0.0005
3995.00,0.0005
3994.00,0.0005
3993.00,0.0005
3992.00,0.0005
3991.00,0.0005
3990.00,0.0004
3989.00,0.0004
3988.00,0.0004
3987.00,0.0004
3986.00,0.0004
3985.00,0.0005
3984.00,0.0005
3983.00,0.0005
3982.00,0.0005
3981.00,0.0005
3980.00,0.0005
3979.00,0.0005
3978.00,0.0005
3977.00,0.0004
3976.00,0.0004
3975.00,0.0004
3974.00,0.0004
3973.00,0.0004
3972.00,0.0004
3971.00,0.0004
3970.00,0.0004
3969.00,0.0004
3968.00,0.0004
3967.00,0.0004
3966.00,0.0004
3965.00,0.0004
3964.00,0.0005
3963.00,0.0005
3962.00,0.0005
3961.00,0.0005
3960.00,0.0005
3959.00,0.0005
3958.00,0.0004
3957.00,0.0004
3956.00,0.0004
3955.00,0.0004
3954.00,0.0004
3953.00,0.0004
3952.00,0.0004
3951.00,0.0004
3950.00,0.0004
3949.00,0.0005
3948.00,0.0005
3947.00,0.0005
3946.00,0.0005
3945.00,0.0005
3944.00,0.0005
3943.00,0.0004
3942.00,0.0004
3941.00,0.0004
3940.00,0.0004
3939.00,0.0005
3938.00,0.0005
3937.00,0.0004
3936.00,0.0004
3935.00,0.0004
3934.00,0.0004
3933.00,0.0003
3932.00,0.0003
3931.00,0.0004
3930.00,0.0004
3929.00,0.0004
3928.00,0.0004
3927.00,0.0004
3926.00,0.0004
3925.00,0.0004
3924.00,0.0004
3923.00,0.0004
3922.00,0.0004
3921.00,0.0003
3920.00,0.0003
3919.00,0.0003
3918.00,0.0004
3917.00,0.0004
3916.00,0.0004
3915.00,0.0004
3914.00,0.0004
3913.00,0.0004
3912.00,0.0004
3911.00,0.0004
3910.00,0.0004
3909.00,0.0004
3908.00,0.0004
3907.00,0.0004
3906.00,0.0004
3905.00,0.0004
3904.00,0.0004
3903.00,0.0004
3902.00,0.0003
3901.00,0.0003
3900.00,0.0003
3899.00,0.0003
3898.00,0.0003
3897.00,0.0004
3896.00,0.0004
3895.00,0.0004
3894.00,0.0003
3893.00,0.0003
3892.00,0.0003
3891.00,0.0003
3890.00,0.0004
3889.00,0.0004
3888.00,0.0003
3887.00,0.0003
3886.00,0.0003
3885.00,0.0004
3884.00,0.0004
3883.00,0.0004
3882.00,0.0003
3881.00,0.0003
3880.00,0.0003
3879.00,0.0004
3878.00,0.0004
3877.00,0.0004
3876.00,0.0004
3875.00,0.0004
3874.00,0.0004
3873.00,0.0003
3872.00,0.0003
3871.00,0.0003
3870.00,0.0003
3869.00,0.0004
3868.00,0.0004
3867.00,0.0003
3866.00,0.0003
3865.00,0.0003
3864.00,0.0004
3863.00,0.0004
3862.00,0.0004
3861.00,0.0004
3860.00,0.0004
3859.00,0.0004
3858.00,0.0004
3857.00,0.0003
3856.00,0.0003
3855.00,0.0003
3854.00,0.0003
3853.00,0.0003
3852.00,0.0003
3851.00,0.0003
3850.00,0.0003
3849.00,0.0003
3848.00,0.0004
3847.00,0.0004
3846.00,0.0004
3845.00,0.0004
3844.00,0.0004
3843.00,0.0004
3842.00,0.0004
3841.00,0.0004
3840.00,0.0004
3839.00,0.0004
3838.00,0.0004
3837.00,0.0004
3836.00,0.0004
3835.00,0.0003
3834.00,0.0003
3833.00,0.0003
3832.00,0.0004
3831.00,0.0004
3830.00,0.0004
3829.00,0.0004
3828.00,0.0004
3827.00,0.0004
3826.00,0.0004
3825.00,0.0004
3824.00,0.0004
3823.00,0.0004
3822.00,0.0004
3821.00,0.0004
3820.00,0.0004
3819.00,0.0004
3818.00,0.0004
3817.00,0.0004
3816.00,0.0004
3815.00,0.0004
3814.00,0.0004
3813.00,0.0004
3812.00,0.0004
3811.00,0.0004
3810.00,0.0004
3809.00,0.0004
3808.00,0.0004
3807.00,0.0004
3806.00,0.0005
3805.00,0.0005
3804.00,0.0004
3803.00,0.0004
3802.00,0.0004
3801.00,0.0005
3800.00,0.0005
3799.00,0.0004
3798.00,0.0004
3797.00,0.0004
3796.00,0.0004
3795.00,0.0004
3794.00,0.0005
3793.00,0.0005
3792.00,0.0005
3791.00,0.0005
3790.00,0.0005
3789.00,0.0004
3788.00,0.0005
3787.00,0.0005
3786.00,0.0005
3785.00,0.0005
3784.00,0.0005
3783.00,0.0005
3782.00,0.0005
3781.00,0.0004
3780.00,0.0004
3779.00,0.0004
3778.00,0.0004
3777.00,0.0004
3776.00,0.0004
3775.00,0.0004
3774.00,0.0004
3773.00,0.0004
3772.00,0.0004
3771.00,0.0004
3770.00,0.0004
3769.00,0.0004
3768.00,0.0004
3767.00,0.0004
3766.00,0.0004
3765.00,0.0004
3764.00,0.0005
3763.00,0.0005
3762.00,0.0005
3761.00,0.0005
3760.00,0.0005
3759.00,0.0005
3758.00,0.0005
3757.00,0.0005
3756.00,0.0005
3755.00,0.0005
3754.00,0.0005
3753.00,0.0005
3752.00,0.0005
3751.00,0.0005
3750.00,0.0005
3749.00,0.0005
3748.00,0.0005
3747.00,0.0004
3746.00,0.0004
3745.00,0.0004
3744.00,0.0004
3743.00,0.0004
3742.00,0.0004
3741.00,0.0004
3740.00,0.0004
3739.00,0.0004
3738.00,0.0004
3737.00,0.0004
3736.00,0.0004
3735.00,0.0004
3734.00,0.0003
3733.00,0.0003
3732.00,0.0003
3731.00,0.0003
3730.00,0.0003
3729.00,0.0003
3728.00,0.0003
3727.00,0.0003
3726.00,0.0003
3725.00,0.0004
3724.00,0.0004
3723.00,0.0004
3722.00,0.0004
3721.00,0.0004
3720.00,0.0004
3719.00,0.0004
3718.00,0.0004
3717.00,0.0005
3716.00,0.0005
3715.00,0.0005
3714.00,0.0005
3713.00,0.0005
3712.00,0.0005
3711.00,0.0005
3710.00,0.0004
3709.00,0.0004
3708.00,0.0004
3707.00,0.0004
3706.00,0.0004
3705.00,0.0005
3704.00,0.0005
3703.00,0.0005
3702.00,0.0005
3701.00,0.0005
3700.00,0.0005
3699.00,0.0005
3698.00,0.0005
3697.00,0.0005
3696.00,0.0005
3695.00,0.0005
3694.00,0.0005
3693.00,0.0004
3692.00,0.0004
3691.00,0.0004
3690.00,0.0004
3689.00,0.0004
3688.00,0.0005
3687.00,0.0005
3686.00,0.0005
3685.00,0.0006
3684.00,0.0006
3683.00,0.0006
3682.00,0.0007
3681.00,0.0007
3680.00,0.0007
3679.00,0.0007
3678.00,0.0007
3677.00,0.0007
3676.00,0.0007
3675.00,0.0008
3674.00,0.0008
3673.00,0.0008
3672.00,0.0008
3671.00,0.0008
3670.00,0.0008
3669.00,0.0009
3668.00,0.0009
3667.00,0.0009
3666.00,0.0009
3665.00,0.0009
3664.00,0.0010
3663.00,0.0010
3662.00,0.0011
3661.00,0.0012
3660.00,0.0012
3659.00,0.0012
3658.00,0.0012
3657.00,0.0012
3656.00,0.0013
3655.00,0.0014
3654.00,0.0014
3653.00,0.0014
3652.00,0.0015
3651.00,0.0015
3650.00,0.0015
3649.00,0.0015
3648.00,0.0014
3647.00,0.0014
3646.00,0.0014
3645.00,0.0015
3644.00,0.0015
3643.00,0.0016
3642.00,0.0017
3641.00,0.0017
3640.00,0.0018
3639.00,0.0018
3638.00,0.0019
3637.00,0.0019
3636.00,0.0019
3635.00,0.0019
3634.00,0.0019
3633.00,0.0020
3632.00,0.0020
3631.00,0.0021
3630.00,0.0021
3629.00,0.0021
3628.00,0.0022
3627.00,0.0022
3626.00,0.0023
3625.00,0.0023
3624.00,0.0024
3623.00,0.0024
3622.00,0.0024
3621.00,0.0025
3620.00,0.0025
3619.00,0.0026
3618.00,0.0026
3617.00,0.0027
3616.00,0.0027
3615.00,0.0027
3614.00,0.0028
3613.00,0.0028
3612.00,0.0029
3611.00,0.0029
3610.00,0.0030
3609.00,0.0030
3608.00,0.0030
3607.00,0.0031
3606.00,0.0032
3605.00,0.0032
3604.00,0.0033
3603.00,0.0034
3602.00,0.0034
3601.00,0.0034
3600.00,0.0035
3599.00,0.0035
3598.00,0.0036
3597.00,0.0037
3596.00,0.0037
3595.00,0.0038
3594.00,0.0038
3593.00,0.0038
3592.00,0.0039
3591.00,0.0039
3590.00,0.0040
3589.00,0.0040
3588.00,0.0040
3587.00,0.0041
3586.00,0.0041
3585.00,0.0042
3584.00,0.0042
3583.00,0.0042
3582.00,0.0043
3581.00,0.0043
3580.00,0.0044
3579.00,0.0045
3578.00,0.0045
3577.00,0.0046
3576.00,0.0047
3575.00,0.0048
3574.00,0.0048
3573.00,0.0049
3572.00,0.0049
3571.00,0.0050
3570.00,0.0050
3569.00,0.0050
3568.00,0.0051
3567.00,0.0051
3566.00,0.0052
3565.00,0.0052
3564.00,0.0053
3563.00,0.0053
3562.00,0.0054
3561.00,0.0055
3560.00,0.0055
3559.00,0.0056
3558.00,0.0057
3557.00,0.0058
3556.00,0.0058
3555.00,0.0059
3554.00,0.0059
3553.00,0.0059
3552.00,0.0060
3551.00,0.0060
3550.00,0.0061
3549.00,0.0061
3548.00,0.0062
3547.00,0.0062
3546.00,0.0063
3545.00,0.0064
3544.00,0.0064
3543.00,0.0064
3542.00,0.0065
3541.00,0.0065
3540.00,0.0066
3539.00,0.0066
3538.00,0.0067
3537.00,0.0068
3536.00,0.0068
3535.00,0.0069
3534.00,0.0069
3533.00,0.0070
3532.00,0.0071
3531.00,0.0072
3530.00,0.0072
3529.00,0.0073
3528.00,0.0073
3527.00,0.0073
3526.00,0.0074
3525.00,0.0074
3524.00,0.0075
3523.00,0.0075
3522.00,0.0075
3521.00,0.0076
3520.00,0.0076
3519.00,0.0077
3518.00,0.0078
3517.00,0.0079
3516.00,0.0079
3515.00,0.0080
3514.00,0.0080
3513.00,0.0080
3512.00,0.0081
3511.00,0.0081
3510.00,0.0082
3509.00,0.0082
3508.00,0.0083
3507.00,0.0084
3506.00,0.0084
3505.00,0.0085
3504.00,0.0085
3503.00,0.0086
3502.00,0.0086
3501.00,0.0086
3500.00,0.0087
3499.00,0.0087
3498.00,0.0088
3497.00,0.0088
3496.00,0.0089
3495.00,0.0090
3494.00,0.0090
3493.00,0.0091
3492.00,0.0091
3491.00,0.0092
3490.00,0.0092
3489.00,0.0093
3488.00,0.0094
3487.00,0.0094
3486.00,0.0095
3485.00,0.0095
3484.00,0.0096
3483.00,0.0096
3482.00,0.0097
3481.00,0.0098
3480.00,0.0098
3479.00,0.0099
3478.00,0.0099
3477.00,0.0100
3476.00,0.0101
3475.00,0.0101
3474.00,0.0102
3473.00,0.0102
3472.00,0.0103
3471.00,0.0103
3470.00,0.0104
3469.00,0.0104
3468.00,0.0105
3467.00,0.0106
3466.00,0.0106
3465.00,0.0107
3464.00,0.0107
3463.00,0.0108
3462.00,0.0108
3461.00,0.0109
3460.00,0.0109
3459.00,0.0110
3458.00,0.0110
3457.00,0.0110
3456.00,0.0111
3455.00,0.0111
3454.00,0.0112
3453.00,0.0112
3452.00,0.0113
3451.00,0.0113
3450.00,0.0114
3449.00,0.0115
3448.00,0.0116
3447.00,0.0117
3446.00,0.0117
3445.00,0.0118
3444.00,0.0119
3443.00,0.0119
3442.00,0.0120
3441.00,0.0120
3440.00,0.0121
3439.00,0.0121
3438.00,0.0122
3437.00,0.0123
3436.00,0.0123
3435.00,0.0124
3434.00,0.0125
3433.00,0.0125
3432.00,0.0126
3431.00,0.0127
3430.00,0.0127
3429.00,0.0127
3428.00,0.0128
3427.00,0.0129
3426.00,0.0129
3425.00,0.0130
3424.00,0.0131
3423.00,0.0131
3422.00,0.0132
3421.00,0.0132
3420.00,0.0133
3419.00,0.0134
3418.00,0.0134
3417.00,0.0135
3416.00,0.0135
3415.00,0.0136
3414.00,0.0137
3413.00,0.0137
3412.00,0.0138
3411.00,0.0139
3410.00,0.0139
3409.00,0.0140
3408.00,0.0141
3407.00,0.0141
3406.00,0.0142
3405.00,0.0142
3404.00,0.0143
3403.00,0.0143
3402.00,0.0144
3401.00,0.0144
3400.00,0.0145
3399.00,0.0146
3398.00,0.0146
3397.00,0.0147
3396.00,0.0147
3395.00,0.0148
3394.00,0.0149
3393.00,0.0150
3392.00,0.0150
3391.00,0.0151
3390.00,0.0152
3389.00,0.0153
3388.00,0.0153
3387.00,0.0153
3386.00,0.0154
3385.00,0.0154
3384.00,0.0155
3383.00,0.0156
3382.00,0.0156
3381.00,0.0157
3380.00,0.0157
3379.00,0.0158
3378.00,0.0159
3377.00,0.0160
3376.00,0.0161
3375.00,0.0162
3374.00,0.0163
3373.00,0.0163
3372.00,0.0164
3371.00,0.0165
3370.00,0.0166
3369.00,0.0167
3368.00,0.0167
3367.00,0.0168
3366.00,0.0169
3365.00,0.0170
3364.00,0.0171
3363.00,0.0172
3362.00,0.0173
3361.00,0.0174
3360.00,0.0174
3359.00,0.0175
3358.00,0.0176
3357.00,0.0177
3356.00,0.0178
3355.00,0.0179
3354.00,0.0180
3353.00,0.0181
3352.00,0.0182
3351.00,0.0183
3350.00,0.0184
3349.00,0.0185
3348.00,0.0186
3347.00,0.0187
3346.00,0.0188
3345.00,0.0189
3344.00,0.0190
3343.00,0.0191
3342.00,0.0192
3341.00,0.0194
3340.00,0.0195
3339.00,0.0196
3338.00,0.0197
3337.00,0.0199
3336.00,0.0200
3335.00,0.0201
3334.00,0.0202
3333.00,0.0203
3332.00,0.0204
3331.00,0.0206
3330.00,0.0207
3329.00,0.0209
3328.00,0.0211
3327.00,0.0212
3326.00,0.0213
3325.00,0.0215
3324.00,0.0216
3323.00,0.0217
3322.00,0.0219
3321.00,0.0221
3320.00,0.0222
3319.00,0.0224
3318.00,0.0225
3317.00,0.0227
3316.00,0.0229
3315.00,0.0231
3314.00,0.0232
3313.00,0.0234
3312.00,0.0236
3311.00,0.0238
3310.00,0.0239
3309.00,0.0241
3308.00,0.0243
3307.00,0.0245
3306.00,0.0247
3305.00,0.0249
3304.00,0.0251
3303.00,0.0253
3302.00,0.0255
3301.00,0.0257
3300.00,0.0259
3299.00,0.0260
3298.00,0.0262
3297.00,0.0264
3296.00,0.0266
3295.00,0.0268
3294.00,0.0270
3293.00,0.0272
3292.00,0.0274
3291.00,0.0276
3290.00,0.0277
3289.00,0.0279
3288.00,0.0280
3287.00,0.0282
3286.00,0.0283
3285.00,0.0285
3284.00,0.0286
3283.00,0.0288
3282.00,0.0289
3281.00,0.0290
3280.00,0.0291
3279.00,0.0292
3278.00,0.0293
3277.00,0.0294
3276.00,0.0294
3275.00,0.0295
3274.00,0.0295
3273.00,0.0295
3272.00,0.0294
3271.00,0.0294
3270.00,0.0294
3269.00,0.0294
3268.00,0.0294
3267.00,0.0293
3266.00,0.0292
3265.00,0.0291
3264.00,0.0290
3263.00,0.0288
3262.00,0.0287
3261.00,0.0285
3260.00,0.0284
3259.00,0.0282
3258.00,0.0280
3257.00,0.0279
3256.00,0.0277
3255.00,0.0275
3254.00,0.0273
3253.00,0.0272
3252.00,0.0270
3251.00,0.0268
3250.00,0.0266
3249.00,0.0264
3248.00,0.0262
3247.00,0.0260
3246.00,0.0258
3245.00,0.0256
3244.00,0.0255
3243.00,0.0253
3242.00,0.0251
3241.00,0.0250
3240.00,0.0248
3239.00,0.0247
3238.00,0.0245
3237.00,0.0243
3236.00,0.0242
3235.00,0.0240
3234.00,0.0238
3233.00,0.0237
3232.00,0.0235
3231.00,0.0234
3230.00,0.0233
3229.00,0.0232
3228.00,0.0230
3227.00,0.0229
3226.00,0.0227
3225.00,0.0226
3224.00,0.0225
3223.00,0.0223
3222.00,0.0222
3221.00,0.0221
3220.00,0.0219
3219.00,0.0218
3218.00,0.0217
3217.00,0.0216
3216.00,0.0215
3215.00,0.0214
3214.00,0.0213
3213.00,0.0212
3212.00,0.0210
3211.00,0.0209
3210.00,0.0208
3209.00,0.0207
3208.00,0.0206
3207.00,0.0205
3206.00,0.0204
3205.00,0.0203
3204.00,0.0202
3203.00,0.0201
3202.00,0.0200
3201.00,0.0199
3200.00,0.0198
3199.00,0.0197
3198.00,0.0195
3197.00,0.0194
3196.00,0.0193
3195.00,0.0192
3194.00,0.0191
3193.00,0.0190
3192.00,0.0189
3191.00,0.0188
3190.00,0.0187
3189.00,0.0186
3188.00,0.0185
3187.00,0.0184
3186.00,0.0183
3185.00,0.0182
3184.00,0.0181
3183.00,0.0180
3182.00,0.0179
3181.00,0.0178
3180.00,0.0177
3179.00,0.0176
3178.00,0.0175
3177.00,0.0175
3176.00,0.0174
3175.00,0.0173
3174.00,0.0172
3173.00,0.0171
3172.00,0.0170
3171.00,0.0169
3170.00,0.0168
3169.00,0.0167
3168.00,0.0166
3167.00,0.0165
3166.00,0.0164
3165.00,0.0163
3164.00,0.0163
3163.00,0.0162
3162.00,0.0161
3161.00,0.0160
3160.00,0.0160
3159.00,0.0159
3158.00,0.0158
3157.00,0.0157
3156.00,0.0157
3155.00,0.0156
3154.00,0.0155
3153.00,0.0155
3152.00,0.0154
3151.00,0.0153
3150.00,0.0152
3149.00,0.0152
3148.00,0.0151
3147.00,0.0150
3146.00,0.0150
3145.00,0.0149
3144.00,0.0149
3143.00,0.0148
3142.00,0.0148
3141.00,0.0147
3140.00,0.0147
3139.00,0.0146
3138.00,0.0146
3137.00,0.0145
3136.00,0.0144
3135.00,0.0144
3134.00,0.0144
3133.00,0.0143
3132.00,0.0143
3131.00,0.0143
3130.00,0.0142
3129.00,0.0142
3128.00,0.0142
3127.00,0.0142
3126.00,0.0141
3125.00,0.0141
3124.00,0.0141
3123.00,0.0140
3122.00,0.0140
3121.00,0.0139
3120.00,0.0139
3119.00,0.0139
3118.00,0.0139
3117.00,0.0139
3116.00,0.0139
3115.00,0.0140
3114.00,0.0140
3113.00,0.0140
3112.00,0.0140
3111.00,0.0140
3110.00,0.0140
3109.00,0.0140
3108.00,0.0141
3107.00,0.0141
3106.00,0.0141
3105.00,0.0141
3104.00,0.0142
3103.00,0.0142
3102.00,0.0142
3101.00,0.0142
3100.00,0.0143
3099.00,0.0143
3098.00,0.0143
3097.00,0.0144
3096.00,0.0144
3095.00,0.0145
3094.00,0.0145
3093.00,0.0145
3092.00,0.0145
3091.00,0.0145
3090.00,0.0146
3089.00,0.0146
3088.00,0.0146
3087.00,0.0146
3086.00,0.0146
3085.00,0.0146
3084.00,0.0146
3083.00,0.0147
3082.00,0.0147
3081.00,0.0147
3080.00,0.0147
3079.00,0.0147
3078.00,0.0147
3077.00,0.0147
3076.00,0.0147
3075.00,0.0147
3074.00,0.0147
3073.00,0.0147
3072.00,0.0147
3071.00,0.0147
3070.00,0.0146
3069.00,0.0146
3068.00,0.0145
3067.00,0.0145
3066.00,0.0144
3065.00,0.0144
3064.00,0.0143
3063.00,0.0143
3062.00,0.0142
3061.00,0.0142
3060.00,0.0141
3059.00,0.0141
3058.00,0.0140
3057.00,0.0139
3056.00,0.0138
3055.00,0.0137
3054.00,0.0137
3053.00,0.0136
3052.00,0.0135
3051.00,0.0134
3050.00,0.0134
3049.00,0.0133
3048.00,0.0132
3047.00,0.0131
3046.00,0.0130
3045.00,0.0130
3044.00,0.0129
3043.00,0.0128
3042.00,0.0127
3041.00,0.0126
3040.00,0.0126
3039.00,0.0125
3038.00,0.0125
3037.00,0.0124
3036.00,0.0124
3035.00,0.0123
3034.00,0.0122
3033.00,0.0122
3032.00,0.0122
3031.00,0.0121
3030.00,0.0120
3029.00,0.0120
3028.00,0.0119
3027.00,0.0119
3026.00,0.0118
3025.00,0.0117
3024.00,0.0116
3023.00,0.0116
3022.00,0.0115
3021.00,0.0114
3020.00,0.0113
3019.00,0.0113
3018.00,0.0113
3017.00,0.0112
3016.00,0.0111
3015.00,0.0111
3014.00,0.0110
3013.00,0.0109
3012.00,0.0109
3011.00,0.0108
3010.00,0.0108
3009.00,0.0108
3008.00,0.0108
3007.00,0.0108
3006.00,0.0108
3005.00,0.0108
3004.00,0.0107
3003.00,0.0107
3002.00,0.0107
3001.00,0.0107
3000.00,0.0107
2999.00,0.0107
2998.00,0.0108
2997.00,0.0108
2996.00,0.0109
2995.00,0.0109
2994.00,0.0110
2993.00,0.0111
2992.00,0.0112
2991.00,0.0113
2990.00,0.0114
2989.00,0.0115
2988.00,0.0116
2987.00,0.0117
2986.00,0.0119
2985.00,0.0120
2984.00,0.0121
2983.00,0.0122
2982.00,0.0124
2981.00,0.0126
2980.00,0.0128
2979.00,0.0130
2978.00,0.0132
2977.00,0.0134
2976.00,0.0136
2975.00,0.0138
2974.00,0.0140
2973.00,0.0143
2972.00,0.0144
2971.00,0.0146
2970.00,0.0148
2969.00,0.0150
2968.00,0.0152
2967.00,0.0153
2966.00,0.0155
2965.00,0.0156
2964.00,0.0158
2963.00,0.0158
2962.00,0.0159
2961.00,0.0159
2960.00,0.0159
2959.00,0.0159
2958.00,0.0158
2957.00,0.0157
2956.00,0.0156
2955.00,0.0154
2954.00,0.0153
2953.00,0.0152
2952.00,0.0151
2951.00,0.0149
2950.00,0.0148
2949.00,0.0148
2948.00,0.0147
2947.00,0.0147
2946.00,0.0148
2945.00,0.0148
2944.00,0.0149
2943.00,0.0150
2942.00,0.0151
2941.00,0.0153
2940.00,0.0154
2939.00,0.0156
2938.00,0.0157
2937.00,0.0159
2936.00,0.0160
2935.00,0.0161
2934.00,0.0163
2933.00,0.0164
2932.00,0.0165
2931.00,0.0165
2930.00,0.0166
2929.00,0.0166
2928.00,0.0166
2927.00,0.0166
2926.00,0.0166
2925.00,0.0165
2924.00,0.0165
2923.00,0.0164
2922.00,0.0163
2921.00,0.0162
2920.00,0.0161
2919.00,0.0159
2918.00,0.0157
2917.00,0.0155
2916.00,0.0153
2915.00,0.0150
2914.00,0.0148
2913.00,0.0145
2912.00,0.0143
2911.00,0.0141
2910.00,0.0139
2909.00,0.0136
2908.00,0.0135
2907.00,0.0133
2906.00,0.0131
2905.00,0.0130
2904.00,0.0128
2903.00,0.0127
2902.00,0.0126
2901.00,0.0125
2900.00,0.0124
2899.00,0.0123
2898.00,0.0122
2897.00,0.0121
2896.00,0.0120
2895.00,0.0119
2894.00,0.0118
2893.00,0.0118
2892.00,0.0117
2891.00,0.0117
2890.00,0.0117
2889.00,0.0116
2888.00,0.0116
2887.00,0.0116
2886.00,0.0116
2885.00,0.0117
2884.00,0.0117
2883.00,0.0117
2882.00,0.0118
2881.00,0.0119
2880.00,0.0120
2879.00,0.0120
2878.00,0.0121
2877.00,0.0122
2876.00,0.0122
2875.00,0.0122
2874.00,0.0122
2873.00,0.0122
2872.00,0.0121
2871.00,0.0120
2870.00,0.0119
2869.00,0.0118
2868.00,0.0116
2867.00,0.0115
2866.00,0.0114
2865.00,0.0113
2864.00,0.0112
2863.00,0.0111
2862.00,0.0110
2861.00,0.0109
2860.00,0.0109
2859.00,0.0109
2858.00,0.0109
2857.00,0.0108
2856.00,0.0108
2855.00,0.0108
2854.00,0.0108
2853.00,0.0108
2852.00,0.0107
2851.00,0.0106
2850.00,0.0105
2849.00,0.0103
2848.00,0.0101
2847.00,0.0099
2846.00,0.0096
2845.00,0.0094
2844.00,0.0092
2843.00,0.0090
2842.00,0.0089
2841.00,0.0087
2840.00,0.0086
2839.00,0.0085
2838.00,0.0084
2837.00,0.0083
2836.00,0.0083
2835.00,0.0082
2834.00,0.0082
2833.00,0.0081
2832.00,0.0081
2831.00,0.0080
2830.00,0.0080
2829.00,0.0079
2828.00,0.0079
2827.00,0.0079
2826.00,0.0078
2825.00,0.0078
2824.00,0.0078
2823.00,0.0078
2822.00,0.0077
2821.00,0.0077
2820.00,0.0077
2819.00,0.0076
2818.00,0.0076
2817.00,0.0076
2816.00,0.0076
2815.00,0.0075
2814.00,0.0075
2813.00,0.0075
2812.00,0.0075
2811.00,0.0075
2810.00,0.0074
2809.00,0.0074
2808.00,0.0074
2807.00,0.0074
2806.00,0.0073
2805.00,0.0073
2804.00,0.0073
2803.00,0.0073
2802.00,0.0072
2801.00,0.0072
2800.00,0.0071
2799.00,0.0071
2798.00,0.0071
2797.00,0.0071
2796.00,0.0070
2795.00,0.0070
2794.00,0.0070
2793.00,0.0070
2792.00,0.0070
2791.00,0.0069
2790.00,0.0069
2789.00,0.0069
2788.00,0.0069
2787.00,0.0068
2786.00,0.0068
2785.00,0.0068
2784.00,0.0068
2783.00,0.0067
2782.00,0.0067
2781.00,0.0067
2780.00,0.0067
2779.00,0.0067
2778.00,0.0066
2777.00,0.0066
2776.00,0.0066
2775.00,0.0065
2774.00,0.0065
2773.00,0.0065
2772.00,0.0065
2771.00,0.0064
2770.00,0.0064
2769.00,0.0064
2768.00,0.0063
2767.00,0.0063
2766.00,0.0063
2765.00,0.0063
2764.00,0.0063
2763.00,0.0063
2762.00,0.0062
2761.00,0.0062
2760.00,0.0062
2759.00,0.0062
2758.00,0.0061
2757.00,0.0061
