Created as New Dataset,Sample 691 By YargerLab Date Friday, June 13 2025
cm-1,A
4000.00,0.0154
3999.00,0.0154
3998.00,0.0153
3997.00,0.0153
3996.00,0.0153
3995.00,0.0153
3994.00,0.0153
3993.00,0.0153
3992.00,0.0153
3991.00,0.0153
3990.00,0.0153
3989.00,0.0153
3988.00,0.0153
3987.00,0.0153
3986.00,0.0153
3985.00,0.0153
3984.00,0.0153
3983.00,0.0153
3982.00,0.0152
3981.00,0.0152
3980.00,0.0152
3979.00,0.0152
3978.00,0.0152
3977.00,0.0152
3976.00,0.0152
3975.00,0.0152
3974.00,0.0152
3973.00,0.0152
3972.00,0.0152
3971.00,0.0152
3970.00,0.0152
3969.00,0.0152
3968.00,0.0152
3967.00,0.0152
3966.00,0.0152
3965.00,0.0152
3964.00,0.0152
3963.00,0.0152
3962.00,0.0152
3961.00,0.0152
3960.00,0.0152
3959.00,0.0152
3958.00,0.0152
3957.00,0.0152
3956.00,0.0152
3955.00,0.0152
3954.00,0.0152
3953.00,0.0152
3952.00,0.0152
3951.00,0.0152
3950.00,0.0152
3949.00,0.0152
3948.00,0.0152
3947.00,0.0152
3946.00,0.0152
3945.00,0.0151
3944.00,0.0151
3943.00,0.0151
3942.00,0.0151
3941.00,0.0151
3940.00,0.0151
3939.00,0.0151
3938.00,0.0151
3937.00,0.0151
3936.00,0.0151
3935.00,0.0151
3934.00,0.0151
3933.00,0.0151
3932.00,0.0151
3931.00,0.0151
3930.00,0.0151
3929.00,0.0151
3928.00,0.0151
3927.00,0.0151
3926.00,0.0151
3925.00,0.0151
3924.00,0.0151
3923.00,0.0152
3922.00,0.0152
3921.00,0.0152
3920.00,0.0152
3919.00,0.0151
3918.00,0.0151
3917.00,0.0151
3916.00,0.0150
3915.00,0.0150
3914.00,0.0150
3913.00,0.0150
3912.00,0.0150
3911.00,0.0150
3910.00,0.0150
3909.00,0.0151
3908.00,0.0151
3907.00,0.0151
3906.00,0.0151
3905.00,0.0151
3904.00,0.0151
3903.00,0.0151
3902.00,0.0151
3901.00,0.0151
3900.00,0.0150
3899.00,0.0150
3898.00,0.0150
3897.00,0.0150
3896.00,0.0150
3895.00,0.0150
3894.00,0.0150
3893.00,0.0150
3892.00,0.0149
3891.00,0.0149
3890.00,0.0150
3889.00,0.0150
3888.00,0.0149
3887.00,0.0149
3886.00,0.0149
3885.00,0.0149
3884.00,0.0149
3883.00,0.0149
3882.00,0.0148
3881.00,0.0148
3880.00,0.0148
3879.00,0.0149
3878.00,0.0149
3877.00,0.0149
3876.00,0.0149
3875.00,0.0149
3874.00,0.0149
3873.00,0.0150
3872.00,0.0150
3871.00,0.0149
3870.00,0.0148
3869.00,0.0148
3868.00,0.0149
3867.00,0.0148
3866.00,0.0147
3865.00,0.0147
3864.00,0.0147
3863.00,0.0148
3862.00,0.0148
3861.00,0.0148
3860.00,0.0148
3859.00,0.0148
3858.00,0.0149
3857.00,0.0149
3856.00,0.0149
3855.00,0.0149
3854.00,0.0148
3853.00,0.0148
3852.00,0.0148
3851.00,0.0147
3850.00,0.0146
3849.00,0.0145
3848.00,0.0145
3847.00,0.0146
3846.00,0.0146
3845.00,0.0146
3844.00,0.0146
3843.00,0.0147
3842.00,0.0147
3841.00,0.0148
3840.00,0.0147
3839.00,0.0147
3838.00,0.0147
3837.00,0.0147
3836.00,0.0147
3835.00,0.0146
3834.00,0.0146
3833.00,0.0145
3832.00,0.0145
3831.00,0.0145
3830.00,0.0145
3829.00,0.0145
3828.00,0.0144
3827.00,0.0144
3826.00,0.0145
3825.00,0.0146
3824.00,0.0146
3823.00,0.0146
3822.00,0.0146
3821.00,0.0146
3820.00,0.0147
3819.00,0.0147
3818.00,0.0146
3817.00,0.0144
3816.00,0.0144
3815.00,0.0144
3814.00,0.0144
3813.00,0.0143
3812.00,0.0143
3811.00,0.0143
3810.00,0.0144
3809.00,0.0144
3808.00,0.0143
3807.00,0.0143
3806.00,0.0144
3805.00,0.0144
3804.00,0.0144
3803.00,0.0143
3802.00,0.0143
3801.00,0.0143
3800.00,0.0144
3799.00,0.0144
3798.00,0.0143
3797.00,0.0142
3796.00,0.0142
3795.00,0.0142
3794.00,0.0142
3793.00,0.0141
3792.00,0.0141
3791.00,0.0141
3790.00,0.0142
3789.00,0.0142
3788.00,0.0142
3787.00,0.0142
3786.00,0.0141
3785.00,0.0141
3784.00,0.0142
3783.00,0.0142
3782.00,0.0142
3781.00,0.0142
3780.00,0.0141
3779.00,0.0142
3778.00,0.0142
3777.00,0.0142
3776.00,0.0141
3775.00,0.0141
3774.00,0.0141
3773.00,0.0141
3772.00,0.0141
3771.00,0.0141
3770.00,0.0141
3769.00,0.0141
3768.00,0.0141
3767.00,0.0141
3766.00,0.0141
3765.00,0.0141
3764.00,0.0141
3763.00,0.0141
3762.00,0.0141
3761.00,0.0141
3760.00,0.0141
3759.00,0.0142
3758.00,0.0142
3757.00,0.0142
3756.00,0.0142
3755.00,0.0142
3754.00,0.0142
3753.00,0.0142
3752.00,0.0142
3751.00,0.0141
3750.00,0.0141
3749.00,0.0142
3748.00,0.0142
3747.00,0.0142
3746.00,0.0141
3745.00,0.0140
3744.00,0.0140
3743.00,0.0141
3742.00,0.0140
3741.00,0.0139
3740.00,0.0139
3739.00,0.0139
3738.00,0.0140
3737.00,0.0140
3736.00,0.0140
3735.00,0.0139
3734.00,0.0139
3733.00,0.0138
3732.00,0.0137
3731.00,0.0137
3730.00,0.0137
3729.00,0.0137
3728.00,0.0136
3727.00,0.0136
3726.00,0.0136
3725.00,0.0136
3724.00,0.0136
3723.00,0.0136
3722.00,0.0136
3721.00,0.0136
3720.00,0.0135
3719.00,0.0135
3718.00,0.0135
3717.00,0.0135
3716.00,0.0135
3715.00,0.0136
3714.00,0.0136
3713.00,0.0135
3712.00,0.0135
3711.00,0.0135
3710.00,0.0134
3709.00,0.0134
3708.00,0.0134
3707.00,0.0133
3706.00,0.0133
3705.00,0.0133
3704.00,0.0132
3703.00,0.0132
3702.00,0.0132
3701.00,0.0132
3700.00,0.0132
3699.00,0.0132
3698.00,0.0132
3697.00,0.0131
3696.00,0.0132
3695.00,0.0132
3694.00,0.0132
3693.00,0.0133
3692.00,0.0133
3691.00,0.0133
3690.00,0.0133
3689.00,0.0132
3688.00,0.0132
3687.00,0.0131
3686.00,0.0131
3685.00,0.0130
3684.00,0.0129
3683.00,0.0129
3682.00,0.0129
3681.00,0.0129
3680.00,0.0130
3679.00,0.0130
3678.00,0.0130
3677.00,0.0130
3676.00,0.0129
3675.00,0.0129
3674.00,0.0129
3673.00,0.0129
3672.00,0.0128
3671.00,0.0127
3670.00,0.0126
3669.00,0.0126
3668.00,0.0126
3667.00,0.0125
3666.00,0.0125
3665.00,0.0124
3664.00,0.0124
3663.00,0.0124
3662.00,0.0124
3661.00,0.0124
3660.00,0.0124
3659.00,0.0125
3658.00,0.0125
3657.00,0.0124
3656.00,0.0125
3655.00,0.0126
3654.00,0.0126
3653.00,0.0127
3652.00,0.0127
3651.00,0.0127
3650.00,0.0126
3649.00,0.0126
3648.00,0.0125
3647.00,0.0125
3646.00,0.0124
3645.00,0.0124
3644.00,0.0123
3643.00,0.0123
3642.00,0.0123
3641.00,0.0123
3640.00,0.0124
3639.00,0.0124
3638.00,0.0124
3637.00,0.0124
3636.00,0.0124
3635.00,0.0124
3634.00,0.0124
3633.00,0.0125
3632.00,0.0126
3631.00,0.0126
3630.00,0.0126
3629.00,0.0125
3628.00,0.0125
3627.00,0.0125
3626.00,0.0125
3625.00,0.0124
3624.00,0.0124
3623.00,0.0124
3622.00,0.0124
3621.00,0.0124
3620.00,0.0124
3619.00,0.0125
3618.00,0.0125
3617.00,0.0125
3616.00,0.0125
3615.00,0.0125
3614.00,0.0125
3613.00,0.0125
3612.00,0.0125
3611.00,0.0125
3610.00,0.0125
3609.00,0.0124
3608.00,0.0124
3607.00,0.0124
3606.00,0.0124
3605.00,0.0123
3604.00,0.0123
3603.00,0.0123
3602.00,0.0123
3601.00,0.0123
3600.00,0.0123
3599.00,0.0123
3598.00,0.0123
3597.00,0.0123
3596.00,0.0123
3595.00,0.0123
3594.00,0.0123
3593.00,0.0123
3592.00,0.0123
3591.00,0.0123
3590.00,0.0123
3589.00,0.0123
3588.00,0.0122
3587.00,0.0122
3586.00,0.0122
3585.00,0.0122
3584.00,0.0121
3583.00,0.0121
3582.00,0.0120
3581.00,0.0120
3580.00,0.0120
3579.00,0.0120
3578.00,0.0120
3577.00,0.0120
3576.00,0.0121
3575.00,0.0121
3574.00,0.0120
3573.00,0.0120
3572.00,0.0120
3571.00,0.0120
3570.00,0.0121
3569.00,0.0121
3568.00,0.0121
3567.00,0.0121
3566.00,0.0121
3565.00,0.0121
3564.00,0.0121
3563.00,0.0120
3562.00,0.0120
3561.00,0.0119
3560.00,0.0119
3559.00,0.0120
3558.00,0.0120
3557.00,0.0120
3556.00,0.0120
3555.00,0.0120
3554.00,0.0120
3553.00,0.0120
3552.00,0.0120
3551.00,0.0119
3550.00,0.0119
3549.00,0.0119
3548.00,0.0119
3547.00,0.0119
3546.00,0.0119
3545.00,0.0119
3544.00,0.0119
3543.00,0.0118
3542.00,0.0118
3541.00,0.0118
3540.00,0.0118
3539.00,0.0118
3538.00,0.0118
3537.00,0.0118
3536.00,0.0119
3535.00,0.0119
3534.00,0.0118
3533.00,0.0118
3532.00,0.0118
3531.00,0.0118
3530.00,0.0117
3529.00,0.0118
3528.00,0.0118
3527.00,0.0117
3526.00,0.0117
3525.00,0.0117
3524.00,0.0117
3523.00,0.0117
3522.00,0.0117
3521.00,0.0118
3520.00,0.0118
3519.00,0.0118
3518.00,0.0117
3517.00,0.0117
3516.00,0.0117
3515.00,0.0117
3514.00,0.0117
3513.00,0.0116
3512.00,0.0116
3511.00,0.0116
3510.00,0.0116
3509.00,0.0116
3508.00,0.0116
3507.00,0.0116
3506.00,0.0116
3505.00,0.0116
3504.00,0.0116
3503.00,0.0117
3502.00,0.0117
3501.00,0.0116
3500.00,0.0116
3499.00,0.0116
3498.00,0.0116
3497.00,0.0115
3496.00,0.0116
3495.00,0.0116
3494.00,0.0116
3493.00,0.0115
3492.00,0.0115
3491.00,0.0116
3490.00,0.0116
3489.00,0.0116
3488.00,0.0116
3487.00,0.0115
3486.00,0.0115
3485.00,0.0115
3484.00,0.0115
3483.00,0.0115
3482.00,0.0115
3481.00,0.0115
3480.00,0.0115
3479.00,0.0115
3478.00,0.0115
3477.00,0.0115
3476.00,0.0114
3475.00,0.0114
3474.00,0.0114
3473.00,0.0114
3472.00,0.0114
3471.00,0.0114
3470.00,0.0114
3469.00,0.0114
3468.00,0.0114
3467.00,0.0113
3466.00,0.0113
3465.00,0.0113
3464.00,0.0113
3463.00,0.0113
3462.00,0.0113
3461.00,0.0113
3460.00,0.0113
3459.00,0.0113
3458.00,0.0113
3457.00,0.0113
3456.00,0.0113
3455.00,0.0113
3454.00,0.0113
3453.00,0.0113
3452.00,0.0112
3451.00,0.0112
3450.00,0.0112
3449.00,0.0112
3448.00,0.0113
3447.00,0.0113
3446.00,0.0113
3445.00,0.0113
3444.00,0.0113
3443.00,0.0113
3442.00,0.0113
3441.00,0.0113
3440.00,0.0113
3439.00,0.0113
3438.00,0.0113
3437.00,0.0112
3436.00,0.0112
3435.00,0.0112
3434.00,0.0113
3433.00,0.0113
3432.00,0.0113
3431.00,0.0113
3430.00,0.0113
3429.00,0.0113
3428.00,0.0113
3427.00,0.0113
3426.00,0.0113
3425.00,0.0113
3424.00,0.0114
3423.00,0.0114
3422.00,0.0114
3421.00,0.0114
3420.00,0.0114
3419.00,0.0114
3418.00,0.0114
3417.00,0.0114
3416.00,0.0114
3415.00,0.0114
3414.00,0.0114
3413.00,0.0115
3412.00,0.0115
3411.00,0.0115
3410.00,0.0115
3409.00,0.0115
3408.00,0.0115
3407.00,0.0115
3406.00,0.0116
3405.00,0.0115
3404.00,0.0115
3403.00,0.0115
3402.00,0.0115
3401.00,0.0115
3400.00,0.0115
3399.00,0.0116
3398.00,0.0116
3397.00,0.0117
3396.00,0.0117
3395.00,0.0117
3394.00,0.0117
3393.00,0.0117
3392.00,0.0117
3391.00,0.0117
3390.00,0.0118
3389.00,0.0119
3388.00,0.0119
3387.00,0.0120
3386.00,0.0120
3385.00,0.0120
3384.00,0.0120
3383.00,0.0120
3382.00,0.0121
3381.00,0.0121
3380.00,0.0121
3379.00,0.0121
3378.00,0.0121
3377.00,0.0121
3376.00,0.0121
3375.00,0.0122
3374.00,0.0121
3373.00,0.0121
3372.00,0.0121
3371.00,0.0120
3370.00,0.0120
3369.00,0.0120
3368.00,0.0120
3367.00,0.0121
3366.00,0.0122
3365.00,0.0123
3364.00,0.0123
3363.00,0.0124
3362.00,0.0124
3361.00,0.0124
3360.00,0.0125
3359.00,0.0125
3358.00,0.0126
3357.00,0.0127
3356.00,0.0127
3355.00,0.0128
3354.00,0.0128
3353.00,0.0127
3352.00,0.0127
3351.00,0.0127
3350.00,0.0128
3349.00,0.0129
3348.00,0.0130
3347.00,0.0131
3346.00,0.0132
3345.00,0.0132
3344.00,0.0132
3343.00,0.0133
3342.00,0.0133
3341.00,0.0133
3340.00,0.0134
3339.00,0.0135
3338.00,0.0135
3337.00,0.0136
3336.00,0.0137
3335.00,0.0138
3334.00,0.0138
3333.00,0.0139
3332.00,0.0139
3331.00,0.0139
3330.00,0.0139
3329.00,0.0138
3328.00,0.0138
3327.00,0.0138
3326.00,0.0138
3325.00,0.0139
3324.00,0.0139
3323.00,0.0140
3322.00,0.0140
3321.00,0.0141
3320.00,0.0141
3319.00,0.0142
3318.00,0.0142
3317.00,0.0143
3316.00,0.0143
3315.00,0.0144
3314.00,0.0145
3313.00,0.0145
3312.00,0.0146
3311.00,0.0146
3310.00,0.0146
3309.00,0.0147
3308.00,0.0147
3307.00,0.0147
3306.00,0.0148
3305.00,0.0149
3304.00,0.0150
3303.00,0.0151
3302.00,0.0152
3301.00,0.0153
3300.00,0.0154
3299.00,0.0154
3298.00,0.0155
3297.00,0.0155
3296.00,0.0156
3295.00,0.0157
3294.00,0.0158
3293.00,0.0159
3292.00,0.0161
3291.00,0.0162
3290.00,0.0163
3289.00,0.0164
3288.00,0.0165
3287.00,0.0166
3286.00,0.0167
3285.00,0.0168
3284.00,0.0169
3283.00,0.0170
3282.00,0.0171
3281.00,0.0172
3280.00,0.0173
3279.00,0.0174
3278.00,0.0175
3277.00,0.0176
3276.00,0.0177
3275.00,0.0178
3274.00,0.0179
3273.00,0.0179
3272.00,0.0179
3271.00,0.0180
3270.00,0.0181
3269.00,0.0183
3268.00,0.0184
3267.00,0.0186
3266.00,0.0187
3265.00,0.0188
3264.00,0.0189
3263.00,0.0190
3262.00,0.0190
3261.00,0.0191
3260.00,0.0192
3259.00,0.0192
3258.00,0.0193
3257.00,0.0193
3256.00,0.0194
3255.00,0.0195
3254.00,0.0196
3253.00,0.0197
3252.00,0.0198
3251.00,0.0199
3250.00,0.0200
3249.00,0.0200
3248.00,0.0201
3247.00,0.0201
3246.00,0.0202
3245.00,0.0204
3244.00,0.0205
3243.00,0.0206
3242.00,0.0208
3241.00,0.0209
3240.00,0.0210
3239.00,0.0211
3238.00,0.0211
3237.00,0.0212
3236.00,0.0212
3235.00,0.0212
3234.00,0.0213
3233.00,0.0214
3232.00,0.0215
3231.00,0.0217
3230.00,0.0219
3229.00,0.0220
3228.00,0.0222
3227.00,0.0223
3226.00,0.0224
3225.00,0.0225
3224.00,0.0226
3223.00,0.0227
3222.00,0.0228
3221.00,0.0230
3220.00,0.0231
3219.00,0.0232
3218.00,0.0233
3217.00,0.0234
3216.00,0.0236
3215.00,0.0237
3214.00,0.0238
3213.00,0.0240
3212.00,0.0241
3211.00,0.0243
3210.00,0.0244
3209.00,0.0245
3208.00,0.0246
3207.00,0.0247
3206.00,0.0249
3205.00,0.0250
3204.00,0.0251
3203.00,0.0252
3202.00,0.0253
3201.00,0.0254
3200.00,0.0256
3199.00,0.0257
3198.00,0.0258
3197.00,0.0259
3196.00,0.0260
3195.00,0.0261
3194.00,0.0261
3193.00,0.0262
3192.00,0.0263
3191.00,0.0264
3190.00,0.0265
3189.00,0.0266
3188.00,0.0268
3187.00,0.0269
3186.00,0.0270
3185.00,0.0271
3184.00,0.0272
3183.00,0.0273
3182.00,0.0274
3181.00,0.0275
3180.00,0.0276
3179.00,0.0277
3178.00,0.0278
3177.00,0.0280
3176.00,0.0281
3175.00,0.0282
3174.00,0.0282
3173.00,0.0284
3172.00,0.0285
3171.00,0.0286
3170.00,0.0287
3169.00,0.0288
3168.00,0.0289
3167.00,0.0290
3166.00,0.0291
3165.00,0.0292
3164.00,0.0293
3163.00,0.0294
3162.00,0.0296
3161.00,0.0297
3160.00,0.0299
3159.00,0.0300
3158.00,0.0302
3157.00,0.0303
3156.00,0.0304
3155.00,0.0305
3154.00,0.0306
3153.00,0.0307
3152.00,0.0309
3151.00,0.0310
3150.00,0.0312
3149.00,0.0314
3148.00,0.0315
3147.00,0.0317
3146.00,0.0318
3145.00,0.0320
3144.00,0.0321
3143.00,0.0323
3142.00,0.0324
3141.00,0.0326
3140.00,0.0328
3139.00,0.0329
3138.00,0.0331
3137.00,0.0332
3136.00,0.0334
3135.00,0.0336
3134.00,0.0338
3133.00,0.0339
3132.00,0.0341
3131.00,0.0343
3130.00,0.0345
3129.00,0.0346
3128.00,0.0348
3127.00,0.0349
3126.00,0.0351
3125.00,0.0352
3124.00,0.0353
3123.00,0.0355
3122.00,0.0356
3121.00,0.0358
3120.00,0.0360
3119.00,0.0362
3118.00,0.0363
3117.00,0.0365
3116.00,0.0367
3115.00,0.0369
3114.00,0.0372
3113.00,0.0374
3112.00,0.0376
3111.00,0.0378
3110.00,0.0380
3109.00,0.0382
3108.00,0.0385
3107.00,0.0387
3106.00,0.0389
3105.00,0.0392
3104.00,0.0394
3103.00,0.0396
3102.00,0.0398
3101.00,0.0400
3100.00,0.0403
3099.00,0.0405
3098.00,0.0407
3097.00,0.0409
3096.00,0.0411
3095.00,0.0414
3094.00,0.0416
3093.00,0.0418
3092.00,0.0421
3091.00,0.0423
3090.00,0.0426
3089.00,0.0429
3088.00,0.0431
3087.00,0.0434
3086.00,0.0436
3085.00,0.0439
3084.00,0.0442
3083.00,0.0445
3082.00,0.0448
3081.00,0.0451
3080.00,0.0454
3079.00,0.0457
3078.00,0.0459
3077.00,0.0462
3076.00,0.0465
3075.00,0.0468
3074.00,0.0471
3073.00,0.0473
3072.00,0.0476
3071.00,0.0478
3070.00,0.0481
3069.00,0.0483
3068.00,0.0485
3067.00,0.0487
3066.00,0.0489
3065.00,0.0491
3064.00,0.0493
3063.00,0.0495
3062.00,0.0496
3061.00,0.0498
3060.00,0.0500
3059.00,0.0501
3058.00,0.0503
3057.00,0.0505
3056.00,0.0507
3055.00,0.0508
3054.00,0.0510
3053.00,0.0512
3052.00,0.0514
3051.00,0.0515
3050.00,0.0516
3049.00,0.0518
3048.00,0.0519
3047.00,0.0520
3046.00,0.0521
3045.00,0.0521
3044.00,0.0522
3043.00,0.0522
3042.00,0.0522
3041.00,0.0522
3040.00,0.0523
3039.00,0.0523
3038.00,0.0525
3037.00,0.0527
3036.00,0.0529
3035.00,0.0533
3034.00,0.0539
3033.00,0.0546
3032.00,0.0555
3031.00,0.0566
3030.00,0.0578
3029.00,0.0592
3028.00,0.0605
3027.00,0.0617
3026.00,0.0626
3025.00,0.0632
3024.00,0.0635
3023.00,0.0637
3022.00,0.0638
3021.00,0.0639
3020.00,0.0639
3019.00,0.0637
3018.00,0.0634
3017.00,0.0628
3016.00,0.0620
3015.00,0.0612
3014.00,0.0604
3013.00,0.0597
3012.00,0.0592
3011.00,0.0587
3010.00,0.0584
3009.00,0.0582
3008.00,0.0580
3007.00,0.0579
3006.00,0.0579
3005.00,0.0579
3004.00,0.0579
3003.00,0.0579
3002.00,0.0579
3001.00,0.0579
3000.00,0.0579
2999.00,0.0579
2998.00,0.0579
2997.00,0.0580
2996.00,0.0580
2995.00,0.0581
2994.00,0.0582
2993.00,0.0583
2992.00,0.0584
2991.00,0.0585
2990.00,0.0585
2989.00,0.0586
2988.00,0.0587
2987.00,0.0588
2986.00,0.0589
2985.00,0.0588
2984.00,0.0587
2983.00,0.0587
2982.00,0.0587
2981.00,0.0591
2980.00,0.0596
2979.00,0.0603
2978.00,0.0611
2977.00,0.0620
2976.00,0.0629
2975.00,0.0639
2974.00,0.0648
2973.00,0.0657
2972.00,0.0664
2971.00,0.0671
2970.00,0.0676
2969.00,0.0678
2968.00,0.0678
2967.00,0.0675
2966.00,0.0671
2965.00,0.0667
2964.00,0.0663
2963.00,0.0659
2962.00,0.0657
2961.00,0.0655
2960.00,0.0654
2959.00,0.0654
2958.00,0.0655
2957.00,0.0656
2956.00,0.0658
2955.00,0.0660
2954.00,0.0661
2953.00,0.0660
2952.00,0.0658
2951.00,0.0654
2950.00,0.0649
2949.00,0.0644
2948.00,0.0639
2947.00,0.0633
2946.00,0.0629
2945.00,0.0625
2944.00,0.0622
2943.00,0.0619
2942.00,0.0617
2941.00,0.0615
2940.00,0.0614
2939.00,0.0613
2938.00,0.0613
2937.00,0.0613
2936.00,0.0613
2935.00,0.0613
2934.00,0.0613
2933.00,0.0614
2932.00,0.0615
2931.00,0.0616
2930.00,0.0619
2929.00,0.0621
2928.00,0.0624
2927.00,0.0627
2926.00,0.0630
2925.00,0.0634
2924.00,0.0638
2923.00,0.0642
2922.00,0.0645
2921.00,0.0646
2920.00,0.0647
2919.00,0.0647
2918.00,0.0646
2917.00,0.0645
2916.00,0.0644
2915.00,0.0643
2914.00,0.0642
2913.00,0.0641
2912.00,0.0641
2911.00,0.0642
2910.00,0.0643
2909.00,0.0644
2908.00,0.0646
2907.00,0.0648
2906.00,0.0650
2905.00,0.0652
2904.00,0.0654
2903.00,0.0655
2902.00,0.0657
2901.00,0.0659
2900.00,0.0660
2899.00,0.0661
2898.00,0.0663
2897.00,0.0664
2896.00,0.0664
2895.00,0.0665
2894.00,0.0665
2893.00,0.0664
2892.00,0.0664
2891.00,0.0664
2890.00,0.0663
2889.00,0.0663
2888.00,0.0662
2887.00,0.0662
2886.00,0.0662
2885.00,0.0661
2884.00,0.0661
2883.00,0.0661
2882.00,0.0662
2881.00,0.0662
2880.00,0.0663
2879.00,0.0664
2878.00,0.0664
2877.00,0.0663
2876.00,0.0663
2875.00,0.0662
2874.00,0.0660
2873.00,0.0659
2872.00,0.0657
2871.00,0.0655
2870.00,0.0653
2869.00,0.0651
2868.00,0.0650
2867.00,0.0648
2866.00,0.0646
2865.00,0.0645
2864.00,0.0644
2863.00,0.0642
2862.00,0.0642
2861.00,0.0641
2860.00,0.0641
2859.00,0.0641
2858.00,0.0641
2857.00,0.0642
2856.00,0.0643
2855.00,0.0645
2854.00,0.0646
2853.00,0.0648
2852.00,0.0651
2851.00,0.0653
2850.00,0.0657
2849.00,0.0660
2848.00,0.0664
2847.00,0.0668
2846.00,0.0672
2845.00,0.0677
2844.00,0.0681
2843.00,0.0685
2842.00,0.0690
2841.00,0.0694
2840.00,0.0698
2839.00,0.0702
2838.00,0.0705
2837.00,0.0708
2836.00,0.0712
2835.00,0.0715
2834.00,0.0717
2833.00,0.0719
2832.00,0.0721
2831.00,0.0722
2830.00,0.0722
2829.00,0.0723
2828.00,0.0724
2827.00,0.0724
2826.00,0.0725
2825.00,0.0725
2824.00,0.0725
2823.00,0.0725
2822.00,0.0725
2821.00,0.0724
2820.00,0.0724
2819.00,0.0723
2818.00,0.0722
2817.00,0.0720
2816.00,0.0719
2815.00,0.0717
2814.00,0.0715
2813.00,0.0714
2812.00,0.0712
2811.00,0.0710
2810.00,0.0708
2809.00,0.0706
2808.00,0.0703
2807.00,0.0701
2806.00,0.0698
2805.00,0.0696
2804.00,0.0694
2803.00,0.0691
2802.00,0.0689
2801.00,0.0687
2800.00,0.0684
2799.00,0.0681
2798.00,0.0678
2797.00,0.0675
2796.00,0.0672
2795.00,0.0669
2794.00,0.0665
2793.00,0.0662
2792.00,0.0659
2791.00,0.0656
2790.00,0.0652
2789.00,0.0649
2788.00,0.0645
2787.00,0.0642
2786.00,0.0639
2785.00,0.0635
2784.00,0.0632
2783.00,0.0629
2782.00,0.0627
2781.00,0.0624
2780.00,0.0623
2779.00,0.0621
2778.00,0.0620
2777.00,0.0619
2776.00,0.0618
2775.00,0.0618
2774.00,0.0618
2773.00,0.0618
2772.00,0.0619
2771.00,0.0619
2770.00,0.0620
2769.00,0.0621
2768.00,0.0623
2767.00,0.0624
2766.00,0.0625
2765.00,0.0627
2764.00,0.0628
2763.00,0.0629
2762.00,0.0629
2761.00,0.0630
2760.00,0.0630
2759.00,0.0630
2758.00,0.0630
2757.00,0.0630
