Created as New Dataset,Sample 708 By YargerLab Date Wednesday, June 18 2025
cm-1,A
4000.00,0.0014
3999.00,0.0014
3998.00,0.0014
3997.00,0.0014
3996.00,0.0014
3995.00,0.0014
3994.00,0.0014
3993.00,0.0014
3992.00,0.0014
3991.00,0.0014
3990.00,0.0014
3989.00,0.0014
3988.00,0.0014
3987.00,0.0013
3986.00,0.0013
3985.00,0.0013
3984.00,0.0013
3983.00,0.0013
3982.00,0.0014
3981.00,0.0014
3980.00,0.0014
3979.00,0.0014
3978.00,0.0014
3977.00,0.0014
3976.00,0.0014
3975.00,0.0013
3974.00,0.0013
3973.00,0.0013
3972.00,0.0013
3971.00,0.0013
3970.00,0.0013
3969.00,0.0013
3968.00,0.0013
3967.00,0.0014
3966.00,0.0014
3965.00,0.0013
3964.00,0.0013
3963.00,0.0013
3962.00,0.0013
3961.00,0.0013
3960.00,0.0013
3959.00,0.0013
3958.00,0.0013
3957.00,0.0013
3956.00,0.0013
3955.00,0.0013
3954.00,0.0013
3953.00,0.0014
3952.00,0.0014
3951.00,0.0014
3950.00,0.0014
3949.00,0.0014
3948.00,0.0013
3947.00,0.0013
3946.00,0.0013
3945.00,0.0013
3944.00,0.0013
3943.00,0.0013
3942.00,0.0013
3941.00,0.0013
3940.00,0.0013
3939.00,0.0013
3938.00,0.0014
3937.00,0.0013
3936.00,0.0013
3935.00,0.0013
3934.00,0.0013
3933.00,0.0013
3932.00,0.0013
3931.00,0.0013
3930.00,0.0013
3929.00,0.0013
3928.00,0.0013
3927.00,0.0013
3926.00,0.0013
3925.00,0.0013
3924.00,0.0013
3923.00,0.0013
3922.00,0.0013
3921.00,0.0013
3920.00,0.0013
3919.00,0.0013
3918.00,0.0013
3917.00,0.0013
3916.00,0.0012
3915.00,0.0012
3914.00,0.0012
3913.00,0.0012
3912.00,0.0012
3911.00,0.0013
3910.00,0.0013
3909.00,0.0013
3908.00,0.0012
3907.00,0.0012
3906.00,0.0012
3905.00,0.0012
3904.00,0.0012
3903.00,0.0012
3902.00,0.0012
3901.00,0.0012
3900.00,0.0012
3899.00,0.0012
3898.00,0.0013
3897.00,0.0013
3896.00,0.0013
3895.00,0.0013
3894.00,0.0012
3893.00,0.0012
3892.00,0.0012
3891.00,0.0012
3890.00,0.0012
3889.00,0.0012
3888.00,0.0012
3887.00,0.0012
3886.00,0.0012
3885.00,0.0012
3884.00,0.0012
3883.00,0.0012
3882.00,0.0012
3881.00,0.0012
3880.00,0.0012
3879.00,0.0012
3878.00,0.0012
3877.00,0.0012
3876.00,0.0012
3875.00,0.0012
3874.00,0.0012
3873.00,0.0012
3872.00,0.0012
3871.00,0.0012
3870.00,0.0012
3869.00,0.0012
3868.00,0.0013
3867.00,0.0013
3866.00,0.0013
3865.00,0.0012
3864.00,0.0012
3863.00,0.0012
3862.00,0.0013
3861.00,0.0013
3860.00,0.0013
3859.00,0.0012
3858.00,0.0012
3857.00,0.0013
3856.00,0.0013
3855.00,0.0013
3854.00,0.0012
3853.00,0.0012
3852.00,0.0012
3851.00,0.0012
3850.00,0.0012
3849.00,0.0012
3848.00,0.0012
3847.00,0.0012
3846.00,0.0012
3845.00,0.0012
3844.00,0.0012
3843.00,0.0012
3842.00,0.0012
3841.00,0.0012
3840.00,0.0012
3839.00,0.0012
3838.00,0.0012
3837.00,0.0012
3836.00,0.0012
3835.00,0.0012
3834.00,0.0012
3833.00,0.0012
3832.00,0.0012
3831.00,0.0012
3830.00,0.0012
3829.00,0.0012
3828.00,0.0012
3827.00,0.0012
3826.00,0.0012
3825.00,0.0012
3824.00,0.0012
3823.00,0.0011
3822.00,0.0011
3821.00,0.0011
3820.00,0.0012
3819.00,0.0012
3818.00,0.0013
3817.00,0.0012
3816.00,0.0012
3815.00,0.0012
3814.00,0.0012
3813.00,0.0012
3812.00,0.0012
3811.00,0.0012
3810.00,0.0012
3809.00,0.0012
3808.00,0.0012
3807.00,0.0012
3806.00,0.0012
3805.00,0.0012
3804.00,0.0012
3803.00,0.0011
3802.00,0.0011
3801.00,0.0011
3800.00,0.0012
3799.00,0.0012
3798.00,0.0012
3797.00,0.0012
3796.00,0.0012
3795.00,0.0012
3794.00,0.0012
3793.00,0.0012
3792.00,0.0012
3791.00,0.0012
3790.00,0.0012
3789.00,0.0012
3788.00,0.0012
3787.00,0.0012
3786.00,0.0011
3785.00,0.0011
3784.00,0.0011
3783.00,0.0012
3782.00,0.0012
3781.00,0.0012
3780.00,0.0012
3779.00,0.0012
3778.00,0.0012
3777.00,0.0012
3776.00,0.0012
3775.00,0.0012
3774.00,0.0012
3773.00,0.0012
3772.00,0.0012
3771.00,0.0012
3770.00,0.0012
3769.00,0.0012
3768.00,0.0012
3767.00,0.0012
3766.00,0.0012
3765.00,0.0012
3764.00,0.0012
3763.00,0.0012
3762.00,0.0012
3761.00,0.0012
3760.00,0.0012
3759.00,0.0012
3758.00,0.0012
3757.00,0.0012
3756.00,0.0012
3755.00,0.0012
3754.00,0.0012
3753.00,0.0012
3752.00,0.0012
3751.00,0.0012
3750.00,0.0011
3749.00,0.0011
3748.00,0.0011
3747.00,0.0011
3746.00,0.0011
3745.00,0.0011
3744.00,0.0011
3743.00,0.0011
3742.00,0.0011
3741.00,0.0011
3740.00,0.0010
3739.00,0.0010
3738.00,0.0010
3737.00,0.0010
3736.00,0.0010
3735.00,0.0010
3734.00,0.0010
3733.00,0.0010
3732.00,0.0010
3731.00,0.0010
3730.00,0.0010
3729.00,0.0010
3728.00,0.0010
3727.00,0.0010
3726.00,0.0010
3725.00,0.0010
3724.00,0.0009
3723.00,0.0009
3722.00,0.0009
3721.00,0.0010
3720.00,0.0010
3719.00,0.0010
3718.00,0.0010
3717.00,0.0011
3716.00,0.0011
3715.00,0.0011
3714.00,0.0011
3713.00,0.0010
3712.00,0.0010
3711.00,0.0009
3710.00,0.0009
3709.00,0.0009
3708.00,0.0009
3707.00,0.0009
3706.00,0.0009
3705.00,0.0009
3704.00,0.0009
3703.00,0.0010
3702.00,0.0010
3701.00,0.0010
3700.00,0.0010
3699.00,0.0011
3698.00,0.0010
3697.00,0.0010
3696.00,0.0010
3695.00,0.0010
3694.00,0.0010
3693.00,0.0010
3692.00,0.0010
3691.00,0.0010
3690.00,0.0010
3689.00,0.0010
3688.00,0.0010
3687.00,0.0010
3686.00,0.0010
3685.00,0.0010
3684.00,0.0010
3683.00,0.0010
3682.00,0.0010
3681.00,0.0010
3680.00,0.0010
3679.00,0.0010
3678.00,0.0010
3677.00,0.0010
3676.00,0.0009
3675.00,0.0009
3674.00,0.0009
3673.00,0.0009
3672.00,0.0009
3671.00,0.0009
3670.00,0.0009
3669.00,0.0009
3668.00,0.0010
3667.00,0.0010
3666.00,0.0010
3665.00,0.0010
3664.00,0.0010
3663.00,0.0010
3662.00,0.0010
3661.00,0.0010
3660.00,0.0010
3659.00,0.0010
3658.00,0.0010
3657.00,0.0010
3656.00,0.0009
3655.00,0.0009
3654.00,0.0009
3653.00,0.0009
3652.00,0.0008
3651.00,0.0008
3650.00,0.0008
3649.00,0.0008
3648.00,0.0008
3647.00,0.0009
3646.00,0.0010
3645.00,0.0010
3644.00,0.0010
3643.00,0.0010
3642.00,0.0010
3641.00,0.0010
3640.00,0.0010
3639.00,0.0010
3638.00,0.0010
3637.00,0.0010
3636.00,0.0010
3635.00,0.0009
3634.00,0.0009
3633.00,0.0010
3632.00,0.0010
3631.00,0.0010
3630.00,0.0010
3629.00,0.0010
3628.00,0.0010
3627.00,0.0011
3626.00,0.0010
3625.00,0.0010
3624.00,0.0010
3623.00,0.0010
3622.00,0.0010
3621.00,0.0010
3620.00,0.0010
3619.00,0.0010
3618.00,0.0010
3617.00,0.0011
3616.00,0.0011
3615.00,0.0011
3614.00,0.0012
3613.00,0.0012
3612.00,0.0012
3611.00,0.0012
3610.00,0.0012
3609.00,0.0012
3608.00,0.0012
3607.00,0.0012
3606.00,0.0012
3605.00,0.0012
3604.00,0.0012
3603.00,0.0012
3602.00,0.0012
3601.00,0.0012
3600.00,0.0012
3599.00,0.0012
3598.00,0.0012
3597.00,0.0012
3596.00,0.0012
3595.00,0.0012
3594.00,0.0013
3593.00,0.0013
3592.00,0.0013
3591.00,0.0013
3590.00,0.0013
3589.00,0.0013
3588.00,0.0013
3587.00,0.0013
3586.00,0.0013
3585.00,0.0014
3584.00,0.0014
3583.00,0.0014
3582.00,0.0014
3581.00,0.0014
3580.00,0.0014
3579.00,0.0014
3578.00,0.0014
3577.00,0.0014
3576.00,0.0015
3575.00,0.0015
3574.00,0.0015
3573.00,0.0016
3572.00,0.0016
3571.00,0.0016
3570.00,0.0016
3569.00,0.0016
3568.00,0.0016
3567.00,0.0016
3566.00,0.0016
3565.00,0.0016
3564.00,0.0016
3563.00,0.0017
3562.00,0.0017
3561.00,0.0018
3560.00,0.0018
3559.00,0.0018
3558.00,0.0019
3557.00,0.0019
3556.00,0.0019
3555.00,0.0019
3554.00,0.0019
3553.00,0.0020
3552.00,0.0020
3551.00,0.0020
3550.00,0.0021
3549.00,0.0021
3548.00,0.0021
3547.00,0.0022
3546.00,0.0022
3545.00,0.0022
3544.00,0.0023
3543.00,0.0023
3542.00,0.0023
3541.00,0.0023
3540.00,0.0024
3539.00,0.0024
3538.00,0.0024
3537.00,0.0025
3536.00,0.0025
3535.00,0.0026
3534.00,0.0026
3533.00,0.0027
3532.00,0.0027
3531.00,0.0027
3530.00,0.0028
3529.00,0.0028
3528.00,0.0029
3527.00,0.0029
3526.00,0.0029
3525.00,0.0030
3524.00,0.0030
3523.00,0.0031
3522.00,0.0031
3521.00,0.0032
3520.00,0.0032
3519.00,0.0033
3518.00,0.0034
3517.00,0.0035
3516.00,0.0036
3515.00,0.0037
3514.00,0.0038
3513.00,0.0038
3512.00,0.0039
3511.00,0.0040
3510.00,0.0040
3509.00,0.0041
3508.00,0.0042
3507.00,0.0043
3506.00,0.0044
3505.00,0.0045
3504.00,0.0046
3503.00,0.0048
3502.00,0.0049
3501.00,0.0050
3500.00,0.0051
3499.00,0.0052
3498.00,0.0053
3497.00,0.0055
3496.00,0.0056
3495.00,0.0058
3494.00,0.0060
3493.00,0.0061
3492.00,0.0063
3491.00,0.0065
3490.00,0.0066
3489.00,0.0068
3488.00,0.0070
3487.00,0.0072
3486.00,0.0075
3485.00,0.0077
3484.00,0.0079
3483.00,0.0081
3482.00,0.0083
3481.00,0.0085
3480.00,0.0088
3479.00,0.0090
3478.00,0.0093
3477.00,0.0096
3476.00,0.0099
3475.00,0.0102
3474.00,0.0105
3473.00,0.0108
3472.00,0.0112
3471.00,0.0116
3470.00,0.0121
3469.00,0.0126
3468.00,0.0132
3467.00,0.0139
3466.00,0.0146
3465.00,0.0155
3464.00,0.0164
3463.00,0.0175
3462.00,0.0186
3461.00,0.0200
3460.00,0.0215
3459.00,0.0231
3458.00,0.0248
3457.00,0.0267
3456.00,0.0286
3455.00,0.0305
3454.00,0.0323
3453.00,0.0340
3452.00,0.0353
3451.00,0.0363
3450.00,0.0369
3449.00,0.0371
3448.00,0.0370
3447.00,0.0364
3446.00,0.0356
3445.00,0.0345
3444.00,0.0332
3443.00,0.0318
3442.00,0.0304
3441.00,0.0289
3440.00,0.0274
3439.00,0.0260
3438.00,0.0246
3437.00,0.0234
3436.00,0.0222
3435.00,0.0210
3434.00,0.0200
3433.00,0.0190
3432.00,0.0181
3431.00,0.0173
3430.00,0.0166
3429.00,0.0159
3428.00,0.0153
3427.00,0.0147
3426.00,0.0142
3425.00,0.0137
3424.00,0.0133
3423.00,0.0129
3422.00,0.0126
3421.00,0.0123
3420.00,0.0120
3419.00,0.0118
3418.00,0.0116
3417.00,0.0113
3416.00,0.0112
3415.00,0.0110
3414.00,0.0108
3413.00,0.0106
3412.00,0.0105
3411.00,0.0104
3410.00,0.0103
3409.00,0.0102
3408.00,0.0101
3407.00,0.0100
3406.00,0.0100
3405.00,0.0099
3404.00,0.0098
3403.00,0.0098
3402.00,0.0097
3401.00,0.0097
3400.00,0.0096
3399.00,0.0096
3398.00,0.0095
3397.00,0.0095
3396.00,0.0094
3395.00,0.0094
3394.00,0.0094
3393.00,0.0094
3392.00,0.0094
3391.00,0.0094
3390.00,0.0094
3389.00,0.0093
3388.00,0.0093
3387.00,0.0093
3386.00,0.0093
3385.00,0.0093
3384.00,0.0093
3383.00,0.0093
3382.00,0.0093
3381.00,0.0093
3380.00,0.0093
3379.00,0.0093
3378.00,0.0093
3377.00,0.0093
3376.00,0.0092
3375.00,0.0092
3374.00,0.0092
3373.00,0.0093
3372.00,0.0093
3371.00,0.0093
3370.00,0.0093
3369.00,0.0093
3368.00,0.0094
3367.00,0.0094
3366.00,0.0094
3365.00,0.0094
3364.00,0.0095
3363.00,0.0095
3362.00,0.0095
3361.00,0.0096
3360.00,0.0096
3359.00,0.0096
3358.00,0.0096
3357.00,0.0096
3356.00,0.0096
3355.00,0.0097
3354.00,0.0097
3353.00,0.0098
3352.00,0.0098
3351.00,0.0099
3350.00,0.0099
3349.00,0.0099
3348.00,0.0099
3347.00,0.0100
3346.00,0.0100
3345.00,0.0100
3344.00,0.0100
3343.00,0.0101
3342.00,0.0101
3341.00,0.0101
3340.00,0.0102
3339.00,0.0102
3338.00,0.0102
3337.00,0.0103
3336.00,0.0103
3335.00,0.0103
3334.00,0.0103
3333.00,0.0104
3332.00,0.0104
3331.00,0.0105
3330.00,0.0105
3329.00,0.0106
3328.00,0.0106
3327.00,0.0107
3326.00,0.0107
3325.00,0.0107
3324.00,0.0108
3323.00,0.0109
3322.00,0.0109
3321.00,0.0110
3320.00,0.0111
3319.00,0.0111
3318.00,0.0112
3317.00,0.0112
3316.00,0.0113
3315.00,0.0113
3314.00,0.0114
3313.00,0.0114
3312.00,0.0114
3311.00,0.0115
3310.00,0.0115
3309.00,0.0116
3308.00,0.0117
3307.00,0.0117
3306.00,0.0118
3305.00,0.0119
3304.00,0.0120
3303.00,0.0120
3302.00,0.0121
3301.00,0.0122
3300.00,0.0123
3299.00,0.0123
3298.00,0.0124
3297.00,0.0124
3296.00,0.0125
3295.00,0.0125
3294.00,0.0126
3293.00,0.0127
3292.00,0.0128
3291.00,0.0129
3290.00,0.0130
3289.00,0.0131
3288.00,0.0132
3287.00,0.0133
3286.00,0.0134
3285.00,0.0136
3284.00,0.0137
3283.00,0.0138
3282.00,0.0138
3281.00,0.0139
3280.00,0.0140
3279.00,0.0140
3278.00,0.0141
3277.00,0.0141
3276.00,0.0142
3275.00,0.0142
3274.00,0.0143
3273.00,0.0143
3272.00,0.0143
3271.00,0.0144
3270.00,0.0146
3269.00,0.0148
3268.00,0.0150
3267.00,0.0152
3266.00,0.0153
3265.00,0.0154
3264.00,0.0155
3263.00,0.0155
3262.00,0.0156
3261.00,0.0156
3260.00,0.0156
3259.00,0.0157
3258.00,0.0157
3257.00,0.0158
3256.00,0.0158
3255.00,0.0159
3254.00,0.0161
3253.00,0.0162
3252.00,0.0163
3251.00,0.0163
3250.00,0.0163
3249.00,0.0163
3248.00,0.0163
3247.00,0.0164
3246.00,0.0165
3245.00,0.0166
3244.00,0.0167
3243.00,0.0168
3242.00,0.0169
3241.00,0.0169
3240.00,0.0170
3239.00,0.0171
3238.00,0.0171
3237.00,0.0172
3236.00,0.0172
3235.00,0.0173
3234.00,0.0174
3233.00,0.0175
3232.00,0.0176
3231.00,0.0177
3230.00,0.0178
3229.00,0.0179
3228.00,0.0180
3227.00,0.0180
3226.00,0.0181
3225.00,0.0182
3224.00,0.0183
3223.00,0.0184
3222.00,0.0184
3221.00,0.0185
3220.00,0.0185
3219.00,0.0186
3218.00,0.0186
3217.00,0.0187
3216.00,0.0188
3215.00,0.0189
3214.00,0.0190
3213.00,0.0191
3212.00,0.0192
3211.00,0.0193
3210.00,0.0193
3209.00,0.0194
3208.00,0.0195
3207.00,0.0196
3206.00,0.0197
3205.00,0.0198
3204.00,0.0199
3203.00,0.0200
3202.00,0.0201
3201.00,0.0202
3200.00,0.0203
3199.00,0.0203
3198.00,0.0204
3197.00,0.0204
3196.00,0.0205
3195.00,0.0206
3194.00,0.0206
3193.00,0.0207
3192.00,0.0207
3191.00,0.0208
3190.00,0.0208
3189.00,0.0209
3188.00,0.0209
3187.00,0.0210
3186.00,0.0211
3185.00,0.0211
3184.00,0.0212
3183.00,0.0213
3182.00,0.0213
3181.00,0.0213
3180.00,0.0214
3179.00,0.0214
3178.00,0.0215
3177.00,0.0216
3176.00,0.0216
3175.00,0.0216
3174.00,0.0216
3173.00,0.0217
3172.00,0.0217
3171.00,0.0217
3170.00,0.0217
3169.00,0.0218
3168.00,0.0218
3167.00,0.0219
3166.00,0.0219
3165.00,0.0220
3164.00,0.0220
3163.00,0.0220
3162.00,0.0220
3161.00,0.0220
3160.00,0.0220
3159.00,0.0220
3158.00,0.0221
3157.00,0.0221
3156.00,0.0220
3155.00,0.0220
3154.00,0.0219
3153.00,0.0220
3152.00,0.0221
3151.00,0.0222
3150.00,0.0224
3149.00,0.0225
3148.00,0.0226
3147.00,0.0227
3146.00,0.0228
3145.00,0.0229
3144.00,0.0230
3143.00,0.0230
3142.00,0.0230
3141.00,0.0231
3140.00,0.0231
3139.00,0.0232
3138.00,0.0233
3137.00,0.0234
3136.00,0.0235
3135.00,0.0236
3134.00,0.0236
3133.00,0.0237
3132.00,0.0237
3131.00,0.0238
3130.00,0.0238
3129.00,0.0239
3128.00,0.0240
3127.00,0.0240
3126.00,0.0241
3125.00,0.0241
3124.00,0.0241
3123.00,0.0240
3122.00,0.0240
3121.00,0.0240
3120.00,0.0240
3119.00,0.0240
3118.00,0.0241
3117.00,0.0242
3116.00,0.0243
3115.00,0.0244
3114.00,0.0245
3113.00,0.0246
3112.00,0.0247
3111.00,0.0247
3110.00,0.0248
3109.00,0.0248
3108.00,0.0249
3107.00,0.0250
3106.00,0.0251
3105.00,0.0252
3104.00,0.0252
3103.00,0.0253
3102.00,0.0253
3101.00,0.0253
3100.00,0.0253
3099.00,0.0254
3098.00,0.0254
3097.00,0.0254
3096.00,0.0255
3095.00,0.0255
3094.00,0.0255
3093.00,0.0255
3092.00,0.0255
3091.00,0.0255
3090.00,0.0255
3089.00,0.0256
3088.00,0.0256
3087.00,0.0256
3086.00,0.0256
3085.00,0.0257
3084.00,0.0257
3083.00,0.0258
3082.00,0.0259
3081.00,0.0260
3080.00,0.0261
3079.00,0.0262
3078.00,0.0264
3077.00,0.0266
3076.00,0.0269
3075.00,0.0271
3074.00,0.0273
3073.00,0.0274
3072.00,0.0276
3071.00,0.0276
3070.00,0.0276
3069.00,0.0275
3068.00,0.0273
3067.00,0.0271
3066.00,0.0269
3065.00,0.0266
3064.00,0.0264
3063.00,0.0261
3062.00,0.0258
3061.00,0.0254
3060.00,0.0251
3059.00,0.0248
3058.00,0.0245
3057.00,0.0243
3056.00,0.0241
3055.00,0.0239
3054.00,0.0237
3053.00,0.0236
3052.00,0.0234
3051.00,0.0233
3050.00,0.0232
3049.00,0.0231
3048.00,0.0230
3047.00,0.0229
3046.00,0.0228
3045.00,0.0227
3044.00,0.0226
3043.00,0.0226
3042.00,0.0225
3041.00,0.0225
3040.00,0.0225
3039.00,0.0224
3038.00,0.0224
3037.00,0.0224
3036.00,0.0223
3035.00,0.0222
3034.00,0.0222
3033.00,0.0221
3032.00,0.0220
3031.00,0.0219
3030.00,0.0219
3029.00,0.0218
3028.00,0.0217
3027.00,0.0216
3026.00,0.0215
3025.00,0.0214
3024.00,0.0213
3023.00,0.0212
3022.00,0.0211
3021.00,0.0211
3020.00,0.0210
3019.00,0.0209
3018.00,0.0209
3017.00,0.0208
3016.00,0.0207
3015.00,0.0207
3014.00,0.0207
3013.00,0.0207
3012.00,0.0207
3011.00,0.0207
3010.00,0.0207
3009.00,0.0207
3008.00,0.0207
3007.00,0.0208
3006.00,0.0208
3005.00,0.0208
3004.00,0.0209
3003.00,0.0210
3002.00,0.0211
3001.00,0.0212
3000.00,0.0213
2999.00,0.0214
2998.00,0.0216
2997.00,0.0218
2996.00,0.0220
2995.00,0.0223
2994.00,0.0226
2993.00,0.0229
2992.00,0.0232
2991.00,0.0235
2990.00,0.0238
2989.00,0.0240
2988.00,0.0242
2987.00,0.0243
2986.00,0.0245
2985.00,0.0247
2984.00,0.0249
2983.00,0.0251
2982.00,0.0254
2981.00,0.0258
2980.00,0.0262
2979.00,0.0267
2978.00,0.0272
2977.00,0.0277
2976.00,0.0281
2975.00,0.0285
2974.00,0.0287
2973.00,0.0290
2972.00,0.0292
2971.00,0.0294
2970.00,0.0297
2969.00,0.0301
2968.00,0.0305
2967.00,0.0310
2966.00,0.0316
2965.00,0.0323
2964.00,0.0331
2963.00,0.0341
2962.00,0.0351
2961.00,0.0363
2960.00,0.0374
2959.00,0.0385
2958.00,0.0394
2957.00,0.0402
2956.00,0.0409
2955.00,0.0414
2954.00,0.0416
2953.00,0.0417
2952.00,0.0416
2951.00,0.0412
2950.00,0.0407
2949.00,0.0400
2948.00,0.0393
2947.00,0.0388
2946.00,0.0385
2945.00,0.0384
2944.00,0.0387
2943.00,0.0392
2942.00,0.0400
2941.00,0.0409
2940.00,0.0420
2939.00,0.0431
2938.00,0.0444
2937.00,0.0457
2936.00,0.0471
2935.00,0.0486
2934.00,0.0503
2933.00,0.0522
2932.00,0.0541
2931.00,0.0561
2930.00,0.0580
2929.00,0.0598
2928.00,0.0612
2927.00,0.0622
2926.00,0.0628
2925.00,0.0631
2924.00,0.0630
2923.00,0.0626
2922.00,0.0619
2921.00,0.0610
2920.00,0.0599
2919.00,0.0587
2918.00,0.0573
2917.00,0.0559
2916.00,0.0545
2915.00,0.0531
2914.00,0.0516
2913.00,0.0500
2912.00,0.0485
2911.00,0.0469
2910.00,0.0454
2909.00,0.0439
2908.00,0.0425
2907.00,0.0412
2906.00,0.0400
2905.00,0.0390
2904.00,0.0381
2903.00,0.0372
2902.00,0.0365
2901.00,0.0359
2900.00,0.0353
2899.00,0.0347
2898.00,0.0342
2897.00,0.0338
2896.00,0.0333
2895.00,0.0329
2894.00,0.0326
2893.00,0.0323
2892.00,0.0320
2891.00,0.0318
2890.00,0.0316
2889.00,0.0314
2888.00,0.0312
2887.00,0.0311
2886.00,0.0310
2885.00,0.0309
2884.00,0.0309
2883.00,0.0308
2882.00,0.0308
2881.00,0.0309
2880.00,0.0310
2879.00,0.0312
2878.00,0.0315
2877.00,0.0319
2876.00,0.0324
2875.00,0.0330
2874.00,0.0336
2873.00,0.0343
2872.00,0.0348
2871.00,0.0350
2870.00,0.0350
2869.00,0.0346
2868.00,0.0341
2867.00,0.0336
2866.00,0.0333
2865.00,0.0333
2864.00,0.0336
2863.00,0.0342
2862.00,0.0349
2861.00,0.0358
2860.00,0.0367
2859.00,0.0375
2858.00,0.0381
2857.00,0.0382
2856.00,0.0380
2855.00,0.0375
2854.00,0.0367
2853.00,0.0357
2852.00,0.0346
2851.00,0.0334
2850.00,0.0322
2849.00,0.0311
2848.00,0.0301
2847.00,0.0292
2846.00,0.0284
2845.00,0.0278
2844.00,0.0274
2843.00,0.0269
2842.00,0.0265
2841.00,0.0261
2840.00,0.0258
2839.00,0.0255
2838.00,0.0253
2837.00,0.0253
2836.00,0.0254
2835.00,0.0255
2834.00,0.0254
2833.00,0.0252
2832.00,0.0249
2831.00,0.0243
2830.00,0.0236
2829.00,0.0229
2828.00,0.0221
2827.00,0.0213
2826.00,0.0206
2825.00,0.0199
2824.00,0.0193
2823.00,0.0188
2822.00,0.0184
2821.00,0.0181
2820.00,0.0178
2819.00,0.0175
2818.00,0.0172
2817.00,0.0170
2816.00,0.0169
2815.00,0.0167
2814.00,0.0165
2813.00,0.0164
2812.00,0.0162
2811.00,0.0161
2810.00,0.0159
2809.00,0.0158
2808.00,0.0157
2807.00,0.0157
2806.00,0.0156
2805.00,0.0155
2804.00,0.0155
2803.00,0.0154
2802.00,0.0153
2801.00,0.0153
2800.00,0.0152
2799.00,0.0151
2798.00,0.0151
2797.00,0.0151
2796.00,0.0151
2795.00,0.0150
2794.00,0.0150
2793.00,0.0149
2792.00,0.0149
2791.00,0.0149
2790.00,0.0149
2789.00,0.0148
2788.00,0.0148
2787.00,0.0148
2786.00,0.0148
2785.00,0.0148
2784.00,0.0148
2783.00,0.0149
2782.00,0.0149
2781.00,0.0149
2780.00,0.0150
2779.00,0.0150
2778.00,0.0150
2777.00,0.0151
2776.00,0.0151
2775.00,0.0152
2774.00,0.0152
2773.00,0.0153
2772.00,0.0153
2771.00,0.0154
2770.00,0.0154
2769.00,0.0154
2768.00,0.0155
2767.00,0.0155
2766.00,0.0156
2765.00,0.0156
2764.00,0.0157
2763.00,0.0157
2762.00,0.0158
2761.00,0.0158
2760.00,0.0159
2759.00,0.0159
2758.00,0.0159
2757.00,0.0160
