Created as New Dataset,Sample 980 By YargerLab Date Wednesday, July 30 2025
cm-1,A
4000.00,0.0014
3999.00,0.0014
3998.00,0.0014
3997.00,0.0014
3996.00,0.0014
3995.00,0.0014
3994.00,0.0014
3993.00,0.0014
3992.00,0.0014
3991.00,0.0015
3990.00,0.0015
3989.00,0.0015
3988.00,0.0015
3987.00,0.0015
3986.00,0.0015
3985.00,0.0015
3984.00,0.0015
3983.00,0.0014
3982.00,0.0014
3981.00,0.0014
3980.00,0.0014
3979.00,0.0014
3978.00,0.0014
3977.00,0.0014
3976.00,0.0014
3975.00,0.0014
3974.00,0.0014
3973.00,0.0014
3972.00,0.0014
3971.00,0.0014
3970.00,0.0014
3969.00,0.0014
3968.00,0.0014
3967.00,0.0014
3966.00,0.0014
3965.00,0.0014
3964.00,0.0014
3963.00,0.0014
3962.00,0.0014
3961.00,0.0014
3960.00,0.0014
3959.00,0.0014
3958.00,0.0014
3957.00,0.0014
3956.00,0.0015
3955.00,0.0015
3954.00,0.0015
3953.00,0.0015
3952.00,0.0014
3951.00,0.0014
3950.00,0.0014
3949.00,0.0014
3948.00,0.0014
3947.00,0.0015
3946.00,0.0014
3945.00,0.0014
3944.00,0.0014
3943.00,0.0014
3942.00,0.0014
3941.00,0.0014
3940.00,0.0014
3939.00,0.0014
3938.00,0.0013
3937.00,0.0014
3936.00,0.0014
3935.00,0.0014
3934.00,0.0014
3933.00,0.0014
3932.00,0.0014
3931.00,0.0014
3930.00,0.0014
3929.00,0.0014
3928.00,0.0014
3927.00,0.0014
3926.00,0.0014
3925.00,0.0014
3924.00,0.0014
3923.00,0.0014
3922.00,0.0014
3921.00,0.0014
3920.00,0.0014
3919.00,0.0014
3918.00,0.0014
3917.00,0.0014
3916.00,0.0014
3915.00,0.0014
3914.00,0.0014
3913.00,0.0014
3912.00,0.0014
3911.00,0.0014
3910.00,0.0013
3909.00,0.0013
3908.00,0.0013
3907.00,0.0013
3906.00,0.0013
3905.00,0.0013
3904.00,0.0014
3903.00,0.0014
3902.00,0.0014
3901.00,0.0014
3900.00,0.0014
3899.00,0.0014
3898.00,0.0014
3897.00,0.0014
3896.00,0.0014
3895.00,0.0014
3894.00,0.0014
3893.00,0.0014
3892.00,0.0014
3891.00,0.0014
3890.00,0.0014
3889.00,0.0014
3888.00,0.0014
3887.00,0.0014
3886.00,0.0014
3885.00,0.0014
3884.00,0.0014
3883.00,0.0014
3882.00,0.0014
3881.00,0.0014
3880.00,0.0015
3879.00,0.0015
3878.00,0.0015
3877.00,0.0014
3876.00,0.0014
3875.00,0.0014
3874.00,0.0014
3873.00,0.0014
3872.00,0.0014
3871.00,0.0014
3870.00,0.0014
3869.00,0.0014
3868.00,0.0014
3867.00,0.0014
3866.00,0.0014
3865.00,0.0014
3864.00,0.0014
3863.00,0.0014
3862.00,0.0014
3861.00,0.0014
3860.00,0.0015
3859.00,0.0015
3858.00,0.0015
3857.00,0.0014
3856.00,0.0014
3855.00,0.0013
3854.00,0.0013
3853.00,0.0014
3852.00,0.0013
3851.00,0.0013
3850.00,0.0013
3849.00,0.0014
3848.00,0.0014
3847.00,0.0014
3846.00,0.0015
3845.00,0.0015
3844.00,0.0015
3843.00,0.0015
3842.00,0.0015
3841.00,0.0014
3840.00,0.0014
3839.00,0.0015
3838.00,0.0015
3837.00,0.0015
3836.00,0.0015
3835.00,0.0015
3834.00,0.0014
3833.00,0.0014
3832.00,0.0014
3831.00,0.0014
3830.00,0.0014
3829.00,0.0014
3828.00,0.0014
3827.00,0.0014
3826.00,0.0015
3825.00,0.0015
3824.00,0.0014
3823.00,0.0014
3822.00,0.0014
3821.00,0.0015
3820.00,0.0015
3819.00,0.0015
3818.00,0.0015
3817.00,0.0014
3816.00,0.0015
3815.00,0.0015
3814.00,0.0014
3813.00,0.0014
3812.00,0.0014
3811.00,0.0014
3810.00,0.0014
3809.00,0.0014
3808.00,0.0014
3807.00,0.0014
3806.00,0.0014
3805.00,0.0014
3804.00,0.0014
3803.00,0.0014
3802.00,0.0014
3801.00,0.0014
3800.00,0.0014
3799.00,0.0014
3798.00,0.0014
3797.00,0.0014
3796.00,0.0014
3795.00,0.0014
3794.00,0.0015
3793.00,0.0015
3792.00,0.0015
3791.00,0.0015
3790.00,0.0015
3789.00,0.0015
3788.00,0.0014
3787.00,0.0014
3786.00,0.0014
3785.00,0.0014
3784.00,0.0014
3783.00,0.0014
3782.00,0.0014
3781.00,0.0015
3780.00,0.0015
3779.00,0.0015
3778.00,0.0015
3777.00,0.0015
3776.00,0.0015
3775.00,0.0015
3774.00,0.0015
3773.00,0.0015
3772.00,0.0015
3771.00,0.0015
3770.00,0.0015
3769.00,0.0015
3768.00,0.0015
3767.00,0.0015
3766.00,0.0015
3765.00,0.0015
3764.00,0.0015
3763.00,0.0015
3762.00,0.0015
3761.00,0.0014
3760.00,0.0015
3759.00,0.0015
3758.00,0.0015
3757.00,0.0015
3756.00,0.0015
3755.00,0.0015
3754.00,0.0016
3753.00,0.0015
3752.00,0.0015
3751.00,0.0015
3750.00,0.0015
3749.00,0.0015
3748.00,0.0015
3747.00,0.0015
3746.00,0.0014
3745.00,0.0014
3744.00,0.0015
3743.00,0.0015
3742.00,0.0014
3741.00,0.0015
3740.00,0.0015
3739.00,0.0015
3738.00,0.0015
3737.00,0.0015
3736.00,0.0014
3735.00,0.0014
3734.00,0.0014
3733.00,0.0014
3732.00,0.0014
3731.00,0.0014
3730.00,0.0014
3729.00,0.0014
3728.00,0.0014
3727.00,0.0014
3726.00,0.0015
3725.00,0.0015
3724.00,0.0015
3723.00,0.0015
3722.00,0.0015
3721.00,0.0015
3720.00,0.0014
3719.00,0.0014
3718.00,0.0014
3717.00,0.0014
3716.00,0.0014
3715.00,0.0014
3714.00,0.0014
3713.00,0.0015
3712.00,0.0015
3711.00,0.0015
3710.00,0.0015
3709.00,0.0015
3708.00,0.0014
3707.00,0.0014
3706.00,0.0014
3705.00,0.0014
3704.00,0.0014
3703.00,0.0014
3702.00,0.0014
3701.00,0.0014
3700.00,0.0014
3699.00,0.0014
3698.00,0.0014
3697.00,0.0014
3696.00,0.0014
3695.00,0.0015
3694.00,0.0015
3693.00,0.0015
3692.00,0.0015
3691.00,0.0015
3690.00,0.0016
3689.00,0.0016
3688.00,0.0016
3687.00,0.0016
3686.00,0.0016
3685.00,0.0016
3684.00,0.0017
3683.00,0.0017
3682.00,0.0017
3681.00,0.0017
3680.00,0.0017
3679.00,0.0018
3678.00,0.0018
3677.00,0.0018
3676.00,0.0018
3675.00,0.0018
3674.00,0.0018
3673.00,0.0018
3672.00,0.0018
3671.00,0.0018
3670.00,0.0018
3669.00,0.0018
3668.00,0.0018
3667.00,0.0018
3666.00,0.0018
3665.00,0.0018
3664.00,0.0019
3663.00,0.0019
3662.00,0.0019
3661.00,0.0020
3660.00,0.0020
3659.00,0.0020
3658.00,0.0020
3657.00,0.0020
3656.00,0.0021
3655.00,0.0021
3654.00,0.0022
3653.00,0.0022
3652.00,0.0023
3651.00,0.0023
3650.00,0.0024
3649.00,0.0024
3648.00,0.0024
3647.00,0.0023
3646.00,0.0023
3645.00,0.0024
3644.00,0.0024
3643.00,0.0025
3642.00,0.0025
3641.00,0.0025
3640.00,0.0025
3639.00,0.0025
3638.00,0.0025
3637.00,0.0026
3636.00,0.0026
3635.00,0.0026
3634.00,0.0027
3633.00,0.0027
3632.00,0.0028
3631.00,0.0028
3630.00,0.0028
3629.00,0.0028
3628.00,0.0029
3627.00,0.0029
3626.00,0.0029
3625.00,0.0029
3624.00,0.0030
3623.00,0.0030
3622.00,0.0030
3621.00,0.0030
3620.00,0.0030
3619.00,0.0031
3618.00,0.0032
3617.00,0.0032
3616.00,0.0033
3615.00,0.0033
3614.00,0.0034
3613.00,0.0035
3612.00,0.0035
3611.00,0.0035
3610.00,0.0036
3609.00,0.0036
3608.00,0.0037
3607.00,0.0037
3606.00,0.0037
3605.00,0.0038
3604.00,0.0038
3603.00,0.0039
3602.00,0.0039
3601.00,0.0040
3600.00,0.0041
3599.00,0.0041
3598.00,0.0042
3597.00,0.0042
3596.00,0.0043
3595.00,0.0043
3594.00,0.0044
3593.00,0.0044
3592.00,0.0045
3591.00,0.0045
3590.00,0.0046
3589.00,0.0046
3588.00,0.0047
3587.00,0.0048
3586.00,0.0049
3585.00,0.0049
3584.00,0.0050
3583.00,0.0050
3582.00,0.0050
3581.00,0.0051
3580.00,0.0052
3579.00,0.0053
3578.00,0.0053
3577.00,0.0054
3576.00,0.0054
3575.00,0.0055
3574.00,0.0055
3573.00,0.0056
3572.00,0.0057
3571.00,0.0058
3570.00,0.0059
3569.00,0.0059
3568.00,0.0060
3567.00,0.0061
3566.00,0.0062
3565.00,0.0062
3564.00,0.0062
3563.00,0.0063
3562.00,0.0063
3561.00,0.0064
3560.00,0.0064
3559.00,0.0065
3558.00,0.0066
3557.00,0.0066
3556.00,0.0067
3555.00,0.0068
3554.00,0.0068
3553.00,0.0069
3552.00,0.0069
3551.00,0.0070
3550.00,0.0070
3549.00,0.0071
3548.00,0.0072
3547.00,0.0072
3546.00,0.0073
3545.00,0.0074
3544.00,0.0074
3543.00,0.0074
3542.00,0.0074
3541.00,0.0075
3540.00,0.0075
3539.00,0.0075
3538.00,0.0076
3537.00,0.0076
3536.00,0.0077
3535.00,0.0077
3534.00,0.0078
3533.00,0.0078
3532.00,0.0078
3531.00,0.0079
3530.00,0.0079
3529.00,0.0079
3528.00,0.0080
3527.00,0.0080
3526.00,0.0080
3525.00,0.0081
3524.00,0.0081
3523.00,0.0082
3522.00,0.0082
3521.00,0.0083
3520.00,0.0083
3519.00,0.0083
3518.00,0.0084
3517.00,0.0084
3516.00,0.0084
3515.00,0.0084
3514.00,0.0085
3513.00,0.0085
3512.00,0.0085
3511.00,0.0085
3510.00,0.0085
3509.00,0.0086
3508.00,0.0086
3507.00,0.0086
3506.00,0.0087
3505.00,0.0087
3504.00,0.0088
3503.00,0.0088
3502.00,0.0088
3501.00,0.0089
3500.00,0.0089
3499.00,0.0089
3498.00,0.0089
3497.00,0.0090
3496.00,0.0090
3495.00,0.0090
3494.00,0.0090
3493.00,0.0091
3492.00,0.0091
3491.00,0.0091
3490.00,0.0091
3489.00,0.0091
3488.00,0.0092
3487.00,0.0092
3486.00,0.0092
3485.00,0.0092
3484.00,0.0092
3483.00,0.0093
3482.00,0.0093
3481.00,0.0093
3480.00,0.0094
3479.00,0.0094
3478.00,0.0094
3477.00,0.0094
3476.00,0.0094
3475.00,0.0094
3474.00,0.0094
3473.00,0.0095
3472.00,0.0095
3471.00,0.0096
3470.00,0.0096
3469.00,0.0096
3468.00,0.0096
3467.00,0.0096
3466.00,0.0096
3465.00,0.0096
3464.00,0.0096
3463.00,0.0097
3462.00,0.0097
3461.00,0.0097
3460.00,0.0097
3459.00,0.0097
3458.00,0.0097
3457.00,0.0097
3456.00,0.0097
3455.00,0.0098
3454.00,0.0098
3453.00,0.0098
3452.00,0.0098
3451.00,0.0098
3450.00,0.0098
3449.00,0.0098
3448.00,0.0098
3447.00,0.0098
3446.00,0.0098
3445.00,0.0098
3444.00,0.0098
3443.00,0.0098
3442.00,0.0098
3441.00,0.0098
3440.00,0.0098
3439.00,0.0098
3438.00,0.0098
3437.00,0.0098
3436.00,0.0098
3435.00,0.0098
3434.00,0.0098
3433.00,0.0098
3432.00,0.0097
3431.00,0.0097
3430.00,0.0097
3429.00,0.0097
3428.00,0.0097
3427.00,0.0097
3426.00,0.0097
3425.00,0.0097
3424.00,0.0096
3423.00,0.0096
3422.00,0.0096
3421.00,0.0096
3420.00,0.0096
3419.00,0.0096
3418.00,0.0096
3417.00,0.0096
3416.00,0.0096
3415.00,0.0096
3414.00,0.0096
3413.00,0.0095
3412.00,0.0095
3411.00,0.0095
3410.00,0.0095
3409.00,0.0094
3408.00,0.0094
3407.00,0.0094
3406.00,0.0094
3405.00,0.0094
3404.00,0.0094
3403.00,0.0094
3402.00,0.0094
3401.00,0.0094
3400.00,0.0094
3399.00,0.0093
3398.00,0.0093
3397.00,0.0093
3396.00,0.0093
3395.00,0.0093
3394.00,0.0093
3393.00,0.0092
3392.00,0.0092
3391.00,0.0092
3390.00,0.0092
3389.00,0.0092
3388.00,0.0093
3387.00,0.0093
3386.00,0.0093
3385.00,0.0092
3384.00,0.0092
3383.00,0.0092
3382.00,0.0092
3381.00,0.0091
3380.00,0.0091
3379.00,0.0090
3378.00,0.0090
3377.00,0.0090
3376.00,0.0090
3375.00,0.0089
3374.00,0.0089
3373.00,0.0089
3372.00,0.0089
3371.00,0.0088
3370.00,0.0088
3369.00,0.0088
3368.00,0.0088
3367.00,0.0088
3366.00,0.0088
3365.00,0.0088
3364.00,0.0088
3363.00,0.0088
3362.00,0.0088
3361.00,0.0088
3360.00,0.0088
3359.00,0.0088
3358.00,0.0088
3357.00,0.0088
3356.00,0.0088
3355.00,0.0087
3354.00,0.0087
3353.00,0.0087
3352.00,0.0086
3351.00,0.0086
3350.00,0.0086
3349.00,0.0086
3348.00,0.0086
3347.00,0.0086
3346.00,0.0086
3345.00,0.0086
3344.00,0.0086
3343.00,0.0085
3342.00,0.0085
3341.00,0.0085
3340.00,0.0085
3339.00,0.0084
3338.00,0.0084
3337.00,0.0085
3336.00,0.0085
3335.00,0.0085
3334.00,0.0086
3333.00,0.0085
3332.00,0.0085
3331.00,0.0085
3330.00,0.0085
3329.00,0.0084
3328.00,0.0084
3327.00,0.0084
3326.00,0.0084
3325.00,0.0084
3324.00,0.0084
3323.00,0.0084
3322.00,0.0084
3321.00,0.0084
3320.00,0.0084
3319.00,0.0084
3318.00,0.0084
3317.00,0.0084
3316.00,0.0084
3315.00,0.0083
3314.00,0.0083
3313.00,0.0083
3312.00,0.0082
3311.00,0.0082
3310.00,0.0081
3309.00,0.0080
3308.00,0.0080
3307.00,0.0079
3306.00,0.0079
3305.00,0.0079
3304.00,0.0080
3303.00,0.0081
3302.00,0.0082
3301.00,0.0082
3300.00,0.0082
3299.00,0.0082
3298.00,0.0081
3297.00,0.0080
3296.00,0.0080
3295.00,0.0079
3294.00,0.0079
3293.00,0.0079
3292.00,0.0080
3291.00,0.0080
3290.00,0.0081
3289.00,0.0081
3288.00,0.0081
3287.00,0.0081
3286.00,0.0081
3285.00,0.0081
3284.00,0.0080
3283.00,0.0080
3282.00,0.0080
3281.00,0.0080
3280.00,0.0080
3279.00,0.0080
3278.00,0.0079
3277.00,0.0079
3276.00,0.0079
3275.00,0.0078
3274.00,0.0078
3273.00,0.0078
3272.00,0.0077
3271.00,0.0077
3270.00,0.0077
3269.00,0.0078
3268.00,0.0078
3267.00,0.0078
3266.00,0.0078
3265.00,0.0078
3264.00,0.0078
3263.00,0.0078
3262.00,0.0078
3261.00,0.0077
3260.00,0.0077
3259.00,0.0077
3258.00,0.0076
3257.00,0.0076
3256.00,0.0076
3255.00,0.0076
3254.00,0.0076
3253.00,0.0076
3252.00,0.0076
3251.00,0.0076
3250.00,0.0076
3249.00,0.0075
3248.00,0.0075
3247.00,0.0075
3246.00,0.0074
3245.00,0.0074
3244.00,0.0074
3243.00,0.0075
3242.00,0.0075
3241.00,0.0075
3240.00,0.0075
3239.00,0.0074
3238.00,0.0074
3237.00,0.0074
3236.00,0.0073
3235.00,0.0073
3234.00,0.0072
3233.00,0.0072
3232.00,0.0073
3231.00,0.0073
3230.00,0.0073
3229.00,0.0073
3228.00,0.0072
3227.00,0.0072
3226.00,0.0072
3225.00,0.0072
3224.00,0.0072
3223.00,0.0072
3222.00,0.0072
3221.00,0.0071
3220.00,0.0071
3219.00,0.0071
3218.00,0.0071
3217.00,0.0071
3216.00,0.0071
3215.00,0.0071
3214.00,0.0070
3213.00,0.0070
3212.00,0.0070
3211.00,0.0070
3210.00,0.0069
3209.00,0.0069
3208.00,0.0069
3207.00,0.0069
3206.00,0.0068
3205.00,0.0068
3204.00,0.0068
3203.00,0.0068
3202.00,0.0068
3201.00,0.0067
3200.00,0.0067
3199.00,0.0067
3198.00,0.0067
3197.00,0.0067
3196.00,0.0067
3195.00,0.0067
3194.00,0.0067
3193.00,0.0066
3192.00,0.0066
3191.00,0.0066
3190.00,0.0066
3189.00,0.0066
3188.00,0.0066
3187.00,0.0066
3186.00,0.0066
3185.00,0.0066
3184.00,0.0066
3183.00,0.0065
3182.00,0.0065
3181.00,0.0065
3180.00,0.0065
3179.00,0.0065
3178.00,0.0065
3177.00,0.0064
3176.00,0.0064
3175.00,0.0064
3174.00,0.0064
3173.00,0.0064
3172.00,0.0064
3171.00,0.0064
3170.00,0.0064
3169.00,0.0064
3168.00,0.0064
3167.00,0.0063
3166.00,0.0063
3165.00,0.0063
3164.00,0.0063
3163.00,0.0062
3162.00,0.0062
3161.00,0.0062
3160.00,0.0062
3159.00,0.0061
3158.00,0.0061
3157.00,0.0061
3156.00,0.0061
3155.00,0.0061
3154.00,0.0061
3153.00,0.0061
3152.00,0.0061
3151.00,0.0061
3150.00,0.0061
3149.00,0.0060
3148.00,0.0060
3147.00,0.0060
3146.00,0.0060
3145.00,0.0060
3144.00,0.0060
3143.00,0.0059
3142.00,0.0059
3141.00,0.0059
3140.00,0.0059
3139.00,0.0059
3138.00,0.0059
3137.00,0.0059
3136.00,0.0059
3135.00,0.0058
3134.00,0.0058
3133.00,0.0058
3132.00,0.0058
3131.00,0.0058
3130.00,0.0058
3129.00,0.0058
3128.00,0.0058
3127.00,0.0058
3126.00,0.0058
3125.00,0.0058
3124.00,0.0058
3123.00,0.0057
3122.00,0.0057
3121.00,0.0057
3120.00,0.0057
3119.00,0.0057
3118.00,0.0057
3117.00,0.0057
3116.00,0.0057
3115.00,0.0057
3114.00,0.0057
3113.00,0.0057
3112.00,0.0057
3111.00,0.0057
3110.00,0.0056
3109.00,0.0056
3108.00,0.0056
3107.00,0.0056
3106.00,0.0055
3105.00,0.0055
3104.00,0.0055
3103.00,0.0055
3102.00,0.0055
3101.00,0.0055
3100.00,0.0055
3099.00,0.0055
3098.00,0.0055
3097.00,0.0055
3096.00,0.0054
3095.00,0.0054
3094.00,0.0054
3093.00,0.0054
3092.00,0.0055
3091.00,0.0055
3090.00,0.0054
3089.00,0.0054
3088.00,0.0054
3087.00,0.0054
3086.00,0.0054
3085.00,0.0054
3084.00,0.0054
3083.00,0.0054
3082.00,0.0054
3081.00,0.0054
3080.00,0.0054
3079.00,0.0054
3078.00,0.0054
3077.00,0.0054
3076.00,0.0054
3075.00,0.0054
3074.00,0.0054
3073.00,0.0054
3072.00,0.0054
3071.00,0.0054
3070.00,0.0053
3069.00,0.0053
3068.00,0.0053
3067.00,0.0053
3066.00,0.0052
3065.00,0.0052
3064.00,0.0052
3063.00,0.0052
3062.00,0.0052
3061.00,0.0052
3060.00,0.0052
3059.00,0.0052
3058.00,0.0052
3057.00,0.0052
3056.00,0.0051
3055.00,0.0051
3054.00,0.0051
3053.00,0.0051
3052.00,0.0051
3051.00,0.0051
3050.00,0.0051
3049.00,0.0051
3048.00,0.0051
3047.00,0.0051
3046.00,0.0051
3045.00,0.0051
3044.00,0.0051
3043.00,0.0051
3042.00,0.0051
3041.00,0.0050
3040.00,0.0050
3039.00,0.0050
3038.00,0.0050
3037.00,0.0050
3036.00,0.0050
3035.00,0.0050
3034.00,0.0050
3033.00,0.0050
3032.00,0.0050
3031.00,0.0050
3030.00,0.0050
3029.00,0.0050
3028.00,0.0051
3027.00,0.0051
3026.00,0.0051
3025.00,0.0051
3024.00,0.0051
3023.00,0.0050
3022.00,0.0050
3021.00,0.0051
3020.00,0.0051
3019.00,0.0051
3018.00,0.0052
3017.00,0.0052
3016.00,0.0052
3015.00,0.0053
3014.00,0.0053
3013.00,0.0054
3012.00,0.0054
3011.00,0.0055
3010.00,0.0056
3009.00,0.0057
3008.00,0.0058
3007.00,0.0059
3006.00,0.0060
3005.00,0.0061
3004.00,0.0063
3003.00,0.0065
3002.00,0.0066
3001.00,0.0068
3000.00,0.0071
2999.00,0.0073
2998.00,0.0075
2997.00,0.0078
2996.00,0.0081
2995.00,0.0083
2994.00,0.0086
2993.00,0.0088
2992.00,0.0091
2991.00,0.0094
2990.00,0.0098
2989.00,0.0101
2988.00,0.0104
2987.00,0.0107
2986.00,0.0110
2985.00,0.0112
2984.00,0.0115
2983.00,0.0117
2982.00,0.0120
2981.00,0.0122
2980.00,0.0124
2979.00,0.0126
2978.00,0.0127
2977.00,0.0129
2976.00,0.0130
2975.00,0.0132
2974.00,0.0133
2973.00,0.0135
2972.00,0.0136
2971.00,0.0137
2970.00,0.0138
2969.00,0.0140
2968.00,0.0141
2967.00,0.0143
2966.00,0.0145
2965.00,0.0147
2964.00,0.0149
2963.00,0.0151
2962.00,0.0153
2961.00,0.0155
2960.00,0.0157
2959.00,0.0159
2958.00,0.0160
2957.00,0.0162
2956.00,0.0163
2955.00,0.0165
2954.00,0.0166
2953.00,0.0166
2952.00,0.0167
2951.00,0.0167
2950.00,0.0167
2949.00,0.0167
2948.00,0.0166
2947.00,0.0165
2946.00,0.0165
2945.00,0.0164
2944.00,0.0164
2943.00,0.0163
2942.00,0.0163
2941.00,0.0162
2940.00,0.0162
2939.00,0.0162
2938.00,0.0163
2937.00,0.0164
2936.00,0.0165
2935.00,0.0166
2934.00,0.0167
2933.00,0.0168
2932.00,0.0169
2931.00,0.0170
2930.00,0.0171
2929.00,0.0172
2928.00,0.0173
2927.00,0.0174
2926.00,0.0174
2925.00,0.0174
2924.00,0.0174
2923.00,0.0174
2922.00,0.0174
2921.00,0.0173
2920.00,0.0172
2919.00,0.0170
2918.00,0.0169
2917.00,0.0167
2916.00,0.0165
2915.00,0.0162
2914.00,0.0160
2913.00,0.0157
2912.00,0.0155
2911.00,0.0152
2910.00,0.0149
2909.00,0.0146
2908.00,0.0144
2907.00,0.0142
2906.00,0.0139
2905.00,0.0138
2904.00,0.0136
2903.00,0.0135
2902.00,0.0133
2901.00,0.0132
2900.00,0.0132
2899.00,0.0131
2898.00,0.0131
2897.00,0.0131
2896.00,0.0131
2895.00,0.0131
2894.00,0.0131
2893.00,0.0131
2892.00,0.0131
2891.00,0.0131
2890.00,0.0131
2889.00,0.0130
2888.00,0.0130
2887.00,0.0130
2886.00,0.0130
2885.00,0.0129
2884.00,0.0129
2883.00,0.0129
2882.00,0.0129
2881.00,0.0130
2880.00,0.0130
2879.00,0.0130
2878.00,0.0131
2877.00,0.0131
2876.00,0.0131
2875.00,0.0131
2874.00,0.0131
2873.00,0.0131
2872.00,0.0132
2871.00,0.0132
2870.00,0.0131
2869.00,0.0131
2868.00,0.0130
2867.00,0.0130
2866.00,0.0129
2865.00,0.0129
2864.00,0.0128
2863.00,0.0128
2862.00,0.0127
2861.00,0.0127
2860.00,0.0127
2859.00,0.0126
2858.00,0.0126
2857.00,0.0124
2856.00,0.0123
2855.00,0.0121
2854.00,0.0119
2853.00,0.0116
2852.00,0.0114
2851.00,0.0111
2850.00,0.0108
2849.00,0.0105
2848.00,0.0101
2847.00,0.0099
2846.00,0.0096
2845.00,0.0093
2844.00,0.0090
2843.00,0.0087
2842.00,0.0085
2841.00,0.0082
2840.00,0.0080
2839.00,0.0077
2838.00,0.0076
2837.00,0.0074
2836.00,0.0072
2835.00,0.0071
2834.00,0.0069
2833.00,0.0068
2832.00,0.0066
2831.00,0.0065
2830.00,0.0064
2829.00,0.0062
2828.00,0.0061
2827.00,0.0060
2826.00,0.0059
2825.00,0.0058
2824.00,0.0056
2823.00,0.0055
2822.00,0.0054
2821.00,0.0053
2820.00,0.0052
2819.00,0.0051
2818.00,0.0051
2817.00,0.0050
2816.00,0.0049
2815.00,0.0048
2814.00,0.0048
2813.00,0.0047
2812.00,0.0046
2811.00,0.0046
2810.00,0.0045
2809.00,0.0045
2808.00,0.0044
2807.00,0.0044
2806.00,0.0043
2805.00,0.0043
2804.00,0.0042
2803.00,0.0042
2802.00,0.0041
2801.00,0.0041
2800.00,0.0040
2799.00,0.0040
2798.00,0.0040
2797.00,0.0040
2796.00,0.0039
2795.00,0.0039
2794.00,0.0039
2793.00,0.0039
2792.00,0.0038
2791.00,0.0038
2790.00,0.0038
2789.00,0.0037
2788.00,0.0037
2787.00,0.0037
2786.00,0.0037
2785.00,0.0037
2784.00,0.0037
2783.00,0.0037
2782.00,0.0036
2781.00,0.0036
2780.00,0.0036
2779.00,0.0036
2778.00,0.0035
2777.00,0.0035
2776.00,0.0035
2775.00,0.0035
2774.00,0.0035
2773.00,0.0035
2772.00,0.0034
2771.00,0.0034
2770.00,0.0034
2769.00,0.0034
2768.00,0.0034
2767.00,0.0033
2766.00,0.0033
2765.00,0.0033
2764.00,0.0033
2763.00,0.0033
2762.00,0.0033
2761.00,0.0033
2760.00,0.0033
2759.00,0.0033
2758.00,0.0033
2757.00,0.0033
