Created as New Dataset,Sample 976 By YargerLab Date Wednesday, July 30 2025
cm-1,A
4000.00,0.0011
3999.00,0.0011
3998.00,0.0011
3997.00,0.0011
3996.00,0.0011
3995.00,0.0011
3994.00,0.0011
3993.00,0.0011
3992.00,0.0011
3991.00,0.0011
3990.00,0.0011
3989.00,0.0011
3988.00,0.0011
3987.00,0.0011
3986.00,0.0011
3985.00,0.0011
3984.00,0.0011
3983.00,0.0011
3982.00,0.0011
3981.00,0.0011
3980.00,0.0011
3979.00,0.0011
3978.00,0.0011
3977.00,0.0011
3976.00,0.0011
3975.00,0.0011
3974.00,0.0011
3973.00,0.0011
3972.00,0.0011
3971.00,0.0011
3970.00,0.0011
3969.00,0.0011
3968.00,0.0011
3967.00,0.0011
3966.00,0.0011
3965.00,0.0011
3964.00,0.0011
3963.00,0.0011
3962.00,0.0011
3961.00,0.0011
3960.00,0.0011
3959.00,0.0011
3958.00,0.0011
3957.00,0.0011
3956.00,0.0011
3955.00,0.0011
3954.00,0.0011
3953.00,0.0011
3952.00,0.0011
3951.00,0.0011
3950.00,0.0011
3949.00,0.0011
3948.00,0.0011
3947.00,0.0011
3946.00,0.0011
3945.00,0.0011
3944.00,0.0011
3943.00,0.0011
3942.00,0.0011
3941.00,0.0011
3940.00,0.0011
3939.00,0.0011
3938.00,0.0010
3937.00,0.0010
3936.00,0.0010
3935.00,0.0010
3934.00,0.0010
3933.00,0.0010
3932.00,0.0010
3931.00,0.0010
3930.00,0.0011
3929.00,0.0011
3928.00,0.0011
3927.00,0.0011
3926.00,0.0011
3925.00,0.0011
3924.00,0.0011
3923.00,0.0011
3922.00,0.0010
3921.00,0.0010
3920.00,0.0010
3919.00,0.0011
3918.00,0.0011
3917.00,0.0011
3916.00,0.0010
3915.00,0.0010
3914.00,0.0010
3913.00,0.0010
3912.00,0.0011
3911.00,0.0010
3910.00,0.0010
3909.00,0.0010
3908.00,0.0010
3907.00,0.0010
3906.00,0.0010
3905.00,0.0010
3904.00,0.0010
3903.00,0.0010
3902.00,0.0010
3901.00,0.0010
3900.00,0.0010
3899.00,0.0010
3898.00,0.0011
3897.00,0.0011
3896.00,0.0011
3895.00,0.0011
3894.00,0.0011
3893.00,0.0010
3892.00,0.0010
3891.00,0.0010
3890.00,0.0011
3889.00,0.0011
3888.00,0.0011
3887.00,0.0010
3886.00,0.0010
3885.00,0.0011
3884.00,0.0011
3883.00,0.0011
3882.00,0.0011
3881.00,0.0010
3880.00,0.0011
3879.00,0.0011
3878.00,0.0011
3877.00,0.0010
3876.00,0.0010
3875.00,0.0010
3874.00,0.0011
3873.00,0.0011
3872.00,0.0010
3871.00,0.0010
3870.00,0.0010
3869.00,0.0010
3868.00,0.0010
3867.00,0.0010
3866.00,0.0010
3865.00,0.0010
3864.00,0.0010
3863.00,0.0011
3862.00,0.0011
3861.00,0.0011
3860.00,0.0011
3859.00,0.0011
3858.00,0.0011
3857.00,0.0010
3856.00,0.0010
3855.00,0.0010
3854.00,0.0010
3853.00,0.0010
3852.00,0.0010
3851.00,0.0010
3850.00,0.0010
3849.00,0.0010
3848.00,0.0010
3847.00,0.0010
3846.00,0.0011
3845.00,0.0011
3844.00,0.0011
3843.00,0.0011
3842.00,0.0011
3841.00,0.0010
3840.00,0.0010
3839.00,0.0010
3838.00,0.0010
3837.00,0.0010
3836.00,0.0010
3835.00,0.0010
3834.00,0.0010
3833.00,0.0010
3832.00,0.0010
3831.00,0.0010
3830.00,0.0011
3829.00,0.0011
3828.00,0.0010
3827.00,0.0010
3826.00,0.0010
3825.00,0.0010
3824.00,0.0010
3823.00,0.0010
3822.00,0.0010
3821.00,0.0011
3820.00,0.0011
3819.00,0.0011
3818.00,0.0010
3817.00,0.0010
3816.00,0.0010
3815.00,0.0010
3814.00,0.0010
3813.00,0.0010
3812.00,0.0010
3811.00,0.0010
3810.00,0.0010
3809.00,0.0010
3808.00,0.0010
3807.00,0.0010
3806.00,0.0011
3805.00,0.0011
3804.00,0.0010
3803.00,0.0009
3802.00,0.0009
3801.00,0.0009
3800.00,0.0010
3799.00,0.0010
3798.00,0.0010
3797.00,0.0010
3796.00,0.0011
3795.00,0.0011
3794.00,0.0011
3793.00,0.0011
3792.00,0.0011
3791.00,0.0011
3790.00,0.0011
3789.00,0.0011
3788.00,0.0011
3787.00,0.0011
3786.00,0.0011
3785.00,0.0011
3784.00,0.0011
3783.00,0.0011
3782.00,0.0011
3781.00,0.0011
3780.00,0.0011
3779.00,0.0011
3778.00,0.0011
3777.00,0.0011
3776.00,0.0011
3775.00,0.0011
3774.00,0.0011
3773.00,0.0011
3772.00,0.0011
3771.00,0.0011
3770.00,0.0011
3769.00,0.0011
3768.00,0.0011
3767.00,0.0011
3766.00,0.0011
3765.00,0.0011
3764.00,0.0011
3763.00,0.0011
3762.00,0.0011
3761.00,0.0011
3760.00,0.0011
3759.00,0.0011
3758.00,0.0011
3757.00,0.0011
3756.00,0.0011
3755.00,0.0011
3754.00,0.0011
3753.00,0.0011
3752.00,0.0011
3751.00,0.0010
3750.00,0.0010
3749.00,0.0011
3748.00,0.0011
3747.00,0.0011
3746.00,0.0010
3745.00,0.0010
3744.00,0.0010
3743.00,0.0010
3742.00,0.0010
3741.00,0.0010
3740.00,0.0010
3739.00,0.0010
3738.00,0.0010
3737.00,0.0010
3736.00,0.0010
3735.00,0.0009
3734.00,0.0009
3733.00,0.0009
3732.00,0.0009
3731.00,0.0009
3730.00,0.0009
3729.00,0.0010
3728.00,0.0010
3727.00,0.0010
3726.00,0.0010
3725.00,0.0010
3724.00,0.0010
3723.00,0.0010
3722.00,0.0010
3721.00,0.0010
3720.00,0.0010
3719.00,0.0009
3718.00,0.0009
3717.00,0.0010
3716.00,0.0010
3715.00,0.0010
3714.00,0.0010
3713.00,0.0010
3712.00,0.0011
3711.00,0.0011
3710.00,0.0010
3709.00,0.0010
3708.00,0.0010
3707.00,0.0010
3706.00,0.0010
3705.00,0.0010
3704.00,0.0009
3703.00,0.0009
3702.00,0.0009
3701.00,0.0009
3700.00,0.0009
3699.00,0.0009
3698.00,0.0009
3697.00,0.0009
3696.00,0.0009
3695.00,0.0010
3694.00,0.0010
3693.00,0.0010
3692.00,0.0010
3691.00,0.0011
3690.00,0.0011
3689.00,0.0011
3688.00,0.0011
3687.00,0.0011
3686.00,0.0011
3685.00,0.0011
3684.00,0.0011
3683.00,0.0011
3682.00,0.0012
3681.00,0.0012
3680.00,0.0012
3679.00,0.0012
3678.00,0.0012
3677.00,0.0012
3676.00,0.0012
3675.00,0.0012
3674.00,0.0012
3673.00,0.0012
3672.00,0.0012
3671.00,0.0012
3670.00,0.0012
3669.00,0.0012
3668.00,0.0012
3667.00,0.0012
3666.00,0.0012
3665.00,0.0013
3664.00,0.0013
3663.00,0.0014
3662.00,0.0014
3661.00,0.0014
3660.00,0.0014
3659.00,0.0014
3658.00,0.0014
3657.00,0.0014
3656.00,0.0015
3655.00,0.0015
3654.00,0.0015
3653.00,0.0015
3652.00,0.0015
3651.00,0.0016
3650.00,0.0016
3649.00,0.0016
3648.00,0.0016
3647.00,0.0016
3646.00,0.0016
3645.00,0.0017
3644.00,0.0017
3643.00,0.0017
3642.00,0.0018
3641.00,0.0018
3640.00,0.0018
3639.00,0.0018
3638.00,0.0018
3637.00,0.0018
3636.00,0.0018
3635.00,0.0019
3634.00,0.0019
3633.00,0.0019
3632.00,0.0019
3631.00,0.0019
3630.00,0.0019
3629.00,0.0019
3628.00,0.0019
3627.00,0.0020
3626.00,0.0020
3625.00,0.0020
3624.00,0.0020
3623.00,0.0020
3622.00,0.0020
3621.00,0.0020
3620.00,0.0021
3619.00,0.0021
3618.00,0.0022
3617.00,0.0022
3616.00,0.0023
3615.00,0.0023
3614.00,0.0023
3613.00,0.0024
3612.00,0.0024
3611.00,0.0025
3610.00,0.0025
3609.00,0.0025
3608.00,0.0026
3607.00,0.0026
3606.00,0.0026
3605.00,0.0027
3604.00,0.0027
3603.00,0.0027
3602.00,0.0027
3601.00,0.0028
3600.00,0.0028
3599.00,0.0028
3598.00,0.0029
3597.00,0.0029
3596.00,0.0030
3595.00,0.0030
3594.00,0.0031
3593.00,0.0031
3592.00,0.0031
3591.00,0.0032
3590.00,0.0032
3589.00,0.0032
3588.00,0.0033
3587.00,0.0034
3586.00,0.0034
3585.00,0.0035
3584.00,0.0035
3583.00,0.0036
3582.00,0.0036
3581.00,0.0036
3580.00,0.0037
3579.00,0.0037
3578.00,0.0038
3577.00,0.0038
3576.00,0.0039
3575.00,0.0039
3574.00,0.0040
3573.00,0.0040
3572.00,0.0041
3571.00,0.0042
3570.00,0.0042
3569.00,0.0042
3568.00,0.0043
3567.00,0.0044
3566.00,0.0044
3565.00,0.0045
3564.00,0.0045
3563.00,0.0045
3562.00,0.0045
3561.00,0.0045
3560.00,0.0046
3559.00,0.0046
3558.00,0.0047
3557.00,0.0047
3556.00,0.0047
3555.00,0.0048
3554.00,0.0048
3553.00,0.0049
3552.00,0.0050
3551.00,0.0050
3550.00,0.0050
3549.00,0.0051
3548.00,0.0051
3547.00,0.0052
3546.00,0.0052
3545.00,0.0052
3544.00,0.0053
3543.00,0.0053
3542.00,0.0053
3541.00,0.0053
3540.00,0.0053
3539.00,0.0053
3538.00,0.0054
3537.00,0.0054
3536.00,0.0055
3535.00,0.0056
3534.00,0.0056
3533.00,0.0056
3532.00,0.0056
3531.00,0.0056
3530.00,0.0056
3529.00,0.0057
3528.00,0.0057
3527.00,0.0057
3526.00,0.0057
3525.00,0.0057
3524.00,0.0058
3523.00,0.0058
3522.00,0.0059
3521.00,0.0059
3520.00,0.0059
3519.00,0.0059
3518.00,0.0060
3517.00,0.0060
3516.00,0.0060
3515.00,0.0060
3514.00,0.0061
3513.00,0.0061
3512.00,0.0061
3511.00,0.0061
3510.00,0.0062
3509.00,0.0062
3508.00,0.0062
3507.00,0.0062
3506.00,0.0062
3505.00,0.0063
3504.00,0.0063
3503.00,0.0063
3502.00,0.0063
3501.00,0.0064
3500.00,0.0064
3499.00,0.0064
3498.00,0.0064
3497.00,0.0064
3496.00,0.0064
3495.00,0.0064
3494.00,0.0065
3493.00,0.0065
3492.00,0.0066
3491.00,0.0066
3490.00,0.0066
3489.00,0.0066
3488.00,0.0066
3487.00,0.0066
3486.00,0.0066
3485.00,0.0066
3484.00,0.0067
3483.00,0.0067
3482.00,0.0067
3481.00,0.0068
3480.00,0.0068
3479.00,0.0068
3478.00,0.0069
3477.00,0.0069
3476.00,0.0069
3475.00,0.0069
3474.00,0.0069
3473.00,0.0069
3472.00,0.0069
3471.00,0.0069
3470.00,0.0070
3469.00,0.0070
3468.00,0.0070
3467.00,0.0070
3466.00,0.0070
3465.00,0.0070
3464.00,0.0070
3463.00,0.0070
3462.00,0.0070
3461.00,0.0071
3460.00,0.0071
3459.00,0.0071
3458.00,0.0071
3457.00,0.0071
3456.00,0.0071
3455.00,0.0071
3454.00,0.0071
3453.00,0.0071
3452.00,0.0071
3451.00,0.0071
3450.00,0.0071
3449.00,0.0071
3448.00,0.0071
3447.00,0.0072
3446.00,0.0072
3445.00,0.0072
3444.00,0.0072
3443.00,0.0072
3442.00,0.0072
3441.00,0.0071
3440.00,0.0071
3439.00,0.0071
3438.00,0.0071
3437.00,0.0071
3436.00,0.0071
3435.00,0.0071
3434.00,0.0071
3433.00,0.0071
3432.00,0.0071
3431.00,0.0072
3430.00,0.0072
3429.00,0.0072
3428.00,0.0072
3427.00,0.0072
3426.00,0.0072
3425.00,0.0071
3424.00,0.0071
3423.00,0.0071
3422.00,0.0071
3421.00,0.0071
3420.00,0.0071
3419.00,0.0071
3418.00,0.0071
3417.00,0.0071
3416.00,0.0071
3415.00,0.0071
3414.00,0.0071
3413.00,0.0071
3412.00,0.0070
3411.00,0.0070
3410.00,0.0070
3409.00,0.0070
3408.00,0.0070
3407.00,0.0070
3406.00,0.0070
3405.00,0.0070
3404.00,0.0070
3403.00,0.0070
3402.00,0.0070
3401.00,0.0069
3400.00,0.0069
3399.00,0.0069
3398.00,0.0069
3397.00,0.0070
3396.00,0.0070
3395.00,0.0070
3394.00,0.0069
3393.00,0.0069
3392.00,0.0069
3391.00,0.0069
3390.00,0.0069
3389.00,0.0070
3388.00,0.0070
3387.00,0.0070
3386.00,0.0070
3385.00,0.0070
3384.00,0.0070
3383.00,0.0070
3382.00,0.0070
3381.00,0.0070
3380.00,0.0070
3379.00,0.0069
3378.00,0.0069
3377.00,0.0069
3376.00,0.0069
3375.00,0.0068
3374.00,0.0068
3373.00,0.0068
3372.00,0.0068
3371.00,0.0068
3370.00,0.0067
3369.00,0.0067
3368.00,0.0067
3367.00,0.0067
3366.00,0.0068
3365.00,0.0068
3364.00,0.0068
3363.00,0.0068
3362.00,0.0068
3361.00,0.0068
3360.00,0.0068
3359.00,0.0069
3358.00,0.0069
3357.00,0.0069
3356.00,0.0069
3355.00,0.0069
3354.00,0.0068
3353.00,0.0068
3352.00,0.0067
3351.00,0.0067
3350.00,0.0067
3349.00,0.0067
3348.00,0.0068
3347.00,0.0067
3346.00,0.0067
3345.00,0.0067
3344.00,0.0067
3343.00,0.0067
3342.00,0.0066
3341.00,0.0066
3340.00,0.0066
3339.00,0.0066
3338.00,0.0066
3337.00,0.0066
3336.00,0.0066
3335.00,0.0067
3334.00,0.0067
3333.00,0.0067
3332.00,0.0067
3331.00,0.0067
3330.00,0.0067
3329.00,0.0067
3328.00,0.0066
3327.00,0.0066
3326.00,0.0066
3325.00,0.0066
3324.00,0.0066
3323.00,0.0066
3322.00,0.0067
3321.00,0.0067
3320.00,0.0066
3319.00,0.0066
3318.00,0.0066
3317.00,0.0066
3316.00,0.0066
3315.00,0.0066
3314.00,0.0066
3313.00,0.0066
3312.00,0.0065
3311.00,0.0065
3310.00,0.0064
3309.00,0.0063
3308.00,0.0063
3307.00,0.0062
3306.00,0.0062
3305.00,0.0063
3304.00,0.0064
3303.00,0.0065
3302.00,0.0065
3301.00,0.0065
3300.00,0.0065
3299.00,0.0065
3298.00,0.0064
3297.00,0.0064
3296.00,0.0063
3295.00,0.0063
3294.00,0.0063
3293.00,0.0063
3292.00,0.0063
3291.00,0.0064
3290.00,0.0064
3289.00,0.0065
3288.00,0.0065
3287.00,0.0065
3286.00,0.0064
3285.00,0.0064
3284.00,0.0064
3283.00,0.0064
3282.00,0.0064
3281.00,0.0064
3280.00,0.0064
3279.00,0.0064
3278.00,0.0064
3277.00,0.0063
3276.00,0.0063
3275.00,0.0063
3274.00,0.0063
3273.00,0.0062
3272.00,0.0062
3271.00,0.0062
3270.00,0.0062
3269.00,0.0062
3268.00,0.0062
3267.00,0.0062
3266.00,0.0062
3265.00,0.0062
3264.00,0.0062
3263.00,0.0062
3262.00,0.0062
3261.00,0.0062
3260.00,0.0062
3259.00,0.0062
3258.00,0.0062
3257.00,0.0061
3256.00,0.0061
3255.00,0.0061
3254.00,0.0061
3253.00,0.0061
3252.00,0.0061
3251.00,0.0061
3250.00,0.0060
3249.00,0.0060
3248.00,0.0060
3247.00,0.0060
3246.00,0.0060
3245.00,0.0060
3244.00,0.0060
3243.00,0.0061
3242.00,0.0060
3241.00,0.0060
3240.00,0.0060
3239.00,0.0060
3238.00,0.0060
3237.00,0.0059
3236.00,0.0059
3235.00,0.0059
3234.00,0.0059
3233.00,0.0059
3232.00,0.0059
3231.00,0.0059
3230.00,0.0059
3229.00,0.0059
3228.00,0.0059
3227.00,0.0059
3226.00,0.0058
3225.00,0.0058
3224.00,0.0058
3223.00,0.0058
3222.00,0.0058
3221.00,0.0058
3220.00,0.0058
3219.00,0.0058
3218.00,0.0058
3217.00,0.0057
3216.00,0.0057
3215.00,0.0057
3214.00,0.0058
3213.00,0.0058
3212.00,0.0058
3211.00,0.0057
3210.00,0.0057
3209.00,0.0056
3208.00,0.0056
3207.00,0.0056
3206.00,0.0055
3205.00,0.0055
3204.00,0.0055
3203.00,0.0055
3202.00,0.0055
3201.00,0.0055
3200.00,0.0055
3199.00,0.0055
3198.00,0.0055
3197.00,0.0055
3196.00,0.0054
3195.00,0.0054
3194.00,0.0054
3193.00,0.0054
3192.00,0.0054
3191.00,0.0054
3190.00,0.0054
3189.00,0.0054
3188.00,0.0053
3187.00,0.0053
3186.00,0.0053
3185.00,0.0054
3184.00,0.0054
3183.00,0.0054
3182.00,0.0053
3181.00,0.0053
3180.00,0.0053
3179.00,0.0053
3178.00,0.0053
3177.00,0.0053
3176.00,0.0053
3175.00,0.0053
3174.00,0.0053
3173.00,0.0053
3172.00,0.0053
3171.00,0.0053
3170.00,0.0053
3169.00,0.0053
3168.00,0.0053
3167.00,0.0053
3166.00,0.0053
3165.00,0.0052
3164.00,0.0052
3163.00,0.0052
3162.00,0.0052
3161.00,0.0051
3160.00,0.0051
3159.00,0.0051
3158.00,0.0051
3157.00,0.0051
3156.00,0.0051
3155.00,0.0051
3154.00,0.0051
3153.00,0.0051
3152.00,0.0050
3151.00,0.0050
3150.00,0.0050
3149.00,0.0050
3148.00,0.0050
3147.00,0.0050
3146.00,0.0050
3145.00,0.0050
3144.00,0.0050
3143.00,0.0049
3142.00,0.0049
3141.00,0.0049
3140.00,0.0049
3139.00,0.0049
3138.00,0.0049
3137.00,0.0049
3136.00,0.0049
3135.00,0.0049
3134.00,0.0048
3133.00,0.0048
3132.00,0.0048
3131.00,0.0048
3130.00,0.0048
3129.00,0.0048
3128.00,0.0048
3127.00,0.0048
3126.00,0.0048
3125.00,0.0048
3124.00,0.0048
3123.00,0.0048
3122.00,0.0048
3121.00,0.0048
3120.00,0.0048
3119.00,0.0048
3118.00,0.0048
3117.00,0.0048
3116.00,0.0048
3115.00,0.0048
3114.00,0.0048
3113.00,0.0047
3112.00,0.0047
3111.00,0.0047
3110.00,0.0047
3109.00,0.0047
3108.00,0.0046
3107.00,0.0046
3106.00,0.0046
3105.00,0.0046
3104.00,0.0046
3103.00,0.0046
3102.00,0.0046
3101.00,0.0046
3100.00,0.0046
3099.00,0.0045
3098.00,0.0045
3097.00,0.0045
3096.00,0.0045
3095.00,0.0045
3094.00,0.0045
3093.00,0.0045
3092.00,0.0045
3091.00,0.0045
3090.00,0.0045
3089.00,0.0045
3088.00,0.0045
3087.00,0.0045
3086.00,0.0045
3085.00,0.0045
3084.00,0.0045
3083.00,0.0045
3082.00,0.0046
3081.00,0.0046
3080.00,0.0045
3079.00,0.0045
3078.00,0.0045
3077.00,0.0045
3076.00,0.0045
3075.00,0.0045
3074.00,0.0045
3073.00,0.0045
3072.00,0.0045
3071.00,0.0045
3070.00,0.0045
3069.00,0.0045
3068.00,0.0044
3067.00,0.0044
3066.00,0.0044
3065.00,0.0044
3064.00,0.0044
3063.00,0.0044
3062.00,0.0043
3061.00,0.0043
3060.00,0.0043
3059.00,0.0043
3058.00,0.0043
3057.00,0.0043
3056.00,0.0043
3055.00,0.0043
3054.00,0.0043
3053.00,0.0043
3052.00,0.0042
3051.00,0.0042
3050.00,0.0042
3049.00,0.0042
3048.00,0.0042
3047.00,0.0042
3046.00,0.0042
3045.00,0.0042
3044.00,0.0043
3043.00,0.0043
3042.00,0.0043
3041.00,0.0043
3040.00,0.0042
3039.00,0.0042
3038.00,0.0042
3037.00,0.0042
3036.00,0.0042
3035.00,0.0042
3034.00,0.0042
3033.00,0.0043
3032.00,0.0043
3031.00,0.0042
3030.00,0.0042
3029.00,0.0042
3028.00,0.0042
3027.00,0.0042
3026.00,0.0042
3025.00,0.0042
3024.00,0.0042
3023.00,0.0042
3022.00,0.0042
3021.00,0.0043
3020.00,0.0043
3019.00,0.0043
3018.00,0.0043
3017.00,0.0044
3016.00,0.0044
3015.00,0.0044
3014.00,0.0044
3013.00,0.0045
3012.00,0.0045
3011.00,0.0046
3010.00,0.0047
3009.00,0.0048
3008.00,0.0049
3007.00,0.0050
3006.00,0.0051
3005.00,0.0052
3004.00,0.0054
3003.00,0.0055
3002.00,0.0056
3001.00,0.0058
3000.00,0.0059
2999.00,0.0061
2998.00,0.0063
2997.00,0.0066
2996.00,0.0068
2995.00,0.0070
2994.00,0.0072
2993.00,0.0075
2992.00,0.0077
2991.00,0.0080
2990.00,0.0083
2989.00,0.0086
2988.00,0.0088
2987.00,0.0091
2986.00,0.0093
2985.00,0.0095
2984.00,0.0097
2983.00,0.0099
2982.00,0.0101
2981.00,0.0102
2980.00,0.0104
2979.00,0.0106
2978.00,0.0107
2977.00,0.0108
2976.00,0.0110
2975.00,0.0111
2974.00,0.0112
2973.00,0.0113
2972.00,0.0113
2971.00,0.0115
2970.00,0.0116
2969.00,0.0117
2968.00,0.0118
2967.00,0.0120
2966.00,0.0121
2965.00,0.0123
2964.00,0.0125
2963.00,0.0126
2962.00,0.0128
2961.00,0.0130
2960.00,0.0131
2959.00,0.0133
2958.00,0.0134
2957.00,0.0136
2956.00,0.0137
2955.00,0.0138
2954.00,0.0139
2953.00,0.0139
2952.00,0.0140
2951.00,0.0140
2950.00,0.0140
2949.00,0.0139
2948.00,0.0139
2947.00,0.0138
2946.00,0.0138
2945.00,0.0137
2944.00,0.0137
2943.00,0.0137
2942.00,0.0137
2941.00,0.0137
2940.00,0.0137
2939.00,0.0137
2938.00,0.0137
2937.00,0.0138
2936.00,0.0139
2935.00,0.0139
2934.00,0.0140
2933.00,0.0141
2932.00,0.0141
2931.00,0.0142
2930.00,0.0143
2929.00,0.0144
2928.00,0.0145
2927.00,0.0145
2926.00,0.0145
2925.00,0.0145
2924.00,0.0145
2923.00,0.0145
2922.00,0.0144
2921.00,0.0143
2920.00,0.0142
2919.00,0.0140
2918.00,0.0139
2917.00,0.0137
2916.00,0.0135
2915.00,0.0133
2914.00,0.0131
2913.00,0.0129
2912.00,0.0127
2911.00,0.0125
2910.00,0.0123
2909.00,0.0121
2908.00,0.0119
2907.00,0.0117
2906.00,0.0115
2905.00,0.0114
2904.00,0.0112
2903.00,0.0111
2902.00,0.0110
2901.00,0.0109
2900.00,0.0109
2899.00,0.0109
2898.00,0.0108
2897.00,0.0108
2896.00,0.0108
2895.00,0.0108
2894.00,0.0108
2893.00,0.0108
2892.00,0.0108
2891.00,0.0108
2890.00,0.0108
2889.00,0.0108
2888.00,0.0107
2887.00,0.0107
2886.00,0.0107
2885.00,0.0107
2884.00,0.0107
2883.00,0.0107
2882.00,0.0107
2881.00,0.0108
2880.00,0.0108
2879.00,0.0108
2878.00,0.0109
2877.00,0.0109
2876.00,0.0109
2875.00,0.0109
2874.00,0.0109
2873.00,0.0110
2872.00,0.0110
2871.00,0.0110
2870.00,0.0110
2869.00,0.0110
2868.00,0.0109
2867.00,0.0109
2866.00,0.0108
2865.00,0.0108
2864.00,0.0108
2863.00,0.0107
2862.00,0.0107
2861.00,0.0107
2860.00,0.0106
2859.00,0.0106
2858.00,0.0105
2857.00,0.0104
2856.00,0.0103
2855.00,0.0101
2854.00,0.0099
2853.00,0.0096
2852.00,0.0094
2851.00,0.0091
2850.00,0.0088
2849.00,0.0086
2848.00,0.0083
2847.00,0.0081
2846.00,0.0079
2845.00,0.0077
2844.00,0.0075
2843.00,0.0073
2842.00,0.0071
2841.00,0.0069
2840.00,0.0068
2839.00,0.0066
2838.00,0.0065
2837.00,0.0064
2836.00,0.0062
2835.00,0.0061
2834.00,0.0060
2833.00,0.0059
2832.00,0.0058
2831.00,0.0057
2830.00,0.0056
2829.00,0.0055
2828.00,0.0054
2827.00,0.0053
2826.00,0.0052
2825.00,0.0051
2824.00,0.0050
2823.00,0.0049
2822.00,0.0048
2821.00,0.0047
2820.00,0.0047
2819.00,0.0046
2818.00,0.0045
2817.00,0.0044
2816.00,0.0044
2815.00,0.0043
2814.00,0.0043
2813.00,0.0042
2812.00,0.0041
2811.00,0.0040
2810.00,0.0040
2809.00,0.0039
2808.00,0.0039
2807.00,0.0039
2806.00,0.0038
2805.00,0.0038
2804.00,0.0037
2803.00,0.0037
2802.00,0.0036
2801.00,0.0036
2800.00,0.0036
2799.00,0.0035
2798.00,0.0035
2797.00,0.0035
2796.00,0.0035
2795.00,0.0034
2794.00,0.0034
2793.00,0.0034
2792.00,0.0034
2791.00,0.0033
2790.00,0.0033
2789.00,0.0033
2788.00,0.0033
2787.00,0.0033
2786.00,0.0032
2785.00,0.0032
2784.00,0.0032
2783.00,0.0032
2782.00,0.0032
2781.00,0.0031
2780.00,0.0031
2779.00,0.0031
2778.00,0.0031
2777.00,0.0030
2776.00,0.0030
2775.00,0.0030
2774.00,0.0030
2773.00,0.0030
2772.00,0.0030
2771.00,0.0030
2770.00,0.0030
2769.00,0.0030
2768.00,0.0029
2767.00,0.0029
2766.00,0.0029
2765.00,0.0029
2764.00,0.0029
2763.00,0.0029
2762.00,0.0029
2761.00,0.0029
2760.00,0.0029
2759.00,0.0029
2758.00,0.0028
2757.00,0.0028
