Created as New Dataset,Sample 937 By YargerLab Date Monday, July 28 2025
cm-1,A
4000.00,0.0043
3999.00,0.0043
3998.00,0.0043
3997.00,0.0043
3996.00,0.0043
3995.00,0.0043
3994.00,0.0043
3993.00,0.0043
3992.00,0.0043
3991.00,0.0043
3990.00,0.0043
3989.00,0.0043
3988.00,0.0043
3987.00,0.0043
3986.00,0.0043
3985.00,0.0043
3984.00,0.0043
3983.00,0.0043
3982.00,0.0043
3981.00,0.0043
3980.00,0.0043
3979.00,0.0043
3978.00,0.0043
3977.00,0.0042
3976.00,0.0042
3975.00,0.0042
3974.00,0.0042
3973.00,0.0043
3972.00,0.0043
3971.00,0.0043
3970.00,0.0043
3969.00,0.0043
3968.00,0.0043
3967.00,0.0043
3966.00,0.0043
3965.00,0.0043
3964.00,0.0043
3963.00,0.0043
3962.00,0.0043
3961.00,0.0043
3960.00,0.0043
3959.00,0.0043
3958.00,0.0043
3957.00,0.0042
3956.00,0.0042
3955.00,0.0042
3954.00,0.0042
3953.00,0.0042
3952.00,0.0042
3951.00,0.0042
3950.00,0.0042
3949.00,0.0042
3948.00,0.0042
3947.00,0.0042
3946.00,0.0042
3945.00,0.0042
3944.00,0.0043
3943.00,0.0043
3942.00,0.0043
3941.00,0.0043
3940.00,0.0043
3939.00,0.0043
3938.00,0.0043
3937.00,0.0042
3936.00,0.0042
3935.00,0.0042
3934.00,0.0042
3933.00,0.0042
3932.00,0.0042
3931.00,0.0042
3930.00,0.0042
3929.00,0.0042
3928.00,0.0042
3927.00,0.0042
3926.00,0.0042
3925.00,0.0042
3924.00,0.0042
3923.00,0.0042
3922.00,0.0042
3921.00,0.0042
3920.00,0.0042
3919.00,0.0042
3918.00,0.0042
3917.00,0.0042
3916.00,0.0042
3915.00,0.0042
3914.00,0.0042
3913.00,0.0042
3912.00,0.0043
3911.00,0.0043
3910.00,0.0043
3909.00,0.0043
3908.00,0.0043
3907.00,0.0042
3906.00,0.0042
3905.00,0.0042
3904.00,0.0041
3903.00,0.0041
3902.00,0.0041
3901.00,0.0041
3900.00,0.0041
3899.00,0.0041
3898.00,0.0042
3897.00,0.0042
3896.00,0.0042
3895.00,0.0042
3894.00,0.0042
3893.00,0.0042
3892.00,0.0042
3891.00,0.0041
3890.00,0.0041
3889.00,0.0041
3888.00,0.0041
3887.00,0.0041
3886.00,0.0041
3885.00,0.0041
3884.00,0.0041
3883.00,0.0041
3882.00,0.0041
3881.00,0.0041
3880.00,0.0041
3879.00,0.0041
3878.00,0.0041
3877.00,0.0041
3876.00,0.0041
3875.00,0.0042
3874.00,0.0042
3873.00,0.0041
3872.00,0.0041
3871.00,0.0040
3870.00,0.0040
3869.00,0.0040
3868.00,0.0041
3867.00,0.0041
3866.00,0.0041
3865.00,0.0041
3864.00,0.0041
3863.00,0.0041
3862.00,0.0041
3861.00,0.0041
3860.00,0.0041
3859.00,0.0041
3858.00,0.0041
3857.00,0.0041
3856.00,0.0041
3855.00,0.0040
3854.00,0.0040
3853.00,0.0040
3852.00,0.0040
3851.00,0.0040
3850.00,0.0040
3849.00,0.0040
3848.00,0.0041
3847.00,0.0041
3846.00,0.0041
3845.00,0.0041
3844.00,0.0041
3843.00,0.0041
3842.00,0.0041
3841.00,0.0041
3840.00,0.0041
3839.00,0.0041
3838.00,0.0041
3837.00,0.0041
3836.00,0.0041
3835.00,0.0041
3834.00,0.0041
3833.00,0.0041
3832.00,0.0041
3831.00,0.0042
3830.00,0.0042
3829.00,0.0042
3828.00,0.0042
3827.00,0.0042
3826.00,0.0042
3825.00,0.0041
3824.00,0.0041
3823.00,0.0041
3822.00,0.0041
3821.00,0.0041
3820.00,0.0041
3819.00,0.0041
3818.00,0.0040
3817.00,0.0040
3816.00,0.0041
3815.00,0.0041
3814.00,0.0041
3813.00,0.0042
3812.00,0.0042
3811.00,0.0042
3810.00,0.0042
3809.00,0.0041
3808.00,0.0041
3807.00,0.0041
3806.00,0.0040
3805.00,0.0040
3804.00,0.0040
3803.00,0.0040
3802.00,0.0040
3801.00,0.0041
3800.00,0.0041
3799.00,0.0041
3798.00,0.0041
3797.00,0.0041
3796.00,0.0041
3795.00,0.0042
3794.00,0.0042
3793.00,0.0042
3792.00,0.0042
3791.00,0.0042
3790.00,0.0043
3789.00,0.0043
3788.00,0.0043
3787.00,0.0043
3786.00,0.0043
3785.00,0.0043
3784.00,0.0042
3783.00,0.0042
3782.00,0.0042
3781.00,0.0042
3780.00,0.0042
3779.00,0.0042
3778.00,0.0042
3777.00,0.0042
3776.00,0.0042
3775.00,0.0042
3774.00,0.0042
3773.00,0.0042
3772.00,0.0042
3771.00,0.0042
3770.00,0.0042
3769.00,0.0042
3768.00,0.0042
3767.00,0.0042
3766.00,0.0042
3765.00,0.0041
3764.00,0.0041
3763.00,0.0041
3762.00,0.0041
3761.00,0.0041
3760.00,0.0041
3759.00,0.0041
3758.00,0.0041
3757.00,0.0041
3756.00,0.0041
3755.00,0.0041
3754.00,0.0040
3753.00,0.0040
3752.00,0.0040
3751.00,0.0039
3750.00,0.0039
3749.00,0.0039
3748.00,0.0039
3747.00,0.0039
3746.00,0.0039
3745.00,0.0039
3744.00,0.0039
3743.00,0.0040
3742.00,0.0040
3741.00,0.0039
3740.00,0.0039
3739.00,0.0039
3738.00,0.0039
3737.00,0.0039
3736.00,0.0039
3735.00,0.0039
3734.00,0.0039
3733.00,0.0039
3732.00,0.0039
3731.00,0.0039
3730.00,0.0039
3729.00,0.0039
3728.00,0.0040
3727.00,0.0040
3726.00,0.0040
3725.00,0.0041
3724.00,0.0041
3723.00,0.0041
3722.00,0.0041
3721.00,0.0041
3720.00,0.0041
3719.00,0.0041
3718.00,0.0041
3717.00,0.0041
3716.00,0.0040
3715.00,0.0040
3714.00,0.0040
3713.00,0.0040
3712.00,0.0040
3711.00,0.0040
3710.00,0.0040
3709.00,0.0040
3708.00,0.0040
3707.00,0.0040
3706.00,0.0040
3705.00,0.0040
3704.00,0.0040
3703.00,0.0040
3702.00,0.0040
3701.00,0.0040
3700.00,0.0040
3699.00,0.0040
3698.00,0.0040
3697.00,0.0040
3696.00,0.0040
3695.00,0.0040
3694.00,0.0040
3693.00,0.0040
3692.00,0.0040
3691.00,0.0040
3690.00,0.0040
3689.00,0.0041
3688.00,0.0041
3687.00,0.0041
3686.00,0.0041
3685.00,0.0042
3684.00,0.0042
3683.00,0.0043
3682.00,0.0043
3681.00,0.0043
3680.00,0.0043
3679.00,0.0042
3678.00,0.0042
3677.00,0.0041
3676.00,0.0041
3675.00,0.0041
3674.00,0.0041
3673.00,0.0042
3672.00,0.0042
3671.00,0.0042
3670.00,0.0043
3669.00,0.0043
3668.00,0.0044
3667.00,0.0044
3666.00,0.0044
3665.00,0.0044
3664.00,0.0045
3663.00,0.0045
3662.00,0.0045
3661.00,0.0045
3660.00,0.0045
3659.00,0.0045
3658.00,0.0044
3657.00,0.0045
3656.00,0.0045
3655.00,0.0045
3654.00,0.0045
3653.00,0.0045
3652.00,0.0045
3651.00,0.0045
3650.00,0.0045
3649.00,0.0045
3648.00,0.0046
3647.00,0.0046
3646.00,0.0047
3645.00,0.0047
3644.00,0.0048
3643.00,0.0048
3642.00,0.0049
3641.00,0.0049
3640.00,0.0050
3639.00,0.0050
3638.00,0.0050
3637.00,0.0050
3636.00,0.0051
3635.00,0.0051
3634.00,0.0051
3633.00,0.0051
3632.00,0.0051
3631.00,0.0051
3630.00,0.0051
3629.00,0.0052
3628.00,0.0053
3627.00,0.0054
3626.00,0.0054
3625.00,0.0055
3624.00,0.0055
3623.00,0.0055
3622.00,0.0056
3621.00,0.0056
3620.00,0.0057
3619.00,0.0058
3618.00,0.0058
3617.00,0.0058
3616.00,0.0059
3615.00,0.0059
3614.00,0.0060
3613.00,0.0060
3612.00,0.0061
3611.00,0.0062
3610.00,0.0062
3609.00,0.0063
3608.00,0.0064
3607.00,0.0065
3606.00,0.0065
3605.00,0.0066
3604.00,0.0067
3603.00,0.0067
3602.00,0.0068
3601.00,0.0069
3600.00,0.0069
3599.00,0.0070
3598.00,0.0070
3597.00,0.0071
3596.00,0.0071
3595.00,0.0072
3594.00,0.0073
3593.00,0.0074
3592.00,0.0075
3591.00,0.0076
3590.00,0.0076
3589.00,0.0077
3588.00,0.0078
3587.00,0.0080
3586.00,0.0081
3585.00,0.0082
3584.00,0.0082
3583.00,0.0083
3582.00,0.0084
3581.00,0.0085
3580.00,0.0086
3579.00,0.0087
3578.00,0.0088
3577.00,0.0088
3576.00,0.0089
3575.00,0.0090
3574.00,0.0091
3573.00,0.0092
3572.00,0.0093
3571.00,0.0093
3570.00,0.0094
3569.00,0.0095
3568.00,0.0095
3567.00,0.0096
3566.00,0.0097
3565.00,0.0098
3564.00,0.0099
3563.00,0.0100
3562.00,0.0101
3561.00,0.0102
3560.00,0.0103
3559.00,0.0104
3558.00,0.0105
3557.00,0.0106
3556.00,0.0107
3555.00,0.0108
3554.00,0.0108
3553.00,0.0109
3552.00,0.0110
3551.00,0.0110
3550.00,0.0111
3549.00,0.0111
3548.00,0.0112
3547.00,0.0113
3546.00,0.0114
3545.00,0.0115
3544.00,0.0115
3543.00,0.0116
3542.00,0.0116
3541.00,0.0116
3540.00,0.0117
3539.00,0.0118
3538.00,0.0118
3537.00,0.0118
3536.00,0.0119
3535.00,0.0119
3534.00,0.0119
3533.00,0.0120
3532.00,0.0120
3531.00,0.0120
3530.00,0.0121
3529.00,0.0121
3528.00,0.0122
3527.00,0.0122
3526.00,0.0122
3525.00,0.0122
3524.00,0.0122
3523.00,0.0123
3522.00,0.0123
3521.00,0.0123
3520.00,0.0123
3519.00,0.0123
3518.00,0.0124
3517.00,0.0124
3516.00,0.0124
3515.00,0.0124
3514.00,0.0125
3513.00,0.0125
3512.00,0.0125
3511.00,0.0125
3510.00,0.0125
3509.00,0.0125
3508.00,0.0125
3507.00,0.0125
3506.00,0.0125
3505.00,0.0125
3504.00,0.0125
3503.00,0.0125
3502.00,0.0126
3501.00,0.0126
3500.00,0.0126
3499.00,0.0126
3498.00,0.0126
3497.00,0.0126
3496.00,0.0127
3495.00,0.0127
3494.00,0.0127
3493.00,0.0126
3492.00,0.0126
3491.00,0.0126
3490.00,0.0127
3489.00,0.0127
3488.00,0.0127
3487.00,0.0127
3486.00,0.0128
3485.00,0.0128
3484.00,0.0128
3483.00,0.0128
3482.00,0.0128
3481.00,0.0128
3480.00,0.0128
3479.00,0.0127
3478.00,0.0128
3477.00,0.0128
3476.00,0.0128
3475.00,0.0128
3474.00,0.0128
3473.00,0.0128
3472.00,0.0129
3471.00,0.0129
3470.00,0.0129
3469.00,0.0129
3468.00,0.0129
3467.00,0.0129
3466.00,0.0129
3465.00,0.0129
3464.00,0.0129
3463.00,0.0128
3462.00,0.0128
3461.00,0.0128
3460.00,0.0128
3459.00,0.0128
3458.00,0.0128
3457.00,0.0128
3456.00,0.0128
3455.00,0.0128
3454.00,0.0128
3453.00,0.0128
3452.00,0.0128
3451.00,0.0127
3450.00,0.0127
3449.00,0.0127
3448.00,0.0127
3447.00,0.0127
3446.00,0.0127
3445.00,0.0127
3444.00,0.0127
3443.00,0.0127
3442.00,0.0126
3441.00,0.0126
3440.00,0.0126
3439.00,0.0125
3438.00,0.0125
3437.00,0.0125
3436.00,0.0125
3435.00,0.0124
3434.00,0.0124
3433.00,0.0124
3432.00,0.0124
3431.00,0.0123
3430.00,0.0123
3429.00,0.0123
3428.00,0.0123
3427.00,0.0122
3426.00,0.0122
3425.00,0.0121
3424.00,0.0121
3423.00,0.0120
3422.00,0.0120
3421.00,0.0120
3420.00,0.0119
3419.00,0.0119
3418.00,0.0119
3417.00,0.0119
3416.00,0.0118
3415.00,0.0118
3414.00,0.0117
3413.00,0.0117
3412.00,0.0116
3411.00,0.0116
3410.00,0.0116
3409.00,0.0115
3408.00,0.0115
3407.00,0.0115
3406.00,0.0114
3405.00,0.0114
3404.00,0.0113
3403.00,0.0113
3402.00,0.0112
3401.00,0.0111
3400.00,0.0111
3399.00,0.0111
3398.00,0.0111
3397.00,0.0110
3396.00,0.0110
3395.00,0.0110
3394.00,0.0109
3393.00,0.0108
3392.00,0.0108
3391.00,0.0108
3390.00,0.0108
3389.00,0.0108
3388.00,0.0108
3387.00,0.0108
3386.00,0.0107
3385.00,0.0107
3384.00,0.0107
3383.00,0.0106
3382.00,0.0106
3381.00,0.0105
3380.00,0.0105
3379.00,0.0104
3378.00,0.0104
3377.00,0.0104
3376.00,0.0103
3375.00,0.0103
3374.00,0.0103
3373.00,0.0102
3372.00,0.0101
3371.00,0.0100
3370.00,0.0099
3369.00,0.0099
3368.00,0.0099
3367.00,0.0099
3366.00,0.0100
3365.00,0.0100
3364.00,0.0100
3363.00,0.0100
3362.00,0.0100
3361.00,0.0100
3360.00,0.0100
3359.00,0.0101
3358.00,0.0101
3357.00,0.0101
3356.00,0.0100
3355.00,0.0100
3354.00,0.0099
3353.00,0.0099
3352.00,0.0098
3351.00,0.0097
3350.00,0.0097
3349.00,0.0097
3348.00,0.0098
3347.00,0.0098
3346.00,0.0098
3345.00,0.0098
3344.00,0.0097
3343.00,0.0097
3342.00,0.0097
3341.00,0.0096
3340.00,0.0095
3339.00,0.0095
3338.00,0.0095
3337.00,0.0095
3336.00,0.0096
3335.00,0.0097
3334.00,0.0097
3333.00,0.0097
3332.00,0.0097
3331.00,0.0096
3330.00,0.0096
3329.00,0.0095
3328.00,0.0094
3327.00,0.0093
3326.00,0.0092
3325.00,0.0092
3324.00,0.0093
3323.00,0.0093
3322.00,0.0094
3321.00,0.0094
3320.00,0.0094
3319.00,0.0094
3318.00,0.0094
3317.00,0.0093
3316.00,0.0093
3315.00,0.0092
3314.00,0.0092
3313.00,0.0091
3312.00,0.0090
3311.00,0.0088
3310.00,0.0087
3309.00,0.0085
3308.00,0.0084
3307.00,0.0083
3306.00,0.0083
3305.00,0.0084
3304.00,0.0085
3303.00,0.0086
3302.00,0.0087
3301.00,0.0088
3300.00,0.0087
3299.00,0.0087
3298.00,0.0086
3297.00,0.0085
3296.00,0.0084
3295.00,0.0083
3294.00,0.0083
3293.00,0.0082
3292.00,0.0083
3291.00,0.0083
3290.00,0.0084
3289.00,0.0084
3288.00,0.0084
3287.00,0.0084
3286.00,0.0084
3285.00,0.0083
3284.00,0.0083
3283.00,0.0082
3282.00,0.0082
3281.00,0.0082
3280.00,0.0082
3279.00,0.0081
3278.00,0.0080
3277.00,0.0080
3276.00,0.0079
3275.00,0.0078
3274.00,0.0077
3273.00,0.0077
3272.00,0.0076
3271.00,0.0076
3270.00,0.0076
3269.00,0.0076
3268.00,0.0076
3267.00,0.0077
3266.00,0.0076
3265.00,0.0076
3264.00,0.0075
3263.00,0.0075
3262.00,0.0075
3261.00,0.0075
3260.00,0.0075
3259.00,0.0074
3258.00,0.0074
3257.00,0.0074
3256.00,0.0073
3255.00,0.0073
3254.00,0.0072
3253.00,0.0072
3252.00,0.0072
3251.00,0.0071
3250.00,0.0071
3249.00,0.0070
3248.00,0.0070
3247.00,0.0069
3246.00,0.0069
3245.00,0.0069
3244.00,0.0069
3243.00,0.0069
3242.00,0.0069
3241.00,0.0069
3240.00,0.0069
3239.00,0.0069
3238.00,0.0068
3237.00,0.0067
3236.00,0.0067
3235.00,0.0066
3234.00,0.0066
3233.00,0.0065
3232.00,0.0066
3231.00,0.0066
3230.00,0.0066
3229.00,0.0066
3228.00,0.0066
3227.00,0.0065
3226.00,0.0065
3225.00,0.0065
3224.00,0.0065
3223.00,0.0064
3222.00,0.0064
3221.00,0.0064
3220.00,0.0063
3219.00,0.0063
3218.00,0.0062
3217.00,0.0062
3216.00,0.0062
3215.00,0.0062
3214.00,0.0062
3213.00,0.0062
3212.00,0.0062
3211.00,0.0062
3210.00,0.0061
3209.00,0.0061
3208.00,0.0061
3207.00,0.0060
3206.00,0.0060
3205.00,0.0059
3204.00,0.0059
3203.00,0.0059
3202.00,0.0059
3201.00,0.0059
3200.00,0.0059
3199.00,0.0059
3198.00,0.0059
3197.00,0.0059
3196.00,0.0059
3195.00,0.0058
3194.00,0.0058
3193.00,0.0057
3192.00,0.0057
3191.00,0.0057
3190.00,0.0057
3189.00,0.0056
3188.00,0.0056
3187.00,0.0056
3186.00,0.0056
3185.00,0.0056
3184.00,0.0056
3183.00,0.0056
3182.00,0.0056
3181.00,0.0056
3180.00,0.0056
3179.00,0.0056
3178.00,0.0056
3177.00,0.0055
3176.00,0.0055
3175.00,0.0055
3174.00,0.0055
3173.00,0.0055
3172.00,0.0055
3171.00,0.0055
3170.00,0.0055
3169.00,0.0055
3168.00,0.0055
3167.00,0.0054
3166.00,0.0054
3165.00,0.0054
3164.00,0.0054
3163.00,0.0054
3162.00,0.0054
3161.00,0.0054
3160.00,0.0054
3159.00,0.0054
3158.00,0.0054
3157.00,0.0053
3156.00,0.0053
3155.00,0.0053
3154.00,0.0053
3153.00,0.0053
3152.00,0.0053
3151.00,0.0053
3150.00,0.0053
3149.00,0.0053
3148.00,0.0053
3147.00,0.0052
3146.00,0.0052
3145.00,0.0052
3144.00,0.0052
3143.00,0.0052
3142.00,0.0052
3141.00,0.0052
3140.00,0.0052
3139.00,0.0051
3138.00,0.0051
3137.00,0.0051
3136.00,0.0051
3135.00,0.0051
3134.00,0.0051
3133.00,0.0051
3132.00,0.0051
3131.00,0.0051
3130.00,0.0051
3129.00,0.0051
3128.00,0.0051
3127.00,0.0051
3126.00,0.0051
3125.00,0.0051
3124.00,0.0051
3123.00,0.0051
3122.00,0.0051
3121.00,0.0051
3120.00,0.0051
3119.00,0.0051
3118.00,0.0051
3117.00,0.0051
3116.00,0.0051
3115.00,0.0051
3114.00,0.0051
3113.00,0.0051
3112.00,0.0051
3111.00,0.0051
3110.00,0.0050
3109.00,0.0050
3108.00,0.0050
3107.00,0.0050
3106.00,0.0050
3105.00,0.0051
3104.00,0.0051
3103.00,0.0051
3102.00,0.0051
3101.00,0.0051
3100.00,0.0051
3099.00,0.0050
3098.00,0.0050
3097.00,0.0050
3096.00,0.0050
3095.00,0.0050
3094.00,0.0050
3093.00,0.0050
3092.00,0.0050
3091.00,0.0050
3090.00,0.0050
3089.00,0.0050
3088.00,0.0050
3087.00,0.0050
3086.00,0.0050
3085.00,0.0050
3084.00,0.0050
3083.00,0.0050
3082.00,0.0050
3081.00,0.0050
3080.00,0.0050
3079.00,0.0050
3078.00,0.0050
3077.00,0.0050
3076.00,0.0050
3075.00,0.0050
3074.00,0.0050
3073.00,0.0050
3072.00,0.0050
3071.00,0.0050
3070.00,0.0050
3069.00,0.0050
3068.00,0.0050
3067.00,0.0050
3066.00,0.0050
3065.00,0.0050
3064.00,0.0050
3063.00,0.0050
3062.00,0.0050
3061.00,0.0050
3060.00,0.0050
3059.00,0.0050
3058.00,0.0050
3057.00,0.0050
3056.00,0.0050
3055.00,0.0050
3054.00,0.0050
3053.00,0.0050
3052.00,0.0050
3051.00,0.0050
3050.00,0.0050
3049.00,0.0050
3048.00,0.0050
3047.00,0.0049
3046.00,0.0049
3045.00,0.0050
3044.00,0.0050
3043.00,0.0050
3042.00,0.0050
3041.00,0.0050
3040.00,0.0050
3039.00,0.0051
3038.00,0.0051
3037.00,0.0051
3036.00,0.0051
3035.00,0.0051
3034.00,0.0051
3033.00,0.0051
3032.00,0.0051
3031.00,0.0051
3030.00,0.0051
3029.00,0.0052
3028.00,0.0052
3027.00,0.0053
3026.00,0.0053
3025.00,0.0053
3024.00,0.0053
3023.00,0.0054
3022.00,0.0054
3021.00,0.0054
3020.00,0.0055
3019.00,0.0056
3018.00,0.0056
3017.00,0.0057
3016.00,0.0057
3015.00,0.0058
3014.00,0.0059
3013.00,0.0060
3012.00,0.0061
3011.00,0.0062
3010.00,0.0064
3009.00,0.0065
3008.00,0.0067
3007.00,0.0069
3006.00,0.0071
3005.00,0.0073
3004.00,0.0074
3003.00,0.0077
3002.00,0.0079
3001.00,0.0081
3000.00,0.0084
2999.00,0.0086
2998.00,0.0089
2997.00,0.0092
2996.00,0.0094
2995.00,0.0097
2994.00,0.0100
2993.00,0.0103
2992.00,0.0107
2991.00,0.0110
2990.00,0.0114
2989.00,0.0117
2988.00,0.0120
2987.00,0.0124
2986.00,0.0127
2985.00,0.0129
2984.00,0.0132
2983.00,0.0135
2982.00,0.0138
2981.00,0.0140
2980.00,0.0142
2979.00,0.0145
2978.00,0.0147
2977.00,0.0149
2976.00,0.0151
2975.00,0.0153
2974.00,0.0155
2973.00,0.0157
2972.00,0.0158
2971.00,0.0160
2970.00,0.0162
2969.00,0.0163
2968.00,0.0164
2967.00,0.0166
2966.00,0.0167
2965.00,0.0169
2964.00,0.0170
2963.00,0.0172
2962.00,0.0173
2961.00,0.0175
2960.00,0.0177
2959.00,0.0179
2958.00,0.0180
2957.00,0.0182
2956.00,0.0184
2955.00,0.0185
2954.00,0.0186
2953.00,0.0187
2952.00,0.0188
2951.00,0.0189
2950.00,0.0189
2949.00,0.0190
2948.00,0.0189
2947.00,0.0189
2946.00,0.0188
2945.00,0.0187
2944.00,0.0186
2943.00,0.0185
2942.00,0.0183
2941.00,0.0182
2940.00,0.0181
2939.00,0.0180
2938.00,0.0179
2937.00,0.0178
2936.00,0.0177
2935.00,0.0177
2934.00,0.0176
2933.00,0.0176
2932.00,0.0175
2931.00,0.0175
2930.00,0.0176
2929.00,0.0176
2928.00,0.0177
2927.00,0.0178
2926.00,0.0179
2925.00,0.0180
2924.00,0.0181
2923.00,0.0181
2922.00,0.0182
2921.00,0.0182
2920.00,0.0182
2919.00,0.0181
2918.00,0.0181
2917.00,0.0180
2916.00,0.0179
2915.00,0.0178
2914.00,0.0176
2913.00,0.0175
2912.00,0.0173
2911.00,0.0171
2910.00,0.0169
2909.00,0.0168
2908.00,0.0166
2907.00,0.0164
2906.00,0.0162
2905.00,0.0160
2904.00,0.0159
2903.00,0.0159
2902.00,0.0158
2901.00,0.0158
2900.00,0.0158
2899.00,0.0158
2898.00,0.0158
2897.00,0.0159
2896.00,0.0159
2895.00,0.0160
2894.00,0.0160
2893.00,0.0161
2892.00,0.0162
2891.00,0.0162
2890.00,0.0162
2889.00,0.0163
2888.00,0.0163
2887.00,0.0164
2886.00,0.0164
2885.00,0.0164
2884.00,0.0165
2883.00,0.0165
2882.00,0.0165
2881.00,0.0165
2880.00,0.0165
2879.00,0.0164
2878.00,0.0164
2877.00,0.0163
2876.00,0.0162
2875.00,0.0161
2874.00,0.0160
2873.00,0.0159
2872.00,0.0158
2871.00,0.0157
2870.00,0.0156
2869.00,0.0155
2868.00,0.0154
2867.00,0.0153
2866.00,0.0152
2865.00,0.0151
2864.00,0.0149
2863.00,0.0148
2862.00,0.0146
2861.00,0.0144
2860.00,0.0143
2859.00,0.0141
2858.00,0.0140
2857.00,0.0138
2856.00,0.0136
2855.00,0.0135
2854.00,0.0133
2853.00,0.0131
2852.00,0.0129
2851.00,0.0126
2850.00,0.0124
2849.00,0.0121
2848.00,0.0119
2847.00,0.0117
2846.00,0.0116
2845.00,0.0114
2844.00,0.0113
2843.00,0.0111
2842.00,0.0109
2841.00,0.0107
2840.00,0.0105
2839.00,0.0103
2838.00,0.0102
2837.00,0.0100
2836.00,0.0099
2835.00,0.0098
2834.00,0.0096
2833.00,0.0095
2832.00,0.0093
2831.00,0.0091
2830.00,0.0089
2829.00,0.0088
2828.00,0.0086
2827.00,0.0084
2826.00,0.0082
2825.00,0.0081
2824.00,0.0079
2823.00,0.0078
2822.00,0.0076
2821.00,0.0075
2820.00,0.0074
2819.00,0.0073
2818.00,0.0072
2817.00,0.0071
2816.00,0.0070
2815.00,0.0069
2814.00,0.0068
2813.00,0.0067
2812.00,0.0066
2811.00,0.0066
2810.00,0.0065
2809.00,0.0065
2808.00,0.0065
2807.00,0.0064
2806.00,0.0064
2805.00,0.0064
2804.00,0.0063
2803.00,0.0063
2802.00,0.0062
2801.00,0.0062
2800.00,0.0061
2799.00,0.0061
2798.00,0.0061
2797.00,0.0061
2796.00,0.0061
2795.00,0.0061
2794.00,0.0061
2793.00,0.0060
2792.00,0.0060
2791.00,0.0059
2790.00,0.0059
2789.00,0.0059
2788.00,0.0059
2787.00,0.0059
2786.00,0.0059
2785.00,0.0058
2784.00,0.0058
2783.00,0.0058
2782.00,0.0058
2781.00,0.0058
2780.00,0.0058
2779.00,0.0057
2778.00,0.0057
2777.00,0.0057
2776.00,0.0057
2775.00,0.0057
2774.00,0.0057
2773.00,0.0057
2772.00,0.0056
2771.00,0.0056
2770.00,0.0056
2769.00,0.0055
2768.00,0.0055
2767.00,0.0055
2766.00,0.0055
2765.00,0.0055
2764.00,0.0055
2763.00,0.0055
2762.00,0.0055
2761.00,0.0054
2760.00,0.0054
2759.00,0.0054
2758.00,0.0054
2757.00,0.0054
