Created as New Dataset,Sample 1029 By YargerLab Date Friday, August 01 2025
cm-1,A
4000.00,0.0003
3999.00,0.0002
3998.00,0.0002
3997.00,0.0002
3996.00,0.0002
3995.00,0.0002
3994.00,0.0002
3993.00,0.0002
3992.00,0.0002
3991.00,0.0002
3990.00,0.0002
3989.00,0.0003
3988.00,0.0003
3987.00,0.0002
3986.00,0.0002
3985.00,0.0002
3984.00,0.0002
3983.00,0.0002
3982.00,0.0002
3981.00,0.0002
3980.00,0.0002
3979.00,0.0002
3978.00,0.0002
3977.00,0.0002
3976.00,0.0002
3975.00,0.0002
3974.00,0.0002
3973.00,0.0002
3972.00,0.0002
3971.00,0.0002
3970.00,0.0002
3969.00,0.0002
3968.00,0.0002
3967.00,0.0002
3966.00,0.0002
3965.00,0.0002
3964.00,0.0002
3963.00,0.0002
3962.00,0.0002
3961.00,0.0002
3960.00,0.0002
3959.00,0.0002
3958.00,0.0002
3957.00,0.0002
3956.00,0.0002
3955.00,0.0002
3954.00,0.0002
3953.00,0.0002
3952.00,0.0002
3951.00,0.0002
3950.00,0.0001
3949.00,0.0001
3948.00,0.0001
3947.00,0.0001
3946.00,0.0002
3945.00,0.0002
3944.00,0.0002
3943.00,0.0002
3942.00,0.0002
3941.00,0.0002
3940.00,0.0002
3939.00,0.0002
3938.00,0.0003
3937.00,0.0003
3936.00,0.0002
3935.00,0.0002
3934.00,0.0002
3933.00,0.0002
3932.00,0.0002
3931.00,0.0002
3930.00,0.0002
3929.00,0.0002
3928.00,0.0002
3927.00,0.0002
3926.00,0.0003
3925.00,0.0003
3924.00,0.0003
3923.00,0.0003
3922.00,0.0003
3921.00,0.0003
3920.00,0.0003
3919.00,0.0002
3918.00,0.0002
3917.00,0.0002
3916.00,0.0002
3915.00,0.0003
3914.00,0.0003
3913.00,0.0003
3912.00,0.0003
3911.00,0.0002
3910.00,0.0002
3909.00,0.0002
3908.00,0.0002
3907.00,0.0002
3906.00,0.0002
3905.00,0.0002
3904.00,0.0002
3903.00,0.0003
3902.00,0.0002
3901.00,0.0002
3900.00,0.0002
3899.00,0.0002
3898.00,0.0002
3897.00,0.0002
3896.00,0.0002
3895.00,0.0002
3894.00,0.0002
3893.00,0.0002
3892.00,0.0002
3891.00,0.0002
3890.00,0.0002
3889.00,0.0002
3888.00,0.0002
3887.00,0.0002
3886.00,0.0002
3885.00,0.0003
3884.00,0.0003
3883.00,0.0003
3882.00,0.0002
3881.00,0.0002
3880.00,0.0002
3879.00,0.0002
3878.00,0.0002
3877.00,0.0003
3876.00,0.0002
3875.00,0.0002
3874.00,0.0002
3873.00,0.0003
3872.00,0.0003
3871.00,0.0003
3870.00,0.0003
3869.00,0.0003
3868.00,0.0002
3867.00,0.0002
3866.00,0.0002
3865.00,0.0002
3864.00,0.0002
3863.00,0.0002
3862.00,0.0002
3861.00,0.0002
3860.00,0.0002
3859.00,0.0002
3858.00,0.0003
3857.00,0.0003
3856.00,0.0004
3855.00,0.0005
3854.00,0.0004
3853.00,0.0004
3852.00,0.0004
3851.00,0.0003
3850.00,0.0003
3849.00,0.0002
3848.00,0.0002
3847.00,0.0002
3846.00,0.0002
3845.00,0.0002
3844.00,0.0003
3843.00,0.0003
3842.00,0.0003
3841.00,0.0003
3840.00,0.0003
3839.00,0.0003
3838.00,0.0003
3837.00,0.0003
3836.00,0.0003
3835.00,0.0003
3834.00,0.0003
3833.00,0.0003
3832.00,0.0003
3831.00,0.0003
3830.00,0.0003
3829.00,0.0003
3828.00,0.0003
3827.00,0.0003
3826.00,0.0003
3825.00,0.0003
3824.00,0.0003
3823.00,0.0003
3822.00,0.0003
3821.00,0.0003
3820.00,0.0003
3819.00,0.0003
3818.00,0.0003
3817.00,0.0003
3816.00,0.0003
3815.00,0.0003
3814.00,0.0003
3813.00,0.0002
3812.00,0.0002
3811.00,0.0002
3810.00,0.0002
3809.00,0.0003
3808.00,0.0003
3807.00,0.0003
3806.00,0.0004
3805.00,0.0004
3804.00,0.0004
3803.00,0.0004
3802.00,0.0004
3801.00,0.0003
3800.00,0.0003
3799.00,0.0002
3798.00,0.0002
3797.00,0.0002
3796.00,0.0002
3795.00,0.0002
3794.00,0.0003
3793.00,0.0003
3792.00,0.0003
3791.00,0.0003
3790.00,0.0003
3789.00,0.0003
3788.00,0.0002
3787.00,0.0002
3786.00,0.0002
3785.00,0.0002
3784.00,0.0002
3783.00,0.0002
3782.00,0.0002
3781.00,0.0002
3780.00,0.0002
3779.00,0.0002
3778.00,0.0002
3777.00,0.0002
3776.00,0.0002
3775.00,0.0002
3774.00,0.0002
3773.00,0.0002
3772.00,0.0002
3771.00,0.0003
3770.00,0.0003
3769.00,0.0003
3768.00,0.0003
3767.00,0.0002
3766.00,0.0002
3765.00,0.0002
3764.00,0.0003
3763.00,0.0003
3762.00,0.0003
3761.00,0.0003
3760.00,0.0003
3759.00,0.0003
3758.00,0.0003
3757.00,0.0003
3756.00,0.0004
3755.00,0.0004
3754.00,0.0004
3753.00,0.0004
3752.00,0.0004
3751.00,0.0004
3750.00,0.0004
3749.00,0.0003
3748.00,0.0003
3747.00,0.0003
3746.00,0.0003
3745.00,0.0002
3744.00,0.0002
3743.00,0.0002
3742.00,0.0002
3741.00,0.0002
3740.00,0.0002
3739.00,0.0002
3738.00,0.0002
3737.00,0.0002
3736.00,0.0002
3735.00,0.0002
3734.00,0.0002
3733.00,0.0002
3732.00,0.0002
3731.00,0.0002
3730.00,0.0002
3729.00,0.0002
3728.00,0.0001
3727.00,0.0001
3726.00,0.0001
3725.00,0.0001
3724.00,0.0001
3723.00,0.0001
3722.00,0.0001
3721.00,0.0001
3720.00,0.0001
3719.00,0.0001
3718.00,0.0001
3717.00,0.0001
3716.00,0.0001
3715.00,0.0001
3714.00,0.0002
3713.00,0.0002
3712.00,0.0003
3711.00,0.0003
3710.00,0.0003
3709.00,0.0003
3708.00,0.0002
3707.00,0.0002
3706.00,0.0001
3705.00,0.0001
3704.00,0.0001
3703.00,0.0001
3702.00,0.0001
3701.00,0.0001
3700.00,0.0001
3699.00,0.0002
3698.00,0.0002
3697.00,0.0002
3696.00,0.0002
3695.00,0.0002
3694.00,0.0002
3693.00,0.0002
3692.00,0.0002
3691.00,0.0002
3690.00,0.0002
3689.00,0.0002
3688.00,0.0002
3687.00,0.0002
3686.00,0.0002
3685.00,0.0002
3684.00,0.0002
3683.00,0.0002
3682.00,0.0002
3681.00,0.0002
3680.00,0.0002
3679.00,0.0003
3678.00,0.0003
3677.00,0.0003
3676.00,0.0003
3675.00,0.0003
3674.00,0.0003
3673.00,0.0003
3672.00,0.0003
3671.00,0.0002
3670.00,0.0002
3669.00,0.0002
3668.00,0.0002
3667.00,0.0002
3666.00,0.0002
3665.00,0.0002
3664.00,0.0003
3663.00,0.0003
3662.00,0.0003
3661.00,0.0003
3660.00,0.0003
3659.00,0.0003
3658.00,0.0003
3657.00,0.0003
3656.00,0.0003
3655.00,0.0003
3654.00,0.0003
3653.00,0.0003
3652.00,0.0003
3651.00,0.0003
3650.00,0.0003
3649.00,0.0002
3648.00,0.0002
3647.00,0.0002
3646.00,0.0002
3645.00,0.0002
3644.00,0.0002
3643.00,0.0002
3642.00,0.0002
3641.00,0.0002
3640.00,0.0002
3639.00,0.0002
3638.00,0.0002
3637.00,0.0002
3636.00,0.0002
3635.00,0.0002
3634.00,0.0002
3633.00,0.0002
3632.00,0.0003
3631.00,0.0003
3630.00,0.0002
3629.00,0.0002
3628.00,0.0002
3627.00,0.0002
3626.00,0.0002
3625.00,0.0002
3624.00,0.0002
3623.00,0.0002
3622.00,0.0001
3621.00,0.0001
3620.00,0.0001
3619.00,0.0001
3618.00,0.0002
3617.00,0.0002
3616.00,0.0002
3615.00,0.0001
3614.00,0.0001
3613.00,0.0001
3612.00,0.0002
3611.00,0.0002
3610.00,0.0002
3609.00,0.0002
3608.00,0.0002
3607.00,0.0002
3606.00,0.0003
3605.00,0.0003
3604.00,0.0003
3603.00,0.0002
3602.00,0.0002
3601.00,0.0002
3600.00,0.0002
3599.00,0.0002
3598.00,0.0002
3597.00,0.0002
3596.00,0.0002
3595.00,0.0002
3594.00,0.0002
3593.00,0.0002
3592.00,0.0002
3591.00,0.0002
3590.00,0.0002
3589.00,0.0002
3588.00,0.0002
3587.00,0.0001
3586.00,0.0002
3585.00,0.0002
3584.00,0.0002
3583.00,0.0002
3582.00,0.0002
3581.00,0.0002
3580.00,0.0002
3579.00,0.0002
3578.00,0.0003
3577.00,0.0003
3576.00,0.0003
3575.00,0.0003
3574.00,0.0003
3573.00,0.0003
3572.00,0.0003
3571.00,0.0002
3570.00,0.0002
3569.00,0.0002
3568.00,0.0002
3567.00,0.0002
3566.00,0.0003
3565.00,0.0003
3564.00,0.0003
3563.00,0.0003
3562.00,0.0004
3561.00,0.0004
3560.00,0.0004
3559.00,0.0004
3558.00,0.0004
3557.00,0.0004
3556.00,0.0004
3555.00,0.0004
3554.00,0.0004
3553.00,0.0004
3552.00,0.0004
3551.00,0.0004
3550.00,0.0004
3549.00,0.0004
3548.00,0.0004
3547.00,0.0004
3546.00,0.0004
3545.00,0.0004
3544.00,0.0004
3543.00,0.0005
3542.00,0.0005
3541.00,0.0005
3540.00,0.0005
3539.00,0.0005
3538.00,0.0005
3537.00,0.0005
3536.00,0.0005
3535.00,0.0005
3534.00,0.0005
3533.00,0.0005
3532.00,0.0005
3531.00,0.0005
3530.00,0.0005
3529.00,0.0005
3528.00,0.0005
3527.00,0.0005
3526.00,0.0005
3525.00,0.0005
3524.00,0.0005
3523.00,0.0005
3522.00,0.0005
3521.00,0.0006
3520.00,0.0006
3519.00,0.0006
3518.00,0.0006
3517.00,0.0006
3516.00,0.0006
3515.00,0.0006
3514.00,0.0006
3513.00,0.0006
3512.00,0.0006
3511.00,0.0006
3510.00,0.0006
3509.00,0.0007
3508.00,0.0007
3507.00,0.0007
3506.00,0.0007
3505.00,0.0007
3504.00,0.0007
3503.00,0.0007
3502.00,0.0007
3501.00,0.0007
3500.00,0.0007
3499.00,0.0007
3498.00,0.0007
3497.00,0.0007
3496.00,0.0007
3495.00,0.0007
3494.00,0.0007
3493.00,0.0007
3492.00,0.0007
3491.00,0.0007
3490.00,0.0007
3489.00,0.0007
3488.00,0.0008
3487.00,0.0008
3486.00,0.0008
3485.00,0.0008
3484.00,0.0008
3483.00,0.0008
3482.00,0.0008
3481.00,0.0008
3480.00,0.0008
3479.00,0.0008
3478.00,0.0008
3477.00,0.0008
3476.00,0.0008
3475.00,0.0008
3474.00,0.0008
3473.00,0.0008
3472.00,0.0008
3471.00,0.0008
3470.00,0.0008
3469.00,0.0008
3468.00,0.0008
3467.00,0.0008
3466.00,0.0008
3465.00,0.0008
3464.00,0.0008
3463.00,0.0008
3462.00,0.0008
3461.00,0.0008
3460.00,0.0008
3459.00,0.0009
3458.00,0.0009
3457.00,0.0008
3456.00,0.0008
3455.00,0.0008
3454.00,0.0008
3453.00,0.0008
3452.00,0.0008
3451.00,0.0008
3450.00,0.0008
3449.00,0.0008
3448.00,0.0008
3447.00,0.0008
3446.00,0.0008
3445.00,0.0009
3444.00,0.0009
3443.00,0.0009
3442.00,0.0009
3441.00,0.0009
3440.00,0.0009
3439.00,0.0010
3438.00,0.0010
3437.00,0.0010
3436.00,0.0009
3435.00,0.0009
3434.00,0.0009
3433.00,0.0009
3432.00,0.0009
3431.00,0.0009
3430.00,0.0009
3429.00,0.0009
3428.00,0.0009
3427.00,0.0009
3426.00,0.0009
3425.00,0.0009
3424.00,0.0009
3423.00,0.0010
3422.00,0.0010
3421.00,0.0010
3420.00,0.0009
3419.00,0.0009
3418.00,0.0009
3417.00,0.0009
3416.00,0.0009
3415.00,0.0009
3414.00,0.0010
3413.00,0.0010
3412.00,0.0010
3411.00,0.0010
3410.00,0.0009
3409.00,0.0010
3408.00,0.0010
3407.00,0.0010
3406.00,0.0010
3405.00,0.0010
3404.00,0.0010
3403.00,0.0010
3402.00,0.0010
3401.00,0.0010
3400.00,0.0010
3399.00,0.0010
3398.00,0.0010
3397.00,0.0010
3396.00,0.0010
3395.00,0.0010
3394.00,0.0010
3393.00,0.0009
3392.00,0.0009
3391.00,0.0009
3390.00,0.0009
3389.00,0.0009
3388.00,0.0009
3387.00,0.0009
3386.00,0.0009
3385.00,0.0009
3384.00,0.0009
3383.00,0.0009
3382.00,0.0009
3381.00,0.0009
3380.00,0.0009
3379.00,0.0009
3378.00,0.0009
3377.00,0.0009
3376.00,0.0009
3375.00,0.0009
3374.00,0.0009
3373.00,0.0009
3372.00,0.0009
3371.00,0.0009
3370.00,0.0009
3369.00,0.0009
3368.00,0.0009
3367.00,0.0009
3366.00,0.0009
3365.00,0.0009
3364.00,0.0009
3363.00,0.0009
3362.00,0.0009
3361.00,0.0009
3360.00,0.0009
3359.00,0.0009
3358.00,0.0009
3357.00,0.0009
3356.00,0.0010
3355.00,0.0010
3354.00,0.0010
3353.00,0.0010
3352.00,0.0010
3351.00,0.0010
3350.00,0.0010
3349.00,0.0010
3348.00,0.0010
3347.00,0.0009
3346.00,0.0009
3345.00,0.0009
3344.00,0.0009
3343.00,0.0009
3342.00,0.0009
3341.00,0.0009
3340.00,0.0009
3339.00,0.0009
3338.00,0.0009
3337.00,0.0009
3336.00,0.0009
3335.00,0.0009
3334.00,0.0009
3333.00,0.0009
3332.00,0.0009
3331.00,0.0009
3330.00,0.0009
3329.00,0.0009
3328.00,0.0009
3327.00,0.0009
3326.00,0.0009
3325.00,0.0009
3324.00,0.0009
3323.00,0.0009
3322.00,0.0009
3321.00,0.0009
3320.00,0.0009
3319.00,0.0009
3318.00,0.0009
3317.00,0.0009
3316.00,0.0009
3315.00,0.0009
3314.00,0.0009
3313.00,0.0009
3312.00,0.0009
3311.00,0.0009
3310.00,0.0009
3309.00,0.0009
3308.00,0.0009
3307.00,0.0009
3306.00,0.0009
3305.00,0.0009
3304.00,0.0009
3303.00,0.0009
3302.00,0.0009
3301.00,0.0009
3300.00,0.0009
3299.00,0.0009
3298.00,0.0009
3297.00,0.0009
3296.00,0.0009
3295.00,0.0009
3294.00,0.0009
3293.00,0.0009
3292.00,0.0009
3291.00,0.0009
3290.00,0.0008
3289.00,0.0008
3288.00,0.0008
3287.00,0.0008
3286.00,0.0008
3285.00,0.0008
3284.00,0.0008
3283.00,0.0009
3282.00,0.0009
3281.00,0.0009
3280.00,0.0009
3279.00,0.0008
3278.00,0.0008
3277.00,0.0008
3276.00,0.0008
3275.00,0.0008
3274.00,0.0008
3273.00,0.0008
3272.00,0.0008
3271.00,0.0008
3270.00,0.0008
3269.00,0.0008
3268.00,0.0008
3267.00,0.0008
3266.00,0.0008
3265.00,0.0008
3264.00,0.0008
3263.00,0.0008
3262.00,0.0008
3261.00,0.0008
3260.00,0.0008
3259.00,0.0008
3258.00,0.0008
3257.00,0.0008
3256.00,0.0008
3255.00,0.0008
3254.00,0.0008
3253.00,0.0008
3252.00,0.0008
3251.00,0.0008
3250.00,0.0008
3249.00,0.0008
3248.00,0.0007
3247.00,0.0007
3246.00,0.0007
3245.00,0.0007
3244.00,0.0007
3243.00,0.0007
3242.00,0.0007
3241.00,0.0007
3240.00,0.0007
3239.00,0.0007
3238.00,0.0007
3237.00,0.0007
3236.00,0.0007
3235.00,0.0007
3234.00,0.0007
3233.00,0.0007
3232.00,0.0007
3231.00,0.0006
3230.00,0.0006
3229.00,0.0007
3228.00,0.0007
3227.00,0.0006
3226.00,0.0006
3225.00,0.0006
3224.00,0.0006
3223.00,0.0006
3222.00,0.0006
3221.00,0.0007
3220.00,0.0007
3219.00,0.0007
3218.00,0.0007
3217.00,0.0007
3216.00,0.0007
3215.00,0.0007
3214.00,0.0007
3213.00,0.0006
3212.00,0.0006
3211.00,0.0006
3210.00,0.0006
3209.00,0.0006
3208.00,0.0006
3207.00,0.0006
3206.00,0.0006
3205.00,0.0006
3204.00,0.0006
3203.00,0.0006
3202.00,0.0006
3201.00,0.0006
3200.00,0.0006
3199.00,0.0006
3198.00,0.0006
3197.00,0.0006
3196.00,0.0006
3195.00,0.0006
3194.00,0.0006
3193.00,0.0006
3192.00,0.0006
3191.00,0.0006
3190.00,0.0006
3189.00,0.0006
3188.00,0.0006
3187.00,0.0006
3186.00,0.0005
3185.00,0.0005
3184.00,0.0005
3183.00,0.0005
3182.00,0.0005
3181.00,0.0006
3180.00,0.0006
3179.00,0.0005
3178.00,0.0005
3177.00,0.0005
3176.00,0.0005
3175.00,0.0005
3174.00,0.0005
3173.00,0.0005
3172.00,0.0005
3171.00,0.0005
3170.00,0.0005
3169.00,0.0005
3168.00,0.0006
3167.00,0.0006
3166.00,0.0005
3165.00,0.0005
3164.00,0.0005
3163.00,0.0005
3162.00,0.0005
3161.00,0.0005
3160.00,0.0005
3159.00,0.0005
3158.00,0.0005
3157.00,0.0005
3156.00,0.0006
3155.00,0.0006
3154.00,0.0006
3153.00,0.0006
3152.00,0.0005
3151.00,0.0005
3150.00,0.0005
3149.00,0.0005
3148.00,0.0005
3147.00,0.0004
3146.00,0.0004
3145.00,0.0004
3144.00,0.0004
3143.00,0.0004
3142.00,0.0004
3141.00,0.0004
3140.00,0.0005
3139.00,0.0004
3138.00,0.0004
3137.00,0.0004
3136.00,0.0004
3135.00,0.0004
3134.00,0.0004
3133.00,0.0004
3132.00,0.0004
3131.00,0.0004
3130.00,0.0004
3129.00,0.0004
3128.00,0.0004
3127.00,0.0004
3126.00,0.0005
3125.00,0.0005
3124.00,0.0005
3123.00,0.0005
3122.00,0.0005
3121.00,0.0005
3120.00,0.0005
3119.00,0.0005
3118.00,0.0005
3117.00,0.0005
3116.00,0.0005
3115.00,0.0006
3114.00,0.0006
3113.00,0.0006
3112.00,0.0006
3111.00,0.0007
3110.00,0.0007
3109.00,0.0008
3108.00,0.0009
3107.00,0.0009
3106.00,0.0010
3105.00,0.0010
3104.00,0.0011
3103.00,0.0011
3102.00,0.0011
3101.00,0.0011
3100.00,0.0010
3099.00,0.0010
3098.00,0.0010
3097.00,0.0010
3096.00,0.0010
3095.00,0.0010
3094.00,0.0010
3093.00,0.0011
3092.00,0.0011
3091.00,0.0012
3090.00,0.0014
3089.00,0.0015
3088.00,0.0017
3087.00,0.0018
3086.00,0.0020
3085.00,0.0022
3084.00,0.0023
3083.00,0.0024
3082.00,0.0025
3081.00,0.0025
3080.00,0.0025
3079.00,0.0024
3078.00,0.0023
3077.00,0.0021
3076.00,0.0020
3075.00,0.0020
3074.00,0.0019
3073.00,0.0019
3072.00,0.0019
3071.00,0.0019
3070.00,0.0019
3069.00,0.0020
3068.00,0.0021
3067.00,0.0022
3066.00,0.0024
3065.00,0.0026
3064.00,0.0028
3063.00,0.0030
3062.00,0.0032
3061.00,0.0033
3060.00,0.0034
3059.00,0.0035
3058.00,0.0034
3057.00,0.0033
3056.00,0.0031
3055.00,0.0029
3054.00,0.0028
3053.00,0.0026
3052.00,0.0024
3051.00,0.0023
3050.00,0.0021
3049.00,0.0020
3048.00,0.0019
3047.00,0.0018
3046.00,0.0018
3045.00,0.0018
3044.00,0.0018
3043.00,0.0018
3042.00,0.0019
3041.00,0.0019
3040.00,0.0020
3039.00,0.0021
3038.00,0.0023
3037.00,0.0025
3036.00,0.0027
3035.00,0.0029
3034.00,0.0032
3033.00,0.0036
3032.00,0.0040
3031.00,0.0044
3030.00,0.0048
3029.00,0.0053
3028.00,0.0058
3027.00,0.0061
3026.00,0.0064
3025.00,0.0066
3024.00,0.0065
3023.00,0.0063
3022.00,0.0060
3021.00,0.0055
3020.00,0.0050
3019.00,0.0044
3018.00,0.0039
3017.00,0.0034
3016.00,0.0030
3015.00,0.0026
3014.00,0.0023
3013.00,0.0021
3012.00,0.0019
3011.00,0.0018
3010.00,0.0017
3009.00,0.0017
3008.00,0.0017
3007.00,0.0017
3006.00,0.0017
3005.00,0.0018
3004.00,0.0018
3003.00,0.0019
3002.00,0.0020
3001.00,0.0020
3000.00,0.0020
2999.00,0.0019
2998.00,0.0018
2997.00,0.0017
2996.00,0.0016
2995.00,0.0015
2994.00,0.0014
2993.00,0.0014
2992.00,0.0013
2991.00,0.0013
2990.00,0.0013
2989.00,0.0012
2988.00,0.0012
2987.00,0.0012
2986.00,0.0013
2985.00,0.0013
2984.00,0.0013
2983.00,0.0014
2982.00,0.0014
2981.00,0.0014
2980.00,0.0015
2979.00,0.0015
2978.00,0.0016
2977.00,0.0017
2976.00,0.0017
2975.00,0.0018
2974.00,0.0019
2973.00,0.0020
2972.00,0.0021
2971.00,0.0022
2970.00,0.0023
2969.00,0.0024
2968.00,0.0026
2967.00,0.0027
2966.00,0.0028
2965.00,0.0029
2964.00,0.0030
2963.00,0.0031
2962.00,0.0032
2961.00,0.0033
2960.00,0.0034
2959.00,0.0035
2958.00,0.0036
2957.00,0.0037
2956.00,0.0037
2955.00,0.0038
2954.00,0.0038
2953.00,0.0039
2952.00,0.0039
2951.00,0.0040
2950.00,0.0041
2949.00,0.0042
2948.00,0.0043
2947.00,0.0044
2946.00,0.0045
2945.00,0.0047
2944.00,0.0049
2943.00,0.0052
2942.00,0.0055
2941.00,0.0058
2940.00,0.0061
2939.00,0.0065
2938.00,0.0069
2937.00,0.0073
2936.00,0.0077
2935.00,0.0081
2934.00,0.0086
2933.00,0.0091
2932.00,0.0095
2931.00,0.0100
2930.00,0.0105
2929.00,0.0109
2928.00,0.0114
2927.00,0.0118
2926.00,0.0121
2925.00,0.0125
2924.00,0.0128
2923.00,0.0131
2922.00,0.0133
2921.00,0.0135
2920.00,0.0136
2919.00,0.0136
2918.00,0.0136
2917.00,0.0134
2916.00,0.0131
2915.00,0.0127
2914.00,0.0121
2913.00,0.0115
2912.00,0.0109
2911.00,0.0103
2910.00,0.0098
2909.00,0.0094
2908.00,0.0090
2907.00,0.0086
2906.00,0.0083
2905.00,0.0079
2904.00,0.0076
2903.00,0.0074
2902.00,0.0071
2901.00,0.0068
2900.00,0.0065
2899.00,0.0063
2898.00,0.0060
2897.00,0.0058
2896.00,0.0056
2895.00,0.0054
2894.00,0.0052
2893.00,0.0050
2892.00,0.0049
2891.00,0.0047
2890.00,0.0045
2889.00,0.0044
2888.00,0.0042
2887.00,0.0041
2886.00,0.0040
2885.00,0.0039
2884.00,0.0038
2883.00,0.0037
2882.00,0.0036
2881.00,0.0036
2880.00,0.0035
2879.00,0.0034
2878.00,0.0034
2877.00,0.0034
2876.00,0.0034
2875.00,0.0034
2874.00,0.0034
2873.00,0.0034
2872.00,0.0034
2871.00,0.0033
2870.00,0.0033
2869.00,0.0033
2868.00,0.0033
2867.00,0.0033
2866.00,0.0034
2865.00,0.0035
2864.00,0.0036
2863.00,0.0037
2862.00,0.0039
2861.00,0.0040
2860.00,0.0043
2859.00,0.0045
2858.00,0.0048
2857.00,0.0051
2856.00,0.0054
2855.00,0.0057
2854.00,0.0060
2853.00,0.0063
2852.00,0.0066
2851.00,0.0069
2850.00,0.0071
2849.00,0.0070
2848.00,0.0068
2847.00,0.0064
2846.00,0.0059
2845.00,0.0053
2844.00,0.0048
2843.00,0.0043
2842.00,0.0039
2841.00,0.0035
2840.00,0.0032
2839.00,0.0028
2838.00,0.0025
2837.00,0.0023
2836.00,0.0020
2835.00,0.0018
2834.00,0.0017
2833.00,0.0015
2832.00,0.0014
2831.00,0.0013
2830.00,0.0012
2829.00,0.0012
2828.00,0.0011
2827.00,0.0011
2826.00,0.0010
2825.00,0.0010
2824.00,0.0009
2823.00,0.0009
2822.00,0.0009
2821.00,0.0009
2820.00,0.0008
2819.00,0.0008
2818.00,0.0008
2817.00,0.0008
2816.00,0.0008
2815.00,0.0007
2814.00,0.0007
2813.00,0.0008
2812.00,0.0008
2811.00,0.0008
2810.00,0.0008
2809.00,0.0008
2808.00,0.0007
2807.00,0.0007
2806.00,0.0007
2805.00,0.0007
2804.00,0.0007
2803.00,0.0007
2802.00,0.0007
2801.00,0.0007
2800.00,0.0007
2799.00,0.0006
2798.00,0.0006
2797.00,0.0006
2796.00,0.0006
2795.00,0.0006
2794.00,0.0005
2793.00,0.0005
2792.00,0.0005
2791.00,0.0005
2790.00,0.0005
2789.00,0.0005
2788.00,0.0005
2787.00,0.0005
2786.00,0.0005
2785.00,0.0005
2784.00,0.0005
2783.00,0.0005
2782.00,0.0005
2781.00,0.0005
2780.00,0.0005
2779.00,0.0005
2778.00,0.0005
2777.00,0.0005
2776.00,0.0005
2775.00,0.0005
2774.00,0.0005
2773.00,0.0005
2772.00,0.0005
2771.00,0.0004
2770.00,0.0004
2769.00,0.0004
2768.00,0.0004
2767.00,0.0004
2766.00,0.0004
2765.00,0.0004
2764.00,0.0004
2763.00,0.0004
2762.00,0.0004
2761.00,0.0004
2760.00,0.0004
2759.00,0.0004
2758.00,0.0004
2757.00,0.0004
