Created as New Dataset,Sample 894 By YargerLab Date Wednesday, July 23 2025
cm-1,A
4000.00,0.0021
3999.00,0.0021
3998.00,0.0021
3997.00,0.0021
3996.00,0.0021
3995.00,0.0021
3994.00,0.0021
3993.00,0.0021
3992.00,0.0021
3991.00,0.0021
3990.00,0.0021
3989.00,0.0021
3988.00,0.0021
3987.00,0.0022
3986.00,0.0022
3985.00,0.0022
3984.00,0.0022
3983.00,0.0021
3982.00,0.0021
3981.00,0.0021
3980.00,0.0021
3979.00,0.0021
3978.00,0.0021
3977.00,0.0020
3976.00,0.0020
3975.00,0.0020
3974.00,0.0020
3973.00,0.0021
3972.00,0.0021
3971.00,0.0021
3970.00,0.0021
3969.00,0.0021
3968.00,0.0021
3967.00,0.0021
3966.00,0.0021
3965.00,0.0021
3964.00,0.0021
3963.00,0.0021
3962.00,0.0021
3961.00,0.0021
3960.00,0.0021
3959.00,0.0022
3958.00,0.0021
3957.00,0.0021
3956.00,0.0021
3955.00,0.0021
3954.00,0.0021
3953.00,0.0021
3952.00,0.0021
3951.00,0.0021
3950.00,0.0021
3949.00,0.0021
3948.00,0.0021
3947.00,0.0021
3946.00,0.0021
3945.00,0.0021
3944.00,0.0021
3943.00,0.0021
3942.00,0.0021
3941.00,0.0021
3940.00,0.0021
3939.00,0.0021
3938.00,0.0021
3937.00,0.0020
3936.00,0.0020
3935.00,0.0020
3934.00,0.0020
3933.00,0.0020
3932.00,0.0020
3931.00,0.0020
3930.00,0.0020
3929.00,0.0020
3928.00,0.0020
3927.00,0.0020
3926.00,0.0020
3925.00,0.0020
3924.00,0.0020
3923.00,0.0021
3922.00,0.0020
3921.00,0.0020
3920.00,0.0020
3919.00,0.0020
3918.00,0.0021
3917.00,0.0021
3916.00,0.0021
3915.00,0.0021
3914.00,0.0021
3913.00,0.0021
3912.00,0.0021
3911.00,0.0021
3910.00,0.0021
3909.00,0.0020
3908.00,0.0020
3907.00,0.0020
3906.00,0.0020
3905.00,0.0020
3904.00,0.0020
3903.00,0.0020
3902.00,0.0019
3901.00,0.0019
3900.00,0.0019
3899.00,0.0020
3898.00,0.0020
3897.00,0.0020
3896.00,0.0020
3895.00,0.0020
3894.00,0.0020
3893.00,0.0020
3892.00,0.0020
3891.00,0.0020
3890.00,0.0020
3889.00,0.0020
3888.00,0.0020
3887.00,0.0020
3886.00,0.0020
3885.00,0.0020
3884.00,0.0020
3883.00,0.0020
3882.00,0.0020
3881.00,0.0020
3880.00,0.0020
3879.00,0.0020
3878.00,0.0020
3877.00,0.0020
3876.00,0.0020
3875.00,0.0020
3874.00,0.0020
3873.00,0.0020
3872.00,0.0020
3871.00,0.0019
3870.00,0.0019
3869.00,0.0019
3868.00,0.0020
3867.00,0.0020
3866.00,0.0020
3865.00,0.0020
3864.00,0.0020
3863.00,0.0020
3862.00,0.0020
3861.00,0.0019
3860.00,0.0019
3859.00,0.0018
3858.00,0.0019
3857.00,0.0019
3856.00,0.0019
3855.00,0.0020
3854.00,0.0020
3853.00,0.0019
3852.00,0.0020
3851.00,0.0020
3850.00,0.0019
3849.00,0.0019
3848.00,0.0019
3847.00,0.0019
3846.00,0.0019
3845.00,0.0019
3844.00,0.0019
3843.00,0.0019
3842.00,0.0019
3841.00,0.0019
3840.00,0.0020
3839.00,0.0020
3838.00,0.0020
3837.00,0.0019
3836.00,0.0019
3835.00,0.0019
3834.00,0.0019
3833.00,0.0019
3832.00,0.0019
3831.00,0.0020
3830.00,0.0020
3829.00,0.0020
3828.00,0.0020
3827.00,0.0020
3826.00,0.0020
3825.00,0.0019
3824.00,0.0019
3823.00,0.0019
3822.00,0.0019
3821.00,0.0019
3820.00,0.0019
3819.00,0.0019
3818.00,0.0019
3817.00,0.0019
3816.00,0.0019
3815.00,0.0020
3814.00,0.0020
3813.00,0.0020
3812.00,0.0020
3811.00,0.0020
3810.00,0.0020
3809.00,0.0020
3808.00,0.0020
3807.00,0.0019
3806.00,0.0019
3805.00,0.0019
3804.00,0.0019
3803.00,0.0019
3802.00,0.0019
3801.00,0.0019
3800.00,0.0019
3799.00,0.0019
3798.00,0.0019
3797.00,0.0020
3796.00,0.0020
3795.00,0.0020
3794.00,0.0020
3793.00,0.0020
3792.00,0.0020
3791.00,0.0020
3790.00,0.0020
3789.00,0.0020
3788.00,0.0020
3787.00,0.0020
3786.00,0.0020
3785.00,0.0020
3784.00,0.0020
3783.00,0.0020
3782.00,0.0020
3781.00,0.0019
3780.00,0.0019
3779.00,0.0019
3778.00,0.0020
3777.00,0.0020
3776.00,0.0020
3775.00,0.0020
3774.00,0.0020
3773.00,0.0020
3772.00,0.0020
3771.00,0.0020
3770.00,0.0020
3769.00,0.0020
3768.00,0.0020
3767.00,0.0020
3766.00,0.0020
3765.00,0.0020
3764.00,0.0020
3763.00,0.0019
3762.00,0.0019
3761.00,0.0019
3760.00,0.0019
3759.00,0.0019
3758.00,0.0019
3757.00,0.0019
3756.00,0.0019
3755.00,0.0019
3754.00,0.0019
3753.00,0.0019
3752.00,0.0019
3751.00,0.0019
3750.00,0.0019
3749.00,0.0019
3748.00,0.0019
3747.00,0.0019
3746.00,0.0019
3745.00,0.0019
3744.00,0.0020
3743.00,0.0020
3742.00,0.0019
3741.00,0.0019
3740.00,0.0019
3739.00,0.0018
3738.00,0.0018
3737.00,0.0017
3736.00,0.0017
3735.00,0.0017
3734.00,0.0017
3733.00,0.0018
3732.00,0.0018
3731.00,0.0018
3730.00,0.0018
3729.00,0.0018
3728.00,0.0018
3727.00,0.0019
3726.00,0.0019
3725.00,0.0019
3724.00,0.0019
3723.00,0.0019
3722.00,0.0019
3721.00,0.0019
3720.00,0.0019
3719.00,0.0019
3718.00,0.0019
3717.00,0.0019
3716.00,0.0019
3715.00,0.0019
3714.00,0.0019
3713.00,0.0018
3712.00,0.0018
3711.00,0.0018
3710.00,0.0018
3709.00,0.0018
3708.00,0.0019
3707.00,0.0019
3706.00,0.0019
3705.00,0.0018
3704.00,0.0018
3703.00,0.0018
3702.00,0.0019
3701.00,0.0019
3700.00,0.0019
3699.00,0.0019
3698.00,0.0020
3697.00,0.0020
3696.00,0.0020
3695.00,0.0019
3694.00,0.0019
3693.00,0.0019
3692.00,0.0019
3691.00,0.0019
3690.00,0.0019
3689.00,0.0019
3688.00,0.0019
3687.00,0.0019
3686.00,0.0019
3685.00,0.0019
3684.00,0.0020
3683.00,0.0020
3682.00,0.0019
3681.00,0.0019
3680.00,0.0019
3679.00,0.0019
3678.00,0.0019
3677.00,0.0019
3676.00,0.0019
3675.00,0.0019
3674.00,0.0019
3673.00,0.0020
3672.00,0.0020
3671.00,0.0020
3670.00,0.0020
3669.00,0.0021
3668.00,0.0021
3667.00,0.0022
3666.00,0.0022
3665.00,0.0022
3664.00,0.0022
3663.00,0.0022
3662.00,0.0022
3661.00,0.0022
3660.00,0.0023
3659.00,0.0023
3658.00,0.0023
3657.00,0.0024
3656.00,0.0024
3655.00,0.0024
3654.00,0.0024
3653.00,0.0024
3652.00,0.0024
3651.00,0.0023
3650.00,0.0023
3649.00,0.0023
3648.00,0.0024
3647.00,0.0025
3646.00,0.0026
3645.00,0.0026
3644.00,0.0027
3643.00,0.0027
3642.00,0.0028
3641.00,0.0028
3640.00,0.0029
3639.00,0.0029
3638.00,0.0030
3637.00,0.0030
3636.00,0.0030
3635.00,0.0030
3634.00,0.0031
3633.00,0.0031
3632.00,0.0032
3631.00,0.0032
3630.00,0.0032
3629.00,0.0032
3628.00,0.0033
3627.00,0.0033
3626.00,0.0034
3625.00,0.0034
3624.00,0.0035
3623.00,0.0036
3622.00,0.0036
3621.00,0.0037
3620.00,0.0037
3619.00,0.0038
3618.00,0.0038
3617.00,0.0038
3616.00,0.0039
3615.00,0.0039
3614.00,0.0039
3613.00,0.0040
3612.00,0.0041
3611.00,0.0042
3610.00,0.0042
3609.00,0.0042
3608.00,0.0043
3607.00,0.0043
3606.00,0.0044
3605.00,0.0044
3604.00,0.0045
3603.00,0.0045
3602.00,0.0046
3601.00,0.0046
3600.00,0.0047
3599.00,0.0048
3598.00,0.0048
3597.00,0.0049
3596.00,0.0049
3595.00,0.0050
3594.00,0.0050
3593.00,0.0051
3592.00,0.0051
3591.00,0.0052
3590.00,0.0053
3589.00,0.0053
3588.00,0.0054
3587.00,0.0055
3586.00,0.0055
3585.00,0.0056
3584.00,0.0056
3583.00,0.0057
3582.00,0.0058
3581.00,0.0058
3580.00,0.0059
3579.00,0.0059
3578.00,0.0060
3577.00,0.0060
3576.00,0.0061
3575.00,0.0062
3574.00,0.0062
3573.00,0.0063
3572.00,0.0064
3571.00,0.0064
3570.00,0.0065
3569.00,0.0065
3568.00,0.0066
3567.00,0.0067
3566.00,0.0068
3565.00,0.0068
3564.00,0.0069
3563.00,0.0070
3562.00,0.0071
3561.00,0.0071
3560.00,0.0072
3559.00,0.0073
3558.00,0.0074
3557.00,0.0075
3556.00,0.0075
3555.00,0.0076
3554.00,0.0077
3553.00,0.0077
3552.00,0.0078
3551.00,0.0079
3550.00,0.0079
3549.00,0.0080
3548.00,0.0081
3547.00,0.0081
3546.00,0.0082
3545.00,0.0083
3544.00,0.0084
3543.00,0.0085
3542.00,0.0086
3541.00,0.0087
3540.00,0.0088
3539.00,0.0089
3538.00,0.0090
3537.00,0.0091
3536.00,0.0092
3535.00,0.0093
3534.00,0.0093
3533.00,0.0094
3532.00,0.0095
3531.00,0.0096
3530.00,0.0097
3529.00,0.0099
3528.00,0.0100
3527.00,0.0101
3526.00,0.0103
3525.00,0.0105
3524.00,0.0106
3523.00,0.0108
3522.00,0.0109
3521.00,0.0111
3520.00,0.0113
3519.00,0.0114
3518.00,0.0115
3517.00,0.0116
3516.00,0.0117
3515.00,0.0118
3514.00,0.0119
3513.00,0.0120
3512.00,0.0121
3511.00,0.0122
3510.00,0.0122
3509.00,0.0123
3508.00,0.0124
3507.00,0.0125
3506.00,0.0127
3505.00,0.0128
3504.00,0.0129
3503.00,0.0130
3502.00,0.0132
3501.00,0.0133
3500.00,0.0134
3499.00,0.0136
3498.00,0.0137
3497.00,0.0139
3496.00,0.0140
3495.00,0.0141
3494.00,0.0143
3493.00,0.0144
3492.00,0.0146
3491.00,0.0147
3490.00,0.0149
3489.00,0.0150
3488.00,0.0151
3487.00,0.0153
3486.00,0.0154
3485.00,0.0156
3484.00,0.0158
3483.00,0.0159
3482.00,0.0161
3481.00,0.0162
3480.00,0.0164
3479.00,0.0165
3478.00,0.0167
3477.00,0.0168
3476.00,0.0170
3475.00,0.0171
3474.00,0.0172
3473.00,0.0174
3472.00,0.0176
3471.00,0.0177
3470.00,0.0179
3469.00,0.0180
3468.00,0.0181
3467.00,0.0182
3466.00,0.0184
3465.00,0.0185
3464.00,0.0186
3463.00,0.0188
3462.00,0.0189
3461.00,0.0190
3460.00,0.0191
3459.00,0.0193
3458.00,0.0194
3457.00,0.0195
3456.00,0.0196
3455.00,0.0197
3454.00,0.0198
3453.00,0.0199
3452.00,0.0200
3451.00,0.0201
3450.00,0.0203
3449.00,0.0204
3448.00,0.0205
3447.00,0.0206
3446.00,0.0207
3445.00,0.0208
3444.00,0.0209
3443.00,0.0210
3442.00,0.0211
3441.00,0.0211
3440.00,0.0212
3439.00,0.0213
3438.00,0.0214
3437.00,0.0214
3436.00,0.0215
3435.00,0.0216
3434.00,0.0217
3433.00,0.0218
3432.00,0.0219
3431.00,0.0220
3430.00,0.0221
3429.00,0.0222
3428.00,0.0222
3427.00,0.0223
3426.00,0.0224
3425.00,0.0225
3424.00,0.0225
3423.00,0.0226
3422.00,0.0227
3421.00,0.0227
3420.00,0.0228
3419.00,0.0229
3418.00,0.0230
3417.00,0.0231
3416.00,0.0231
3415.00,0.0232
3414.00,0.0233
3413.00,0.0234
3412.00,0.0234
3411.00,0.0235
3410.00,0.0236
3409.00,0.0237
3408.00,0.0237
3407.00,0.0238
3406.00,0.0239
3405.00,0.0239
3404.00,0.0240
3403.00,0.0240
3402.00,0.0240
3401.00,0.0241
3400.00,0.0241
3399.00,0.0242
3398.00,0.0243
3397.00,0.0244
3396.00,0.0244
3395.00,0.0245
3394.00,0.0245
3393.00,0.0246
3392.00,0.0246
3391.00,0.0247
3390.00,0.0248
3389.00,0.0249
3388.00,0.0250
3387.00,0.0251
3386.00,0.0251
3385.00,0.0252
3384.00,0.0252
3383.00,0.0253
3382.00,0.0254
3381.00,0.0255
3380.00,0.0256
3379.00,0.0257
3378.00,0.0258
3377.00,0.0260
3376.00,0.0261
3375.00,0.0262
3374.00,0.0263
3373.00,0.0263
3372.00,0.0264
3371.00,0.0265
3370.00,0.0266
3369.00,0.0267
3368.00,0.0268
3367.00,0.0269
3366.00,0.0271
3365.00,0.0272
3364.00,0.0274
3363.00,0.0275
3362.00,0.0277
3361.00,0.0278
3360.00,0.0279
3359.00,0.0280
3358.00,0.0281
3357.00,0.0283
3356.00,0.0284
3355.00,0.0285
3354.00,0.0286
3353.00,0.0287
3352.00,0.0287
3351.00,0.0288
3350.00,0.0289
3349.00,0.0290
3348.00,0.0292
3347.00,0.0293
3346.00,0.0294
3345.00,0.0295
3344.00,0.0295
3343.00,0.0296
3342.00,0.0297
3341.00,0.0298
3340.00,0.0299
3339.00,0.0299
3338.00,0.0301
3337.00,0.0302
3336.00,0.0303
3335.00,0.0305
3334.00,0.0306
3333.00,0.0307
3332.00,0.0308
3331.00,0.0308
3330.00,0.0309
3329.00,0.0309
3328.00,0.0310
3327.00,0.0310
3326.00,0.0311
3325.00,0.0311
3324.00,0.0313
3323.00,0.0314
3322.00,0.0315
3321.00,0.0316
3320.00,0.0317
3319.00,0.0318
3318.00,0.0319
3317.00,0.0321
3316.00,0.0322
3315.00,0.0322
3314.00,0.0323
3313.00,0.0324
3312.00,0.0324
3311.00,0.0324
3310.00,0.0325
3309.00,0.0326
3308.00,0.0326
3307.00,0.0327
3306.00,0.0328
3305.00,0.0329
3304.00,0.0331
3303.00,0.0332
3302.00,0.0334
3301.00,0.0335
3300.00,0.0336
3299.00,0.0336
3298.00,0.0337
3297.00,0.0337
3296.00,0.0338
3295.00,0.0338
3294.00,0.0339
3293.00,0.0340
3292.00,0.0341
3291.00,0.0342
3290.00,0.0343
3289.00,0.0345
3288.00,0.0346
3287.00,0.0346
3286.00,0.0347
3285.00,0.0347
3284.00,0.0347
3283.00,0.0348
3282.00,0.0348
3281.00,0.0348
3280.00,0.0348
3279.00,0.0348
3278.00,0.0348
3277.00,0.0348
3276.00,0.0347
3275.00,0.0347
3274.00,0.0346
3273.00,0.0345
3272.00,0.0344
3271.00,0.0343
3270.00,0.0343
3269.00,0.0343
3268.00,0.0343
3267.00,0.0343
3266.00,0.0343
3265.00,0.0342
3264.00,0.0341
3263.00,0.0340
3262.00,0.0338
3261.00,0.0337
3260.00,0.0336
3259.00,0.0334
3258.00,0.0333
3257.00,0.0332
3256.00,0.0330
3255.00,0.0329
3254.00,0.0328
3253.00,0.0327
3252.00,0.0326
3251.00,0.0325
3250.00,0.0323
3249.00,0.0322
3248.00,0.0320
3247.00,0.0319
3246.00,0.0318
3245.00,0.0317
3244.00,0.0316
3243.00,0.0315
3242.00,0.0314
3241.00,0.0314
3240.00,0.0313
3239.00,0.0311
3238.00,0.0310
3237.00,0.0309
3236.00,0.0307
3235.00,0.0306
3234.00,0.0305
3233.00,0.0304
3232.00,0.0304
3231.00,0.0304
3230.00,0.0304
3229.00,0.0303
3228.00,0.0303
3227.00,0.0303
3226.00,0.0302
3225.00,0.0302
3224.00,0.0302
3223.00,0.0301
3222.00,0.0301
3221.00,0.0300
3220.00,0.0300
3219.00,0.0299
3218.00,0.0298
3217.00,0.0298
3216.00,0.0297
3215.00,0.0297
3214.00,0.0297
3213.00,0.0296
3212.00,0.0296
3211.00,0.0295
3210.00,0.0295
3209.00,0.0295
3208.00,0.0294
3207.00,0.0294
3206.00,0.0294
3205.00,0.0293
3204.00,0.0292
3203.00,0.0292
3202.00,0.0291
3201.00,0.0290
3200.00,0.0290
3199.00,0.0289
3198.00,0.0288
3197.00,0.0288
3196.00,0.0287
3195.00,0.0286
3194.00,0.0286
3193.00,0.0285
3192.00,0.0284
3191.00,0.0283
3190.00,0.0282
3189.00,0.0281
3188.00,0.0280
3187.00,0.0279
3186.00,0.0278
3185.00,0.0277
3184.00,0.0276
3183.00,0.0275
3182.00,0.0274
3181.00,0.0273
3180.00,0.0272
3179.00,0.0270
3178.00,0.0269
3177.00,0.0268
3176.00,0.0267
3175.00,0.0266
3174.00,0.0265
3173.00,0.0264
3172.00,0.0263
3171.00,0.0262
3170.00,0.0261
3169.00,0.0260
3168.00,0.0259
3167.00,0.0257
3166.00,0.0256
3165.00,0.0255
3164.00,0.0254
3163.00,0.0253
3162.00,0.0252
3161.00,0.0251
3160.00,0.0249
3159.00,0.0248
3158.00,0.0247
3157.00,0.0246
3156.00,0.0244
3155.00,0.0243
3154.00,0.0241
3153.00,0.0240
3152.00,0.0239
3151.00,0.0238
3150.00,0.0238
3149.00,0.0237
3148.00,0.0236
3147.00,0.0235
3146.00,0.0234
3145.00,0.0233
3144.00,0.0232
3143.00,0.0231
3142.00,0.0230
3141.00,0.0229
3140.00,0.0228
3139.00,0.0227
3138.00,0.0226
3137.00,0.0225
3136.00,0.0225
3135.00,0.0224
3134.00,0.0223
3133.00,0.0222
3132.00,0.0221
3131.00,0.0221
3130.00,0.0220
3129.00,0.0219
3128.00,0.0219
3127.00,0.0218
3126.00,0.0218
3125.00,0.0217
3124.00,0.0216
3123.00,0.0215
3122.00,0.0214
3121.00,0.0213
3120.00,0.0212
3119.00,0.0212
3118.00,0.0211
3117.00,0.0210
3116.00,0.0210
3115.00,0.0210
3114.00,0.0210
3113.00,0.0210
3112.00,0.0210
3111.00,0.0210
3110.00,0.0209
3109.00,0.0209
3108.00,0.0209
3107.00,0.0209
3106.00,0.0209
3105.00,0.0209
3104.00,0.0209
3103.00,0.0209
3102.00,0.0208
3101.00,0.0208
3100.00,0.0208
3099.00,0.0208
3098.00,0.0208
3097.00,0.0208
3096.00,0.0208
3095.00,0.0208
3094.00,0.0208
3093.00,0.0207
3092.00,0.0207
3091.00,0.0207
3090.00,0.0207
3089.00,0.0207
3088.00,0.0208
3087.00,0.0208
3086.00,0.0207
3085.00,0.0207
3084.00,0.0207
3083.00,0.0207
3082.00,0.0207
3081.00,0.0206
3080.00,0.0206
3079.00,0.0206
3078.00,0.0207
3077.00,0.0208
3076.00,0.0209
3075.00,0.0210
3074.00,0.0210
3073.00,0.0210
3072.00,0.0210
3071.00,0.0209
3070.00,0.0208
3069.00,0.0207
3068.00,0.0206
3067.00,0.0206
3066.00,0.0205
3065.00,0.0205
3064.00,0.0204
3063.00,0.0204
3062.00,0.0204
3061.00,0.0203
3060.00,0.0203
3059.00,0.0202
3058.00,0.0201
3057.00,0.0200
3056.00,0.0199
3055.00,0.0198
3054.00,0.0198
3053.00,0.0197
3052.00,0.0196
3051.00,0.0195
3050.00,0.0194
3049.00,0.0194
3048.00,0.0193
3047.00,0.0192
3046.00,0.0191
3045.00,0.0190
3044.00,0.0189
3043.00,0.0188
3042.00,0.0187
3041.00,0.0187
3040.00,0.0187
3039.00,0.0187
3038.00,0.0186
3037.00,0.0186
3036.00,0.0185
3035.00,0.0184
3034.00,0.0183
3033.00,0.0183
3032.00,0.0182
3031.00,0.0182
3030.00,0.0182
3029.00,0.0181
3028.00,0.0180
3027.00,0.0178
3026.00,0.0177
3025.00,0.0176
3024.00,0.0175
3023.00,0.0174
3022.00,0.0173
3021.00,0.0172
3020.00,0.0171
3019.00,0.0170
3018.00,0.0169
3017.00,0.0167
3016.00,0.0166
3015.00,0.0165
3014.00,0.0165
3013.00,0.0164
3012.00,0.0164
3011.00,0.0163
3010.00,0.0163
3009.00,0.0163
3008.00,0.0163
3007.00,0.0162
3006.00,0.0161
3005.00,0.0161
3004.00,0.0160
3003.00,0.0159
3002.00,0.0158
3001.00,0.0158
3000.00,0.0157
2999.00,0.0157
2998.00,0.0157
2997.00,0.0157
2996.00,0.0157
2995.00,0.0158
2994.00,0.0158
2993.00,0.0159
2992.00,0.0159
2991.00,0.0160
2990.00,0.0161
2989.00,0.0162
2988.00,0.0163
2987.00,0.0164
2986.00,0.0165
2985.00,0.0166
2984.00,0.0166
2983.00,0.0166
2982.00,0.0167
2981.00,0.0168
2980.00,0.0171
2979.00,0.0174
2978.00,0.0178
2977.00,0.0181
2976.00,0.0184
2975.00,0.0187
2974.00,0.0190
2973.00,0.0193
2972.00,0.0196
2971.00,0.0200
2970.00,0.0203
2969.00,0.0206
2968.00,0.0209
2967.00,0.0212
2966.00,0.0215
2965.00,0.0217
2964.00,0.0219
2963.00,0.0221
2962.00,0.0222
2961.00,0.0222
2960.00,0.0223
2959.00,0.0223
2958.00,0.0222
2957.00,0.0222
2956.00,0.0221
2955.00,0.0220
2954.00,0.0218
2953.00,0.0217
2952.00,0.0216
2951.00,0.0216
2950.00,0.0215
2949.00,0.0214
2948.00,0.0214
2947.00,0.0214
2946.00,0.0214
2945.00,0.0216
2944.00,0.0218
2943.00,0.0220
2942.00,0.0222
2941.00,0.0225
2940.00,0.0227
2939.00,0.0230
2938.00,0.0233
2937.00,0.0235
2936.00,0.0238
2935.00,0.0240
2934.00,0.0241
2933.00,0.0243
2932.00,0.0244
2931.00,0.0245
2930.00,0.0246
2929.00,0.0246
2928.00,0.0247
2927.00,0.0246
2926.00,0.0246
2925.00,0.0245
2924.00,0.0244
2923.00,0.0242
2922.00,0.0240
2921.00,0.0238
2920.00,0.0236
2919.00,0.0233
2918.00,0.0231
2917.00,0.0228
2916.00,0.0226
2915.00,0.0223
2914.00,0.0221
2913.00,0.0219
2912.00,0.0217
2911.00,0.0214
2910.00,0.0212
2909.00,0.0209
2908.00,0.0207
2907.00,0.0205
2906.00,0.0203
2905.00,0.0200
2904.00,0.0198
2903.00,0.0197
2902.00,0.0195
2901.00,0.0193
2900.00,0.0191
2899.00,0.0190
2898.00,0.0188
2897.00,0.0186
2896.00,0.0185
2895.00,0.0183
2894.00,0.0182
2893.00,0.0181
2892.00,0.0180
2891.00,0.0179
2890.00,0.0178
2889.00,0.0178
2888.00,0.0177
2887.00,0.0177
2886.00,0.0177
2885.00,0.0177
2884.00,0.0176
2883.00,0.0177
2882.00,0.0177
2881.00,0.0178
2880.00,0.0179
2879.00,0.0180
2878.00,0.0181
2877.00,0.0181
2876.00,0.0182
2875.00,0.0182
2874.00,0.0182
2873.00,0.0182
2872.00,0.0182
2871.00,0.0181
2870.00,0.0180
2869.00,0.0179
2868.00,0.0178
2867.00,0.0176
2866.00,0.0175
2865.00,0.0174
2864.00,0.0173
2863.00,0.0172
2862.00,0.0172
2861.00,0.0172
2860.00,0.0173
2859.00,0.0173
2858.00,0.0174
2857.00,0.0174
2856.00,0.0173
2855.00,0.0172
2854.00,0.0171
2853.00,0.0168
2852.00,0.0166
2851.00,0.0164
2850.00,0.0161
2849.00,0.0158
2848.00,0.0156
2847.00,0.0153
2846.00,0.0151
2845.00,0.0148
2844.00,0.0146
2843.00,0.0144
2842.00,0.0143
2841.00,0.0141
2840.00,0.0140
2839.00,0.0139
2838.00,0.0138
2837.00,0.0137
2836.00,0.0137
2835.00,0.0137
2834.00,0.0137
2833.00,0.0137
2832.00,0.0137
2831.00,0.0137
2830.00,0.0136
2829.00,0.0136
2828.00,0.0135
2827.00,0.0134
2826.00,0.0133
2825.00,0.0131
2824.00,0.0130
2823.00,0.0129
2822.00,0.0128
2821.00,0.0127
2820.00,0.0126
2819.00,0.0125
2818.00,0.0124
2817.00,0.0124
2816.00,0.0123
2815.00,0.0122
2814.00,0.0122
2813.00,0.0121
2812.00,0.0120
2811.00,0.0120
2810.00,0.0119
2809.00,0.0119
2808.00,0.0118
2807.00,0.0118
2806.00,0.0118
2805.00,0.0118
2804.00,0.0117
2803.00,0.0117
2802.00,0.0116
2801.00,0.0116
2800.00,0.0115
2799.00,0.0115
2798.00,0.0114
2797.00,0.0114
2796.00,0.0114
2795.00,0.0114
2794.00,0.0113
2793.00,0.0113
2792.00,0.0112
2791.00,0.0112
2790.00,0.0112
2789.00,0.0111
2788.00,0.0111
2787.00,0.0111
2786.00,0.0111
2785.00,0.0111
2784.00,0.0110
2783.00,0.0110
2782.00,0.0109
2781.00,0.0109
2780.00,0.0108
2779.00,0.0108
2778.00,0.0107
2777.00,0.0107
2776.00,0.0106
2775.00,0.0106
2774.00,0.0106
2773.00,0.0106
2772.00,0.0106
2771.00,0.0105
2770.00,0.0105
2769.00,0.0105
2768.00,0.0104
2767.00,0.0104
2766.00,0.0104
2765.00,0.0104
2764.00,0.0103
2763.00,0.0103
2762.00,0.0103
2761.00,0.0103
2760.00,0.0102
2759.00,0.0102
2758.00,0.0102
2757.00,0.0101
