Created as New Dataset,Sample 1055 By YargerLab Date Monday, August 04 2025
cm-1,A
4000.00,0.0054
3999.00,0.0054
3998.00,0.0054
3997.00,0.0054
3996.00,0.0054
3995.00,0.0054
3994.00,0.0054
3993.00,0.0054
3992.00,0.0054
3991.00,0.0054
3990.00,0.0054
3989.00,0.0054
3988.00,0.0054
3987.00,0.0054
3986.00,0.0054
3985.00,0.0055
3984.00,0.0055
3983.00,0.0055
3982.00,0.0055
3981.00,0.0054
3980.00,0.0054
3979.00,0.0054
3978.00,0.0054
3977.00,0.0054
3976.00,0.0054
3975.00,0.0054
3974.00,0.0055
3973.00,0.0055
3972.00,0.0055
3971.00,0.0055
3970.00,0.0055
3969.00,0.0054
3968.00,0.0054
3967.00,0.0054
3966.00,0.0054
3965.00,0.0054
3964.00,0.0054
3963.00,0.0054
3962.00,0.0054
3961.00,0.0054
3960.00,0.0053
3959.00,0.0053
3958.00,0.0053
3957.00,0.0054
3956.00,0.0054
3955.00,0.0054
3954.00,0.0054
3953.00,0.0054
3952.00,0.0054
3951.00,0.0054
3950.00,0.0054
3949.00,0.0054
3948.00,0.0054
3947.00,0.0054
3946.00,0.0054
3945.00,0.0054
3944.00,0.0054
3943.00,0.0054
3942.00,0.0054
3941.00,0.0054
3940.00,0.0054
3939.00,0.0054
3938.00,0.0054
3937.00,0.0054
3936.00,0.0054
3935.00,0.0054
3934.00,0.0054
3933.00,0.0054
3932.00,0.0054
3931.00,0.0054
3930.00,0.0054
3929.00,0.0054
3928.00,0.0054
3927.00,0.0053
3926.00,0.0053
3925.00,0.0053
3924.00,0.0053
3923.00,0.0053
3922.00,0.0053
3921.00,0.0054
3920.00,0.0054
3919.00,0.0054
3918.00,0.0054
3917.00,0.0054
3916.00,0.0054
3915.00,0.0054
3914.00,0.0054
3913.00,0.0054
3912.00,0.0054
3911.00,0.0054
3910.00,0.0054
3909.00,0.0054
3908.00,0.0054
3907.00,0.0054
3906.00,0.0054
3905.00,0.0054
3904.00,0.0054
3903.00,0.0054
3902.00,0.0054
3901.00,0.0054
3900.00,0.0054
3899.00,0.0054
3898.00,0.0053
3897.00,0.0053
3896.00,0.0053
3895.00,0.0053
3894.00,0.0053
3893.00,0.0053
3892.00,0.0053
3891.00,0.0053
3890.00,0.0053
3889.00,0.0053
3888.00,0.0053
3887.00,0.0053
3886.00,0.0053
3885.00,0.0053
3884.00,0.0053
3883.00,0.0053
3882.00,0.0052
3881.00,0.0052
3880.00,0.0052
3879.00,0.0052
3878.00,0.0052
3877.00,0.0052
3876.00,0.0052
3875.00,0.0052
3874.00,0.0052
3873.00,0.0052
3872.00,0.0053
3871.00,0.0053
3870.00,0.0053
3869.00,0.0053
3868.00,0.0053
3867.00,0.0053
3866.00,0.0053
3865.00,0.0053
3864.00,0.0053
3863.00,0.0053
3862.00,0.0053
3861.00,0.0053
3860.00,0.0053
3859.00,0.0053
3858.00,0.0053
3857.00,0.0053
3856.00,0.0053
3855.00,0.0052
3854.00,0.0052
3853.00,0.0052
3852.00,0.0052
3851.00,0.0052
3850.00,0.0053
3849.00,0.0053
3848.00,0.0053
3847.00,0.0053
3846.00,0.0053
3845.00,0.0053
3844.00,0.0053
3843.00,0.0052
3842.00,0.0052
3841.00,0.0051
3840.00,0.0051
3839.00,0.0051
3838.00,0.0051
3837.00,0.0051
3836.00,0.0051
3835.00,0.0051
3834.00,0.0051
3833.00,0.0051
3832.00,0.0052
3831.00,0.0052
3830.00,0.0052
3829.00,0.0052
3828.00,0.0052
3827.00,0.0052
3826.00,0.0052
3825.00,0.0052
3824.00,0.0052
3823.00,0.0051
3822.00,0.0051
3821.00,0.0051
3820.00,0.0051
3819.00,0.0051
3818.00,0.0051
3817.00,0.0051
3816.00,0.0051
3815.00,0.0051
3814.00,0.0051
3813.00,0.0051
3812.00,0.0051
3811.00,0.0051
3810.00,0.0051
3809.00,0.0052
3808.00,0.0052
3807.00,0.0052
3806.00,0.0052
3805.00,0.0052
3804.00,0.0051
3803.00,0.0051
3802.00,0.0051
3801.00,0.0051
3800.00,0.0051
3799.00,0.0051
3798.00,0.0051
3797.00,0.0051
3796.00,0.0051
3795.00,0.0051
3794.00,0.0051
3793.00,0.0051
3792.00,0.0051
3791.00,0.0051
3790.00,0.0052
3789.00,0.0052
3788.00,0.0052
3787.00,0.0052
3786.00,0.0052
3785.00,0.0053
3784.00,0.0053
3783.00,0.0053
3782.00,0.0053
3781.00,0.0053
3780.00,0.0053
3779.00,0.0052
3778.00,0.0052
3777.00,0.0052
3776.00,0.0052
3775.00,0.0052
3774.00,0.0052
3773.00,0.0052
3772.00,0.0052
3771.00,0.0052
3770.00,0.0052
3769.00,0.0052
3768.00,0.0052
3767.00,0.0052
3766.00,0.0052
3765.00,0.0052
3764.00,0.0052
3763.00,0.0052
3762.00,0.0052
3761.00,0.0052
3760.00,0.0052
3759.00,0.0051
3758.00,0.0051
3757.00,0.0051
3756.00,0.0051
3755.00,0.0051
3754.00,0.0052
3753.00,0.0052
3752.00,0.0052
3751.00,0.0052
3750.00,0.0052
3749.00,0.0052
3748.00,0.0051
3747.00,0.0051
3746.00,0.0051
3745.00,0.0051
3744.00,0.0051
3743.00,0.0051
3742.00,0.0051
3741.00,0.0051
3740.00,0.0051
3739.00,0.0051
3738.00,0.0051
3737.00,0.0050
3736.00,0.0050
3735.00,0.0050
3734.00,0.0049
3733.00,0.0049
3732.00,0.0049
3731.00,0.0049
3730.00,0.0050
3729.00,0.0050
3728.00,0.0050
3727.00,0.0051
3726.00,0.0051
3725.00,0.0050
3724.00,0.0050
3723.00,0.0050
3722.00,0.0050
3721.00,0.0050
3720.00,0.0050
3719.00,0.0050
3718.00,0.0050
3717.00,0.0050
3716.00,0.0050
3715.00,0.0050
3714.00,0.0050
3713.00,0.0050
3712.00,0.0049
3711.00,0.0049
3710.00,0.0049
3709.00,0.0049
3708.00,0.0049
3707.00,0.0049
3706.00,0.0049
3705.00,0.0049
3704.00,0.0049
3703.00,0.0049
3702.00,0.0049
3701.00,0.0049
3700.00,0.0049
3699.00,0.0049
3698.00,0.0049
3697.00,0.0049
3696.00,0.0049
3695.00,0.0049
3694.00,0.0049
3693.00,0.0049
3692.00,0.0049
3691.00,0.0049
3690.00,0.0049
3689.00,0.0049
3688.00,0.0049
3687.00,0.0049
3686.00,0.0049
3685.00,0.0050
3684.00,0.0050
3683.00,0.0050
3682.00,0.0050
3681.00,0.0050
3680.00,0.0049
3679.00,0.0049
3678.00,0.0049
3677.00,0.0049
3676.00,0.0049
3675.00,0.0049
3674.00,0.0048
3673.00,0.0048
3672.00,0.0048
3671.00,0.0049
3670.00,0.0049
3669.00,0.0050
3668.00,0.0050
3667.00,0.0050
3666.00,0.0049
3665.00,0.0050
3664.00,0.0050
3663.00,0.0050
3662.00,0.0050
3661.00,0.0050
3660.00,0.0050
3659.00,0.0050
3658.00,0.0050
3657.00,0.0050
3656.00,0.0050
3655.00,0.0050
3654.00,0.0050
3653.00,0.0050
3652.00,0.0050
3651.00,0.0050
3650.00,0.0050
3649.00,0.0050
3648.00,0.0050
3647.00,0.0050
3646.00,0.0050
3645.00,0.0050
3644.00,0.0051
3643.00,0.0051
3642.00,0.0051
3641.00,0.0051
3640.00,0.0051
3639.00,0.0051
3638.00,0.0051
3637.00,0.0051
3636.00,0.0052
3635.00,0.0052
3634.00,0.0052
3633.00,0.0052
3632.00,0.0052
3631.00,0.0052
3630.00,0.0052
3629.00,0.0052
3628.00,0.0053
3627.00,0.0053
3626.00,0.0053
3625.00,0.0053
3624.00,0.0053
3623.00,0.0053
3622.00,0.0053
3621.00,0.0054
3620.00,0.0054
3619.00,0.0054
3618.00,0.0054
3617.00,0.0054
3616.00,0.0054
3615.00,0.0054
3614.00,0.0054
3613.00,0.0055
3612.00,0.0055
3611.00,0.0056
3610.00,0.0056
3609.00,0.0056
3608.00,0.0056
3607.00,0.0056
3606.00,0.0056
3605.00,0.0056
3604.00,0.0056
3603.00,0.0056
3602.00,0.0057
3601.00,0.0057
3600.00,0.0057
3599.00,0.0057
3598.00,0.0057
3597.00,0.0058
3596.00,0.0058
3595.00,0.0058
3594.00,0.0058
3593.00,0.0058
3592.00,0.0059
3591.00,0.0059
3590.00,0.0059
3589.00,0.0059
3588.00,0.0060
3587.00,0.0060
3586.00,0.0060
3585.00,0.0061
3584.00,0.0061
3583.00,0.0061
3582.00,0.0061
3581.00,0.0061
3580.00,0.0061
3579.00,0.0062
3578.00,0.0062
3577.00,0.0062
3576.00,0.0063
3575.00,0.0063
3574.00,0.0063
3573.00,0.0064
3572.00,0.0064
3571.00,0.0064
3570.00,0.0064
3569.00,0.0065
3568.00,0.0065
3567.00,0.0065
3566.00,0.0066
3565.00,0.0066
3564.00,0.0067
3563.00,0.0067
3562.00,0.0068
3561.00,0.0068
3560.00,0.0069
3559.00,0.0069
3558.00,0.0070
3557.00,0.0070
3556.00,0.0070
3555.00,0.0070
3554.00,0.0071
3553.00,0.0071
3552.00,0.0072
3551.00,0.0073
3550.00,0.0073
3549.00,0.0074
3548.00,0.0074
3547.00,0.0075
3546.00,0.0075
3545.00,0.0076
3544.00,0.0076
3543.00,0.0076
3542.00,0.0077
3541.00,0.0077
3540.00,0.0078
3539.00,0.0078
3538.00,0.0079
3537.00,0.0079
3536.00,0.0079
3535.00,0.0080
3534.00,0.0080
3533.00,0.0081
3532.00,0.0081
3531.00,0.0082
3530.00,0.0082
3529.00,0.0083
3528.00,0.0083
3527.00,0.0084
3526.00,0.0085
3525.00,0.0085
3524.00,0.0086
3523.00,0.0087
3522.00,0.0087
3521.00,0.0088
3520.00,0.0088
3519.00,0.0088
3518.00,0.0089
3517.00,0.0089
3516.00,0.0090
3515.00,0.0090
3514.00,0.0091
3513.00,0.0092
3512.00,0.0092
3511.00,0.0093
3510.00,0.0093
3509.00,0.0094
3508.00,0.0094
3507.00,0.0095
3506.00,0.0096
3505.00,0.0096
3504.00,0.0097
3503.00,0.0097
3502.00,0.0098
3501.00,0.0099
3500.00,0.0099
3499.00,0.0100
3498.00,0.0101
3497.00,0.0101
3496.00,0.0102
3495.00,0.0103
3494.00,0.0103
3493.00,0.0104
3492.00,0.0105
3491.00,0.0106
3490.00,0.0107
3489.00,0.0108
3488.00,0.0109
3487.00,0.0111
3486.00,0.0112
3485.00,0.0113
3484.00,0.0114
3483.00,0.0115
3482.00,0.0116
3481.00,0.0117
3480.00,0.0118
3479.00,0.0119
3478.00,0.0121
3477.00,0.0122
3476.00,0.0123
3475.00,0.0124
3474.00,0.0125
3473.00,0.0126
3472.00,0.0128
3471.00,0.0129
3470.00,0.0131
3469.00,0.0133
3468.00,0.0134
3467.00,0.0136
3466.00,0.0137
3465.00,0.0139
3464.00,0.0140
3463.00,0.0142
3462.00,0.0143
3461.00,0.0145
3460.00,0.0147
3459.00,0.0148
3458.00,0.0150
3457.00,0.0151
3456.00,0.0153
3455.00,0.0154
3454.00,0.0156
3453.00,0.0158
3452.00,0.0160
3451.00,0.0161
3450.00,0.0163
3449.00,0.0165
3448.00,0.0166
3447.00,0.0168
3446.00,0.0170
3445.00,0.0172
3444.00,0.0174
3443.00,0.0176
3442.00,0.0178
3441.00,0.0180
3440.00,0.0183
3439.00,0.0185
3438.00,0.0187
3437.00,0.0189
3436.00,0.0191
3435.00,0.0194
3434.00,0.0196
3433.00,0.0198
3432.00,0.0201
3431.00,0.0203
3430.00,0.0206
3429.00,0.0209
3428.00,0.0211
3427.00,0.0214
3426.00,0.0217
3425.00,0.0220
3424.00,0.0222
3423.00,0.0225
3422.00,0.0228
3421.00,0.0231
3420.00,0.0234
3419.00,0.0237
3418.00,0.0240
3417.00,0.0243
3416.00,0.0246
3415.00,0.0248
3414.00,0.0251
3413.00,0.0253
3412.00,0.0256
3411.00,0.0258
3410.00,0.0260
3409.00,0.0262
3408.00,0.0264
3407.00,0.0265
3406.00,0.0267
3405.00,0.0268
3404.00,0.0269
3403.00,0.0270
3402.00,0.0271
3401.00,0.0272
3400.00,0.0272
3399.00,0.0272
3398.00,0.0272
3397.00,0.0271
3396.00,0.0271
3395.00,0.0270
3394.00,0.0270
3393.00,0.0269
3392.00,0.0268
3391.00,0.0267
3390.00,0.0266
3389.00,0.0264
3388.00,0.0263
3387.00,0.0262
3386.00,0.0260
3385.00,0.0258
3384.00,0.0256
3383.00,0.0254
3382.00,0.0252
3381.00,0.0251
3380.00,0.0249
3379.00,0.0247
3378.00,0.0245
3377.00,0.0243
3376.00,0.0242
3375.00,0.0240
3374.00,0.0238
3373.00,0.0237
3372.00,0.0235
3371.00,0.0233
3370.00,0.0231
3369.00,0.0230
3368.00,0.0228
3367.00,0.0227
3366.00,0.0226
3365.00,0.0225
3364.00,0.0223
3363.00,0.0222
3362.00,0.0220
3361.00,0.0219
3360.00,0.0217
3359.00,0.0216
3358.00,0.0216
3357.00,0.0215
3356.00,0.0214
3355.00,0.0213
3354.00,0.0212
3353.00,0.0211
3352.00,0.0210
3351.00,0.0209
3350.00,0.0208
3349.00,0.0207
3348.00,0.0207
3347.00,0.0206
3346.00,0.0206
3345.00,0.0205
3344.00,0.0205
3343.00,0.0204
3342.00,0.0204
3341.00,0.0204
3340.00,0.0203
3339.00,0.0203
3338.00,0.0202
3337.00,0.0202
3336.00,0.0202
3335.00,0.0202
3334.00,0.0202
3333.00,0.0202
3332.00,0.0202
3331.00,0.0202
3330.00,0.0202
3329.00,0.0202
3328.00,0.0202
3327.00,0.0202
3326.00,0.0202
3325.00,0.0203
3324.00,0.0203
3323.00,0.0203
3322.00,0.0203
3321.00,0.0204
3320.00,0.0204
3319.00,0.0205
3318.00,0.0205
3317.00,0.0206
3316.00,0.0206
3315.00,0.0207
3314.00,0.0208
3313.00,0.0208
3312.00,0.0209
3311.00,0.0209
3310.00,0.0209
3309.00,0.0210
3308.00,0.0211
3307.00,0.0211
3306.00,0.0212
3305.00,0.0213
3304.00,0.0214
3303.00,0.0215
3302.00,0.0216
3301.00,0.0218
3300.00,0.0219
3299.00,0.0219
3298.00,0.0220
3297.00,0.0221
3296.00,0.0222
3295.00,0.0223
3294.00,0.0224
3293.00,0.0225
3292.00,0.0226
3291.00,0.0228
3290.00,0.0229
3289.00,0.0230
3288.00,0.0231
3287.00,0.0232
3286.00,0.0233
3285.00,0.0234
3284.00,0.0235
3283.00,0.0236
3282.00,0.0238
3281.00,0.0239
3280.00,0.0240
3279.00,0.0241
3278.00,0.0242
3277.00,0.0243
3276.00,0.0244
3275.00,0.0245
3274.00,0.0246
3273.00,0.0247
3272.00,0.0248
3271.00,0.0249
3270.00,0.0250
3269.00,0.0251
3268.00,0.0253
3267.00,0.0254
3266.00,0.0255
3265.00,0.0256
3264.00,0.0257
3263.00,0.0259
3262.00,0.0260
3261.00,0.0261
3260.00,0.0262
3259.00,0.0263
3258.00,0.0264
3257.00,0.0264
3256.00,0.0265
3255.00,0.0267
3254.00,0.0268
3253.00,0.0269
3252.00,0.0270
3251.00,0.0271
3250.00,0.0272
3249.00,0.0273
3248.00,0.0273
3247.00,0.0274
3246.00,0.0275
3245.00,0.0276
3244.00,0.0277
3243.00,0.0278
3242.00,0.0279
3241.00,0.0279
3240.00,0.0280
3239.00,0.0280
3238.00,0.0280
3237.00,0.0280
3236.00,0.0280
3235.00,0.0279
3234.00,0.0279
3233.00,0.0279
3232.00,0.0280
3231.00,0.0280
3230.00,0.0280
3229.00,0.0281
3228.00,0.0280
3227.00,0.0280
3226.00,0.0280
3225.00,0.0280
3224.00,0.0279
3223.00,0.0278
3222.00,0.0278
3221.00,0.0277
3220.00,0.0276
3219.00,0.0276
3218.00,0.0275
3217.00,0.0274
3216.00,0.0273
3215.00,0.0272
3214.00,0.0271
3213.00,0.0270
3212.00,0.0268
3211.00,0.0267
3210.00,0.0266
3209.00,0.0265
3208.00,0.0263
3207.00,0.0262
3206.00,0.0260
3205.00,0.0259
3204.00,0.0257
3203.00,0.0256
3202.00,0.0254
3201.00,0.0252
3200.00,0.0251
3199.00,0.0249
3198.00,0.0247
3197.00,0.0246
3196.00,0.0244
3195.00,0.0242
3194.00,0.0241
3193.00,0.0239
3192.00,0.0237
3191.00,0.0235
3190.00,0.0233
3189.00,0.0232
3188.00,0.0230
3187.00,0.0228
3186.00,0.0227
3185.00,0.0225
3184.00,0.0223
3183.00,0.0221
3182.00,0.0220
3181.00,0.0218
3180.00,0.0216
3179.00,0.0215
3178.00,0.0213
3177.00,0.0211
3176.00,0.0209
3175.00,0.0207
3174.00,0.0206
3173.00,0.0204
3172.00,0.0202
3171.00,0.0201
3170.00,0.0199
3169.00,0.0197
3168.00,0.0195
3167.00,0.0193
3166.00,0.0191
3165.00,0.0190
3164.00,0.0188
3163.00,0.0186
3162.00,0.0185
3161.00,0.0183
3160.00,0.0181
3159.00,0.0180
3158.00,0.0178
3157.00,0.0176
3156.00,0.0174
3155.00,0.0171
3154.00,0.0169
3153.00,0.0168
3152.00,0.0166
3151.00,0.0165
3150.00,0.0164
3149.00,0.0162
3148.00,0.0161
3147.00,0.0159
3146.00,0.0158
3145.00,0.0156
3144.00,0.0155
3143.00,0.0153
3142.00,0.0152
3141.00,0.0150
3140.00,0.0148
3139.00,0.0147
3138.00,0.0146
3137.00,0.0145
3136.00,0.0144
3135.00,0.0143
3134.00,0.0142
3133.00,0.0141
3132.00,0.0140
3131.00,0.0139
3130.00,0.0138
3129.00,0.0137
3128.00,0.0136
3127.00,0.0135
3126.00,0.0134
3125.00,0.0133
3124.00,0.0132
3123.00,0.0131
3122.00,0.0131
3121.00,0.0130
3120.00,0.0129
3119.00,0.0128
3118.00,0.0127
3117.00,0.0126
3116.00,0.0125
3115.00,0.0124
3114.00,0.0123
3113.00,0.0123
3112.00,0.0121
3111.00,0.0120
3110.00,0.0119
3109.00,0.0118
3108.00,0.0117
3107.00,0.0116
3106.00,0.0115
3105.00,0.0115
3104.00,0.0114
3103.00,0.0113
3102.00,0.0112
3101.00,0.0111
3100.00,0.0110
3099.00,0.0110
3098.00,0.0109
3097.00,0.0109
3096.00,0.0109
3095.00,0.0109
3094.00,0.0109
3093.00,0.0109
3092.00,0.0109
3091.00,0.0110
3090.00,0.0111
3089.00,0.0111
3088.00,0.0112
3087.00,0.0112
3086.00,0.0112
3085.00,0.0112
3084.00,0.0112
3083.00,0.0111
3082.00,0.0111
3081.00,0.0111
3080.00,0.0111
3079.00,0.0111
3078.00,0.0110
3077.00,0.0110
3076.00,0.0110
3075.00,0.0109
3074.00,0.0109
3073.00,0.0108
3072.00,0.0108
3071.00,0.0107
3070.00,0.0107
3069.00,0.0107
3068.00,0.0106
3067.00,0.0106
3066.00,0.0106
3065.00,0.0106
3064.00,0.0106
3063.00,0.0106
3062.00,0.0107
3061.00,0.0107
3060.00,0.0107
3059.00,0.0108
3058.00,0.0108
3057.00,0.0108
3056.00,0.0108
3055.00,0.0108
3054.00,0.0108
3053.00,0.0108
3052.00,0.0108
3051.00,0.0108
3050.00,0.0108
3049.00,0.0108
3048.00,0.0107
3047.00,0.0107
3046.00,0.0106
3045.00,0.0106
3044.00,0.0106
3043.00,0.0107
3042.00,0.0107
3041.00,0.0108
3040.00,0.0109
3039.00,0.0110
3038.00,0.0111
3037.00,0.0113
3036.00,0.0114
3035.00,0.0115
3034.00,0.0115
3033.00,0.0116
3032.00,0.0116
3031.00,0.0116
3030.00,0.0115
3029.00,0.0114
3028.00,0.0113
3027.00,0.0111
3026.00,0.0110
3025.00,0.0108
3024.00,0.0107
3023.00,0.0106
3022.00,0.0104
3021.00,0.0103
3020.00,0.0102
3019.00,0.0101
3018.00,0.0101
3017.00,0.0100
3016.00,0.0099
3015.00,0.0099
3014.00,0.0099
3013.00,0.0100
3012.00,0.0100
3011.00,0.0101
3010.00,0.0102
3009.00,0.0103
3008.00,0.0104
3007.00,0.0105
3006.00,0.0107
3005.00,0.0110
3004.00,0.0112
3003.00,0.0115
3002.00,0.0118
3001.00,0.0121
3000.00,0.0125
2999.00,0.0129
2998.00,0.0135
2997.00,0.0140
2996.00,0.0146
2995.00,0.0152
2994.00,0.0157
2993.00,0.0161
2992.00,0.0165
2991.00,0.0168
2990.00,0.0171
2989.00,0.0174
2988.00,0.0177
2987.00,0.0181
2986.00,0.0186
2985.00,0.0191
2984.00,0.0198
2983.00,0.0207
2982.00,0.0217
2981.00,0.0227
2980.00,0.0237
2979.00,0.0245
2978.00,0.0249
2977.00,0.0252
2976.00,0.0254
2975.00,0.0259
2974.00,0.0267
2973.00,0.0279
2972.00,0.0292
2971.00,0.0304
2970.00,0.0314
2969.00,0.0322
2968.00,0.0327
2967.00,0.0331
2966.00,0.0335
2965.00,0.0341
2964.00,0.0347
2963.00,0.0355
2962.00,0.0361
2961.00,0.0367
2960.00,0.0369
2959.00,0.0368
2958.00,0.0362
2957.00,0.0354
2956.00,0.0343
2955.00,0.0331
2954.00,0.0320
2953.00,0.0309
2952.00,0.0299
2951.00,0.0291
2950.00,0.0285
2949.00,0.0282
2948.00,0.0281
2947.00,0.0282
2946.00,0.0285
2945.00,0.0291
2944.00,0.0298
2943.00,0.0306
2942.00,0.0315
2941.00,0.0326
2940.00,0.0338
2939.00,0.0352
2938.00,0.0367
2937.00,0.0386
2936.00,0.0407
2935.00,0.0430
2934.00,0.0455
2933.00,0.0480
2932.00,0.0505
2931.00,0.0530
2930.00,0.0552
2929.00,0.0570
2928.00,0.0583
2927.00,0.0590
2926.00,0.0591
2925.00,0.0586
2924.00,0.0577
2923.00,0.0564
2922.00,0.0549
2921.00,0.0532
2920.00,0.0514
2919.00,0.0496
2918.00,0.0478
2917.00,0.0459
2916.00,0.0442
2915.00,0.0426
2914.00,0.0410
2913.00,0.0396
2912.00,0.0383
2911.00,0.0372
2910.00,0.0361
2909.00,0.0350
2908.00,0.0341
2907.00,0.0332
2906.00,0.0323
2905.00,0.0315
2904.00,0.0308
2903.00,0.0300
2902.00,0.0293
2901.00,0.0286
2900.00,0.0280
2899.00,0.0273
2898.00,0.0267
2897.00,0.0261
2896.00,0.0256
2895.00,0.0251
2894.00,0.0247
2893.00,0.0243
2892.00,0.0240
2891.00,0.0236
2890.00,0.0233
2889.00,0.0230
2888.00,0.0227
2887.00,0.0224
2886.00,0.0222
2885.00,0.0220
2884.00,0.0219
2883.00,0.0219
2882.00,0.0219
2881.00,0.0221
2880.00,0.0225
2879.00,0.0230
2878.00,0.0237
2877.00,0.0246
2876.00,0.0255
2875.00,0.0263
2874.00,0.0271
2873.00,0.0276
2872.00,0.0279
2871.00,0.0280
2870.00,0.0279
2869.00,0.0277
2868.00,0.0276
2867.00,0.0276
2866.00,0.0278
2865.00,0.0284
2864.00,0.0294
2863.00,0.0307
2862.00,0.0324
2861.00,0.0343
2860.00,0.0364
2859.00,0.0384
2858.00,0.0401
2857.00,0.0413
2856.00,0.0420
2855.00,0.0423
2854.00,0.0421
2853.00,0.0416
2852.00,0.0407
2851.00,0.0394
2850.00,0.0377
2849.00,0.0356
2848.00,0.0333
2847.00,0.0311
2846.00,0.0289
2845.00,0.0270
2844.00,0.0252
2843.00,0.0236
2842.00,0.0222
2841.00,0.0209
2840.00,0.0198
2839.00,0.0189
2838.00,0.0181
2837.00,0.0174
2836.00,0.0168
2835.00,0.0163
2834.00,0.0158
2833.00,0.0154
2832.00,0.0150
2831.00,0.0146
2830.00,0.0143
2829.00,0.0140
2828.00,0.0137
2827.00,0.0134
2826.00,0.0131
2825.00,0.0129
2824.00,0.0127
2823.00,0.0125
2822.00,0.0123
2821.00,0.0121
2820.00,0.0119
2819.00,0.0118
2818.00,0.0116
2817.00,0.0115
2816.00,0.0113
2815.00,0.0112
2814.00,0.0111
2813.00,0.0110
2812.00,0.0109
2811.00,0.0108
2810.00,0.0107
2809.00,0.0107
2808.00,0.0106
2807.00,0.0105
2806.00,0.0105
2805.00,0.0104
2804.00,0.0104
2803.00,0.0103
2802.00,0.0102
2801.00,0.0102
2800.00,0.0101
2799.00,0.0100
2798.00,0.0099
2797.00,0.0098
2796.00,0.0098
2795.00,0.0097
2794.00,0.0096
2793.00,0.0095
2792.00,0.0095
2791.00,0.0094
2790.00,0.0093
2789.00,0.0093
2788.00,0.0092
2787.00,0.0092
2786.00,0.0091
2785.00,0.0091
2784.00,0.0090
2783.00,0.0090
2782.00,0.0090
2781.00,0.0089
2780.00,0.0089
2779.00,0.0089
2778.00,0.0088
2777.00,0.0087
2776.00,0.0087
2775.00,0.0087
2774.00,0.0086
2773.00,0.0086
2772.00,0.0086
2771.00,0.0086
2770.00,0.0086
2769.00,0.0086
2768.00,0.0086
2767.00,0.0086
2766.00,0.0086
2765.00,0.0085
2764.00,0.0085
2763.00,0.0085
2762.00,0.0085
2761.00,0.0085
2760.00,0.0085
2759.00,0.0085
2758.00,0.0085
2757.00,0.0085
