Created as New Dataset,Sample 989 By YargerLab Date Wednesday, July 30 2025
cm-1,A
4000.00,0.0030
3999.00,0.0030
3998.00,0.0030
3997.00,0.0030
3996.00,0.0029
3995.00,0.0029
3994.00,0.0029
3993.00,0.0029
3992.00,0.0030
3991.00,0.0030
3990.00,0.0030
3989.00,0.0030
3988.00,0.0030
3987.00,0.0030
3986.00,0.0030
3985.00,0.0030
3984.00,0.0030
3983.00,0.0030
3982.00,0.0030
3981.00,0.0030
3980.00,0.0030
3979.00,0.0030
3978.00,0.0030
3977.00,0.0030
3976.00,0.0030
3975.00,0.0030
3974.00,0.0030
3973.00,0.0030
3972.00,0.0030
3971.00,0.0030
3970.00,0.0030
3969.00,0.0030
3968.00,0.0029
3967.00,0.0029
3966.00,0.0029
3965.00,0.0029
3964.00,0.0029
3963.00,0.0029
3962.00,0.0030
3961.00,0.0030
3960.00,0.0030
3959.00,0.0030
3958.00,0.0030
3957.00,0.0030
3956.00,0.0030
3955.00,0.0030
3954.00,0.0029
3953.00,0.0029
3952.00,0.0029
3951.00,0.0029
3950.00,0.0029
3949.00,0.0029
3948.00,0.0029
3947.00,0.0029
3946.00,0.0030
3945.00,0.0029
3944.00,0.0029
3943.00,0.0029
3942.00,0.0029
3941.00,0.0028
3940.00,0.0028
3939.00,0.0028
3938.00,0.0029
3937.00,0.0029
3936.00,0.0029
3935.00,0.0029
3934.00,0.0030
3933.00,0.0029
3932.00,0.0029
3931.00,0.0029
3930.00,0.0029
3929.00,0.0029
3928.00,0.0029
3927.00,0.0029
3926.00,0.0029
3925.00,0.0029
3924.00,0.0029
3923.00,0.0029
3922.00,0.0029
3921.00,0.0029
3920.00,0.0030
3919.00,0.0029
3918.00,0.0029
3917.00,0.0029
3916.00,0.0029
3915.00,0.0029
3914.00,0.0029
3913.00,0.0029
3912.00,0.0029
3911.00,0.0029
3910.00,0.0029
3909.00,0.0030
3908.00,0.0030
3907.00,0.0030
3906.00,0.0030
3905.00,0.0030
3904.00,0.0030
3903.00,0.0030
3902.00,0.0030
3901.00,0.0030
3900.00,0.0029
3899.00,0.0029
3898.00,0.0029
3897.00,0.0029
3896.00,0.0029
3895.00,0.0029
3894.00,0.0029
3893.00,0.0029
3892.00,0.0028
3891.00,0.0028
3890.00,0.0029
3889.00,0.0029
3888.00,0.0030
3887.00,0.0030
3886.00,0.0030
3885.00,0.0030
3884.00,0.0029
3883.00,0.0029
3882.00,0.0029
3881.00,0.0029
3880.00,0.0029
3879.00,0.0029
3878.00,0.0029
3877.00,0.0029
3876.00,0.0029
3875.00,0.0029
3874.00,0.0029
3873.00,0.0029
3872.00,0.0030
3871.00,0.0029
3870.00,0.0029
3869.00,0.0029
3868.00,0.0029
3867.00,0.0029
3866.00,0.0029
3865.00,0.0029
3864.00,0.0029
3863.00,0.0029
3862.00,0.0029
3861.00,0.0029
3860.00,0.0029
3859.00,0.0029
3858.00,0.0029
3857.00,0.0029
3856.00,0.0029
3855.00,0.0029
3854.00,0.0028
3853.00,0.0028
3852.00,0.0028
3851.00,0.0029
3850.00,0.0029
3849.00,0.0029
3848.00,0.0029
3847.00,0.0029
3846.00,0.0029
3845.00,0.0029
3844.00,0.0029
3843.00,0.0029
3842.00,0.0029
3841.00,0.0030
3840.00,0.0030
3839.00,0.0030
3838.00,0.0030
3837.00,0.0030
3836.00,0.0030
3835.00,0.0030
3834.00,0.0029
3833.00,0.0029
3832.00,0.0029
3831.00,0.0029
3830.00,0.0029
3829.00,0.0029
3828.00,0.0029
3827.00,0.0029
3826.00,0.0029
3825.00,0.0029
3824.00,0.0030
3823.00,0.0030
3822.00,0.0030
3821.00,0.0029
3820.00,0.0029
3819.00,0.0029
3818.00,0.0029
3817.00,0.0029
3816.00,0.0029
3815.00,0.0029
3814.00,0.0029
3813.00,0.0029
3812.00,0.0029
3811.00,0.0029
3810.00,0.0029
3809.00,0.0029
3808.00,0.0029
3807.00,0.0029
3806.00,0.0030
3805.00,0.0030
3804.00,0.0030
3803.00,0.0030
3802.00,0.0029
3801.00,0.0029
3800.00,0.0029
3799.00,0.0029
3798.00,0.0029
3797.00,0.0029
3796.00,0.0028
3795.00,0.0028
3794.00,0.0028
3793.00,0.0028
3792.00,0.0028
3791.00,0.0028
3790.00,0.0029
3789.00,0.0029
3788.00,0.0029
3787.00,0.0029
3786.00,0.0029
3785.00,0.0029
3784.00,0.0029
3783.00,0.0029
3782.00,0.0030
3781.00,0.0030
3780.00,0.0030
3779.00,0.0029
3778.00,0.0029
3777.00,0.0029
3776.00,0.0029
3775.00,0.0029
3774.00,0.0029
3773.00,0.0029
3772.00,0.0029
3771.00,0.0029
3770.00,0.0029
3769.00,0.0029
3768.00,0.0030
3767.00,0.0030
3766.00,0.0030
3765.00,0.0030
3764.00,0.0030
3763.00,0.0030
3762.00,0.0030
3761.00,0.0030
3760.00,0.0030
3759.00,0.0030
3758.00,0.0030
3757.00,0.0030
3756.00,0.0030
3755.00,0.0030
3754.00,0.0030
3753.00,0.0030
3752.00,0.0030
3751.00,0.0030
3750.00,0.0030
3749.00,0.0030
3748.00,0.0030
3747.00,0.0030
3746.00,0.0030
3745.00,0.0030
3744.00,0.0030
3743.00,0.0030
3742.00,0.0030
3741.00,0.0030
3740.00,0.0029
3739.00,0.0029
3738.00,0.0029
3737.00,0.0029
3736.00,0.0029
3735.00,0.0029
3734.00,0.0029
3733.00,0.0028
3732.00,0.0028
3731.00,0.0028
3730.00,0.0028
3729.00,0.0028
3728.00,0.0028
3727.00,0.0028
3726.00,0.0028
3725.00,0.0028
3724.00,0.0028
3723.00,0.0028
3722.00,0.0028
3721.00,0.0028
3720.00,0.0028
3719.00,0.0028
3718.00,0.0028
3717.00,0.0028
3716.00,0.0029
3715.00,0.0029
3714.00,0.0030
3713.00,0.0030
3712.00,0.0030
3711.00,0.0029
3710.00,0.0029
3709.00,0.0028
3708.00,0.0028
3707.00,0.0028
3706.00,0.0028
3705.00,0.0028
3704.00,0.0028
3703.00,0.0028
3702.00,0.0028
3701.00,0.0028
3700.00,0.0028
3699.00,0.0028
3698.00,0.0028
3697.00,0.0029
3696.00,0.0029
3695.00,0.0029
3694.00,0.0029
3693.00,0.0029
3692.00,0.0029
3691.00,0.0029
3690.00,0.0029
3689.00,0.0029
3688.00,0.0029
3687.00,0.0029
3686.00,0.0030
3685.00,0.0030
3684.00,0.0030
3683.00,0.0031
3682.00,0.0031
3681.00,0.0032
3680.00,0.0032
3679.00,0.0032
3678.00,0.0032
3677.00,0.0033
3676.00,0.0033
3675.00,0.0033
3674.00,0.0033
3673.00,0.0034
3672.00,0.0034
3671.00,0.0034
3670.00,0.0034
3669.00,0.0034
3668.00,0.0034
3667.00,0.0035
3666.00,0.0035
3665.00,0.0035
3664.00,0.0035
3663.00,0.0036
3662.00,0.0036
3661.00,0.0036
3660.00,0.0037
3659.00,0.0037
3658.00,0.0037
3657.00,0.0038
3656.00,0.0038
3655.00,0.0039
3654.00,0.0039
3653.00,0.0039
3652.00,0.0040
3651.00,0.0040
3650.00,0.0041
3649.00,0.0041
3648.00,0.0042
3647.00,0.0042
3646.00,0.0043
3645.00,0.0043
3644.00,0.0043
3643.00,0.0044
3642.00,0.0044
3641.00,0.0045
3640.00,0.0045
3639.00,0.0046
3638.00,0.0046
3637.00,0.0046
3636.00,0.0047
3635.00,0.0047
3634.00,0.0047
3633.00,0.0048
3632.00,0.0048
3631.00,0.0049
3630.00,0.0050
3629.00,0.0050
3628.00,0.0052
3627.00,0.0052
3626.00,0.0053
3625.00,0.0053
3624.00,0.0053
3623.00,0.0054
3622.00,0.0054
3621.00,0.0055
3620.00,0.0056
3619.00,0.0056
3618.00,0.0057
3617.00,0.0058
3616.00,0.0059
3615.00,0.0060
3614.00,0.0061
3613.00,0.0062
3612.00,0.0062
3611.00,0.0063
3610.00,0.0063
3609.00,0.0063
3608.00,0.0064
3607.00,0.0065
3606.00,0.0065
3605.00,0.0066
3604.00,0.0067
3603.00,0.0067
3602.00,0.0068
3601.00,0.0068
3600.00,0.0069
3599.00,0.0070
3598.00,0.0071
3597.00,0.0071
3596.00,0.0072
3595.00,0.0072
3594.00,0.0073
3593.00,0.0074
3592.00,0.0074
3591.00,0.0075
3590.00,0.0075
3589.00,0.0076
3588.00,0.0077
3587.00,0.0078
3586.00,0.0079
3585.00,0.0080
3584.00,0.0081
3583.00,0.0082
3582.00,0.0082
3581.00,0.0083
3580.00,0.0084
3579.00,0.0085
3578.00,0.0086
3577.00,0.0087
3576.00,0.0088
3575.00,0.0089
3574.00,0.0089
3573.00,0.0090
3572.00,0.0091
3571.00,0.0092
3570.00,0.0093
3569.00,0.0093
3568.00,0.0094
3567.00,0.0095
3566.00,0.0096
3565.00,0.0097
3564.00,0.0098
3563.00,0.0099
3562.00,0.0100
3561.00,0.0101
3560.00,0.0102
3559.00,0.0103
3558.00,0.0104
3557.00,0.0105
3556.00,0.0105
3555.00,0.0106
3554.00,0.0107
3553.00,0.0107
3552.00,0.0108
3551.00,0.0109
3550.00,0.0110
3549.00,0.0111
3548.00,0.0112
3547.00,0.0113
3546.00,0.0114
3545.00,0.0115
3544.00,0.0115
3543.00,0.0116
3542.00,0.0117
3541.00,0.0117
3540.00,0.0118
3539.00,0.0119
3538.00,0.0120
3537.00,0.0121
3536.00,0.0122
3535.00,0.0123
3534.00,0.0124
3533.00,0.0124
3532.00,0.0125
3531.00,0.0126
3530.00,0.0127
3529.00,0.0127
3528.00,0.0129
3527.00,0.0130
3526.00,0.0131
3525.00,0.0131
3524.00,0.0132
3523.00,0.0133
3522.00,0.0134
3521.00,0.0135
3520.00,0.0136
3519.00,0.0137
3518.00,0.0137
3517.00,0.0138
3516.00,0.0139
3515.00,0.0140
3514.00,0.0141
3513.00,0.0142
3512.00,0.0142
3511.00,0.0143
3510.00,0.0144
3509.00,0.0145
3508.00,0.0146
3507.00,0.0147
3506.00,0.0148
3505.00,0.0148
3504.00,0.0150
3503.00,0.0151
3502.00,0.0152
3501.00,0.0153
3500.00,0.0153
3499.00,0.0154
3498.00,0.0155
3497.00,0.0155
3496.00,0.0156
3495.00,0.0157
3494.00,0.0158
3493.00,0.0159
3492.00,0.0159
3491.00,0.0160
3490.00,0.0161
3489.00,0.0162
3488.00,0.0163
3487.00,0.0164
3486.00,0.0165
3485.00,0.0166
3484.00,0.0166
3483.00,0.0167
3482.00,0.0168
3481.00,0.0170
3480.00,0.0171
3479.00,0.0172
3478.00,0.0172
3477.00,0.0173
3476.00,0.0173
3475.00,0.0174
3474.00,0.0175
3473.00,0.0176
3472.00,0.0177
3471.00,0.0178
3470.00,0.0179
3469.00,0.0180
3468.00,0.0180
3467.00,0.0181
3466.00,0.0182
3465.00,0.0183
3464.00,0.0184
3463.00,0.0184
3462.00,0.0185
3461.00,0.0186
3460.00,0.0187
3459.00,0.0188
3458.00,0.0189
3457.00,0.0189
3456.00,0.0190
3455.00,0.0191
3454.00,0.0192
3453.00,0.0193
3452.00,0.0194
3451.00,0.0194
3450.00,0.0195
3449.00,0.0196
3448.00,0.0197
3447.00,0.0198
3446.00,0.0200
3445.00,0.0200
3444.00,0.0201
3443.00,0.0202
3442.00,0.0202
3441.00,0.0204
3440.00,0.0205
3439.00,0.0206
3438.00,0.0207
3437.00,0.0208
3436.00,0.0209
3435.00,0.0210
3434.00,0.0211
3433.00,0.0212
3432.00,0.0213
3431.00,0.0214
3430.00,0.0215
3429.00,0.0216
3428.00,0.0218
3427.00,0.0219
3426.00,0.0220
3425.00,0.0220
3424.00,0.0221
3423.00,0.0222
3422.00,0.0223
3421.00,0.0224
3420.00,0.0225
3419.00,0.0226
3418.00,0.0227
3417.00,0.0228
3416.00,0.0229
3415.00,0.0230
3414.00,0.0231
3413.00,0.0232
3412.00,0.0233
3411.00,0.0234
3410.00,0.0234
3409.00,0.0235
3408.00,0.0236
3407.00,0.0237
3406.00,0.0238
3405.00,0.0240
3404.00,0.0241
3403.00,0.0242
3402.00,0.0242
3401.00,0.0243
3400.00,0.0244
3399.00,0.0245
3398.00,0.0245
3397.00,0.0246
3396.00,0.0247
3395.00,0.0248
3394.00,0.0249
3393.00,0.0250
3392.00,0.0251
3391.00,0.0252
3390.00,0.0253
3389.00,0.0254
3388.00,0.0255
3387.00,0.0256
3386.00,0.0257
3385.00,0.0258
3384.00,0.0259
3383.00,0.0260
3382.00,0.0261
3381.00,0.0261
3380.00,0.0262
3379.00,0.0263
3378.00,0.0264
3377.00,0.0265
3376.00,0.0267
3375.00,0.0268
3374.00,0.0269
3373.00,0.0270
3372.00,0.0271
3371.00,0.0272
3370.00,0.0273
3369.00,0.0274
3368.00,0.0275
3367.00,0.0276
3366.00,0.0277
3365.00,0.0278
3364.00,0.0280
3363.00,0.0281
3362.00,0.0283
3361.00,0.0284
3360.00,0.0285
3359.00,0.0287
3358.00,0.0288
3357.00,0.0289
3356.00,0.0290
3355.00,0.0291
3354.00,0.0292
3353.00,0.0293
3352.00,0.0294
3351.00,0.0296
3350.00,0.0297
3349.00,0.0299
3348.00,0.0300
3347.00,0.0301
3346.00,0.0303
3345.00,0.0304
3344.00,0.0305
3343.00,0.0307
3342.00,0.0308
3341.00,0.0310
3340.00,0.0311
3339.00,0.0312
3338.00,0.0314
3337.00,0.0315
3336.00,0.0317
3335.00,0.0318
3334.00,0.0320
3333.00,0.0322
3332.00,0.0323
3331.00,0.0325
3330.00,0.0326
3329.00,0.0328
3328.00,0.0329
3327.00,0.0331
3326.00,0.0332
3325.00,0.0334
3324.00,0.0336
3323.00,0.0338
3322.00,0.0339
3321.00,0.0341
3320.00,0.0343
3319.00,0.0345
3318.00,0.0347
3317.00,0.0348
3316.00,0.0350
3315.00,0.0352
3314.00,0.0353
3313.00,0.0355
3312.00,0.0357
3311.00,0.0358
3310.00,0.0360
3309.00,0.0361
3308.00,0.0363
3307.00,0.0365
3306.00,0.0367
3305.00,0.0369
3304.00,0.0371
3303.00,0.0373
3302.00,0.0374
3301.00,0.0376
3300.00,0.0378
3299.00,0.0380
3298.00,0.0381
3297.00,0.0382
3296.00,0.0383
3295.00,0.0385
3294.00,0.0386
3293.00,0.0388
3292.00,0.0389
3291.00,0.0391
3290.00,0.0392
3289.00,0.0394
3288.00,0.0395
3287.00,0.0396
3286.00,0.0396
3285.00,0.0397
3284.00,0.0398
3283.00,0.0399
3282.00,0.0399
3281.00,0.0400
3280.00,0.0400
3279.00,0.0400
3278.00,0.0400
3277.00,0.0400
3276.00,0.0399
3275.00,0.0399
3274.00,0.0398
3273.00,0.0397
3272.00,0.0396
3271.00,0.0396
3270.00,0.0395
3269.00,0.0394
3268.00,0.0393
3267.00,0.0392
3266.00,0.0391
3265.00,0.0390
3264.00,0.0388
3263.00,0.0387
3262.00,0.0385
3261.00,0.0383
3260.00,0.0382
3259.00,0.0380
3258.00,0.0378
3257.00,0.0376
3256.00,0.0374
3255.00,0.0372
3254.00,0.0371
3253.00,0.0369
3252.00,0.0368
3251.00,0.0366
3250.00,0.0364
3249.00,0.0362
3248.00,0.0360
3247.00,0.0358
3246.00,0.0357
3245.00,0.0355
3244.00,0.0354
3243.00,0.0353
3242.00,0.0351
3241.00,0.0350
3240.00,0.0348
3239.00,0.0347
3238.00,0.0345
3237.00,0.0344
3236.00,0.0342
3235.00,0.0340
3234.00,0.0338
3233.00,0.0337
3232.00,0.0336
3231.00,0.0336
3230.00,0.0335
3229.00,0.0334
3228.00,0.0334
3227.00,0.0332
3226.00,0.0331
3225.00,0.0330
3224.00,0.0329
3223.00,0.0327
3222.00,0.0326
3221.00,0.0325
3220.00,0.0324
3219.00,0.0323
3218.00,0.0322
3217.00,0.0321
3216.00,0.0320
3215.00,0.0319
3214.00,0.0318
3213.00,0.0317
3212.00,0.0316
3211.00,0.0315
3210.00,0.0314
3209.00,0.0313
3208.00,0.0312
3207.00,0.0311
3206.00,0.0311
3205.00,0.0310
3204.00,0.0309
3203.00,0.0308
3202.00,0.0307
3201.00,0.0305
3200.00,0.0304
3199.00,0.0303
3198.00,0.0302
3197.00,0.0301
3196.00,0.0300
3195.00,0.0299
3194.00,0.0298
3193.00,0.0297
3192.00,0.0295
3191.00,0.0294
3190.00,0.0293
3189.00,0.0292
3188.00,0.0291
3187.00,0.0290
3186.00,0.0289
3185.00,0.0288
3184.00,0.0286
3183.00,0.0285
3182.00,0.0284
3181.00,0.0283
3180.00,0.0282
3179.00,0.0281
3178.00,0.0280
3177.00,0.0278
3176.00,0.0277
3175.00,0.0276
3174.00,0.0274
3173.00,0.0273
3172.00,0.0272
3171.00,0.0271
3170.00,0.0270
3169.00,0.0269
3168.00,0.0268
3167.00,0.0266
3166.00,0.0265
3165.00,0.0264
3164.00,0.0263
3163.00,0.0262
3162.00,0.0261
3161.00,0.0260
3160.00,0.0259
3159.00,0.0257
3158.00,0.0256
3157.00,0.0255
3156.00,0.0254
3155.00,0.0253
3154.00,0.0252
3153.00,0.0251
3152.00,0.0250
3151.00,0.0249
3150.00,0.0248
3149.00,0.0247
3148.00,0.0246
3147.00,0.0245
3146.00,0.0244
3145.00,0.0243
3144.00,0.0242
3143.00,0.0241
3142.00,0.0240
3141.00,0.0239
3140.00,0.0239
3139.00,0.0238
3138.00,0.0237
3137.00,0.0237
3136.00,0.0236
3135.00,0.0235
3134.00,0.0235
3133.00,0.0234
3132.00,0.0233
3131.00,0.0233
3130.00,0.0232
3129.00,0.0232
3128.00,0.0231
3127.00,0.0230
3126.00,0.0230
3125.00,0.0229
3124.00,0.0228
3123.00,0.0228
3122.00,0.0227
3121.00,0.0226
3120.00,0.0226
3119.00,0.0225
3118.00,0.0225
3117.00,0.0225
3116.00,0.0225
3115.00,0.0225
3114.00,0.0225
3113.00,0.0225
3112.00,0.0225
3111.00,0.0224
3110.00,0.0224
3109.00,0.0224
3108.00,0.0224
3107.00,0.0224
3106.00,0.0225
3105.00,0.0225
3104.00,0.0225
3103.00,0.0225
3102.00,0.0224
3101.00,0.0224
3100.00,0.0225
3099.00,0.0225
3098.00,0.0225
3097.00,0.0225
3096.00,0.0226
3095.00,0.0226
3094.00,0.0226
3093.00,0.0226
3092.00,0.0226
3091.00,0.0226
3090.00,0.0226
3089.00,0.0227
3088.00,0.0227
3087.00,0.0227
3086.00,0.0227
3085.00,0.0227
3084.00,0.0227
3083.00,0.0227
3082.00,0.0226
3081.00,0.0226
3080.00,0.0226
3079.00,0.0226
3078.00,0.0227
3077.00,0.0227
3076.00,0.0228
3075.00,0.0228
3074.00,0.0228
3073.00,0.0228
3072.00,0.0228
3071.00,0.0228
3070.00,0.0227
3069.00,0.0226
3068.00,0.0226
3067.00,0.0226
3066.00,0.0226
3065.00,0.0226
3064.00,0.0225
3063.00,0.0225
3062.00,0.0225
3061.00,0.0224
3060.00,0.0223
3059.00,0.0222
3058.00,0.0221
3057.00,0.0220
3056.00,0.0219
3055.00,0.0218
3054.00,0.0217
3053.00,0.0216
3052.00,0.0215
3051.00,0.0215
3050.00,0.0214
3049.00,0.0213
3048.00,0.0212
3047.00,0.0211
3046.00,0.0210
3045.00,0.0209
3044.00,0.0208
3043.00,0.0207
3042.00,0.0206
3041.00,0.0206
3040.00,0.0205
3039.00,0.0205
3038.00,0.0204
3037.00,0.0203
3036.00,0.0202
3035.00,0.0200
3034.00,0.0200
3033.00,0.0199
3032.00,0.0199
3031.00,0.0198
3030.00,0.0197
3029.00,0.0197
3028.00,0.0196
3027.00,0.0195
3026.00,0.0194
3025.00,0.0193
3024.00,0.0192
3023.00,0.0192
3022.00,0.0191
3021.00,0.0190
3020.00,0.0189
3019.00,0.0188
3018.00,0.0187
3017.00,0.0186
3016.00,0.0185
3015.00,0.0184
3014.00,0.0184
3013.00,0.0183
3012.00,0.0183
3011.00,0.0183
3010.00,0.0183
3009.00,0.0182
3008.00,0.0182
3007.00,0.0182
3006.00,0.0182
3005.00,0.0182
3004.00,0.0182
3003.00,0.0181
3002.00,0.0181
3001.00,0.0181
3000.00,0.0181
2999.00,0.0181
2998.00,0.0181
2997.00,0.0182
2996.00,0.0183
2995.00,0.0184
2994.00,0.0185
2993.00,0.0186
2992.00,0.0187
2991.00,0.0188
2990.00,0.0190
2989.00,0.0191
2988.00,0.0193
2987.00,0.0195
2986.00,0.0197
2985.00,0.0199
2984.00,0.0200
2983.00,0.0202
2982.00,0.0204
2981.00,0.0206
2980.00,0.0209
2979.00,0.0212
2978.00,0.0215
2977.00,0.0217
2976.00,0.0220
2975.00,0.0223
2974.00,0.0226
2973.00,0.0228
2972.00,0.0231
2971.00,0.0234
2970.00,0.0236
2969.00,0.0238
2968.00,0.0240
2967.00,0.0242
2966.00,0.0244
2965.00,0.0246
2964.00,0.0247
2963.00,0.0248
2962.00,0.0249
2961.00,0.0249
2960.00,0.0249
2959.00,0.0249
2958.00,0.0249
2957.00,0.0248
2956.00,0.0247
2955.00,0.0246
2954.00,0.0245
2953.00,0.0244
2952.00,0.0243
2951.00,0.0243
2950.00,0.0243
2949.00,0.0242
2948.00,0.0242
2947.00,0.0242
2946.00,0.0243
2945.00,0.0244
2944.00,0.0246
2943.00,0.0247
2942.00,0.0249
2941.00,0.0251
2940.00,0.0253
2939.00,0.0255
2938.00,0.0257
2937.00,0.0259
2936.00,0.0260
2935.00,0.0262
2934.00,0.0263
2933.00,0.0264
2932.00,0.0265
2931.00,0.0265
2930.00,0.0265
2929.00,0.0265
2928.00,0.0265
2927.00,0.0264
2926.00,0.0263
2925.00,0.0261
2924.00,0.0260
2923.00,0.0257
2922.00,0.0255
2921.00,0.0252
2920.00,0.0249
2919.00,0.0246
2918.00,0.0242
2917.00,0.0239
2916.00,0.0236
2915.00,0.0234
2914.00,0.0233
2913.00,0.0231
2912.00,0.0230
2911.00,0.0229
2910.00,0.0228
2909.00,0.0226
2908.00,0.0224
2907.00,0.0223
2906.00,0.0221
2905.00,0.0219
2904.00,0.0218
2903.00,0.0216
2902.00,0.0215
2901.00,0.0214
2900.00,0.0212
2899.00,0.0211
2898.00,0.0210
2897.00,0.0209
2896.00,0.0207
2895.00,0.0206
2894.00,0.0205
2893.00,0.0205
2892.00,0.0204
2891.00,0.0203
2890.00,0.0203
2889.00,0.0202
2888.00,0.0202
2887.00,0.0202
2886.00,0.0202
2885.00,0.0202
2884.00,0.0202
2883.00,0.0203
2882.00,0.0204
2881.00,0.0204
2880.00,0.0205
2879.00,0.0205
2878.00,0.0206
2877.00,0.0206
2876.00,0.0207
2875.00,0.0207
2874.00,0.0206
2873.00,0.0205
2872.00,0.0205
2871.00,0.0203
2870.00,0.0202
2869.00,0.0201
2868.00,0.0199
2867.00,0.0197
2866.00,0.0196
2865.00,0.0194
2864.00,0.0193
2863.00,0.0192
2862.00,0.0191
2861.00,0.0190
2860.00,0.0189
2859.00,0.0189
2858.00,0.0188
2857.00,0.0188
2856.00,0.0187
2855.00,0.0186
2854.00,0.0184
2853.00,0.0182
2852.00,0.0179
2851.00,0.0176
2850.00,0.0173
2849.00,0.0170
2848.00,0.0168
2847.00,0.0166
2846.00,0.0164
2845.00,0.0163
2844.00,0.0161
2843.00,0.0160
2842.00,0.0158
2841.00,0.0156
2840.00,0.0155
2839.00,0.0153
2838.00,0.0152
2837.00,0.0151
2836.00,0.0150
2835.00,0.0149
2834.00,0.0148
2833.00,0.0147
2832.00,0.0147
2831.00,0.0146
2830.00,0.0146
2829.00,0.0145
2828.00,0.0144
2827.00,0.0143
2826.00,0.0143
2825.00,0.0142
2824.00,0.0141
2823.00,0.0141
2822.00,0.0141
2821.00,0.0140
2820.00,0.0140
2819.00,0.0139
2818.00,0.0139
2817.00,0.0138
2816.00,0.0138
2815.00,0.0137
2814.00,0.0137
2813.00,0.0136
2812.00,0.0136
2811.00,0.0135
2810.00,0.0135
2809.00,0.0134
2808.00,0.0134
2807.00,0.0133
2806.00,0.0133
2805.00,0.0133
2804.00,0.0132
2803.00,0.0132
2802.00,0.0131
2801.00,0.0131
2800.00,0.0130
2799.00,0.0130
2798.00,0.0130
2797.00,0.0129
2796.00,0.0129
2795.00,0.0129
2794.00,0.0128
2793.00,0.0128
2792.00,0.0128
2791.00,0.0127
2790.00,0.0127
2789.00,0.0126
2788.00,0.0126
2787.00,0.0126
2786.00,0.0125
2785.00,0.0125
2784.00,0.0124
2783.00,0.0123
2782.00,0.0123
2781.00,0.0123
2780.00,0.0122
2779.00,0.0122
2778.00,0.0122
2777.00,0.0122
2776.00,0.0122
2775.00,0.0121
2774.00,0.0121
2773.00,0.0121
2772.00,0.0120
2771.00,0.0120
2770.00,0.0120
2769.00,0.0119
2768.00,0.0118
2767.00,0.0118
2766.00,0.0118
2765.00,0.0117
2764.00,0.0117
2763.00,0.0117
2762.00,0.0116
2761.00,0.0116
2760.00,0.0116
2759.00,0.0115
2758.00,0.0115
2757.00,0.0115
