Created as New Dataset,Sample 547 By YargerLab Date Wednesday, June 04 2025
cm-1,A
4000.00,0.0009
3999.00,0.0009
3998.00,0.0009
3997.00,0.0009
3996.00,0.0009
3995.00,0.0009
3994.00,0.0009
3993.00,0.0009
3992.00,0.0009
3991.00,0.0009
3990.00,0.0009
3989.00,0.0009
3988.00,0.0009
3987.00,0.0009
3986.00,0.0009
3985.00,0.0009
3984.00,0.0009
3983.00,0.0009
3982.00,0.0009
3981.00,0.0009
3980.00,0.0010
3979.00,0.0010
3978.00,0.0010
3977.00,0.0009
3976.00,0.0009
3975.00,0.0009
3974.00,0.0009
3973.00,0.0009
3972.00,0.0009
3971.00,0.0009
3970.00,0.0009
3969.00,0.0009
3968.00,0.0009
3967.00,0.0009
3966.00,0.0009
3965.00,0.0009
3964.00,0.0009
3963.00,0.0009
3962.00,0.0009
3961.00,0.0009
3960.00,0.0009
3959.00,0.0009
3958.00,0.0009
3957.00,0.0009
3956.00,0.0009
3955.00,0.0009
3954.00,0.0009
3953.00,0.0009
3952.00,0.0009
3951.00,0.0009
3950.00,0.0009
3949.00,0.0009
3948.00,0.0009
3947.00,0.0008
3946.00,0.0008
3945.00,0.0008
3944.00,0.0008
3943.00,0.0008
3942.00,0.0008
3941.00,0.0009
3940.00,0.0009
3939.00,0.0009
3938.00,0.0009
3937.00,0.0009
3936.00,0.0009
3935.00,0.0009
3934.00,0.0009
3933.00,0.0009
3932.00,0.0009
3931.00,0.0009
3930.00,0.0009
3929.00,0.0009
3928.00,0.0009
3927.00,0.0009
3926.00,0.0008
3925.00,0.0008
3924.00,0.0008
3923.00,0.0008
3922.00,0.0008
3921.00,0.0008
3920.00,0.0008
3919.00,0.0008
3918.00,0.0008
3917.00,0.0008
3916.00,0.0008
3915.00,0.0008
3914.00,0.0008
3913.00,0.0008
3912.00,0.0008
3911.00,0.0008
3910.00,0.0009
3909.00,0.0009
3908.00,0.0009
3907.00,0.0009
3906.00,0.0009
3905.00,0.0009
3904.00,0.0009
3903.00,0.0008
3902.00,0.0008
3901.00,0.0008
3900.00,0.0007
3899.00,0.0007
3898.00,0.0007
3897.00,0.0008
3896.00,0.0008
3895.00,0.0009
3894.00,0.0009
3893.00,0.0009
3892.00,0.0009
3891.00,0.0009
3890.00,0.0009
3889.00,0.0009
3888.00,0.0008
3887.00,0.0008
3886.00,0.0008
3885.00,0.0008
3884.00,0.0008
3883.00,0.0008
3882.00,0.0008
3881.00,0.0008
3880.00,0.0008
3879.00,0.0008
3878.00,0.0008
3877.00,0.0008
3876.00,0.0008
3875.00,0.0008
3874.00,0.0008
3873.00,0.0008
3872.00,0.0008
3871.00,0.0008
3870.00,0.0007
3869.00,0.0007
3868.00,0.0008
3867.00,0.0008
3866.00,0.0007
3865.00,0.0007
3864.00,0.0007
3863.00,0.0008
3862.00,0.0008
3861.00,0.0008
3860.00,0.0008
3859.00,0.0009
3858.00,0.0009
3857.00,0.0009
3856.00,0.0009
3855.00,0.0009
3854.00,0.0008
3853.00,0.0008
3852.00,0.0008
3851.00,0.0008
3850.00,0.0007
3849.00,0.0006
3848.00,0.0006
3847.00,0.0007
3846.00,0.0007
3845.00,0.0008
3844.00,0.0008
3843.00,0.0009
3842.00,0.0009
3841.00,0.0009
3840.00,0.0009
3839.00,0.0009
3838.00,0.0009
3837.00,0.0009
3836.00,0.0009
3835.00,0.0008
3834.00,0.0008
3833.00,0.0008
3832.00,0.0008
3831.00,0.0008
3830.00,0.0008
3829.00,0.0008
3828.00,0.0007
3827.00,0.0007
3826.00,0.0008
3825.00,0.0008
3824.00,0.0009
3823.00,0.0009
3822.00,0.0009
3821.00,0.0009
3820.00,0.0009
3819.00,0.0009
3818.00,0.0009
3817.00,0.0008
3816.00,0.0007
3815.00,0.0007
3814.00,0.0008
3813.00,0.0007
3812.00,0.0007
3811.00,0.0007
3810.00,0.0008
3809.00,0.0008
3808.00,0.0008
3807.00,0.0008
3806.00,0.0009
3805.00,0.0009
3804.00,0.0009
3803.00,0.0008
3802.00,0.0008
3801.00,0.0008
3800.00,0.0009
3799.00,0.0009
3798.00,0.0008
3797.00,0.0008
3796.00,0.0008
3795.00,0.0008
3794.00,0.0008
3793.00,0.0008
3792.00,0.0008
3791.00,0.0008
3790.00,0.0008
3789.00,0.0008
3788.00,0.0008
3787.00,0.0009
3786.00,0.0008
3785.00,0.0008
3784.00,0.0008
3783.00,0.0008
3782.00,0.0008
3781.00,0.0008
3780.00,0.0009
3779.00,0.0009
3778.00,0.0009
3777.00,0.0009
3776.00,0.0008
3775.00,0.0008
3774.00,0.0008
3773.00,0.0009
3772.00,0.0009
3771.00,0.0009
3770.00,0.0009
3769.00,0.0009
3768.00,0.0009
3767.00,0.0009
3766.00,0.0008
3765.00,0.0009
3764.00,0.0009
3763.00,0.0009
3762.00,0.0010
3761.00,0.0010
3760.00,0.0010
3759.00,0.0010
3758.00,0.0010
3757.00,0.0010
3756.00,0.0010
3755.00,0.0010
3754.00,0.0010
3753.00,0.0010
3752.00,0.0010
3751.00,0.0010
3750.00,0.0009
3749.00,0.0010
3748.00,0.0010
3747.00,0.0010
3746.00,0.0009
3745.00,0.0009
3744.00,0.0008
3743.00,0.0009
3742.00,0.0009
3741.00,0.0009
3740.00,0.0009
3739.00,0.0009
3738.00,0.0009
3737.00,0.0009
3736.00,0.0009
3735.00,0.0008
3734.00,0.0008
3733.00,0.0007
3732.00,0.0007
3731.00,0.0008
3730.00,0.0008
3729.00,0.0008
3728.00,0.0009
3727.00,0.0009
3726.00,0.0009
3725.00,0.0009
3724.00,0.0009
3723.00,0.0009
3722.00,0.0009
3721.00,0.0009
3720.00,0.0009
3719.00,0.0009
3718.00,0.0009
3717.00,0.0009
3716.00,0.0010
3715.00,0.0010
3714.00,0.0010
3713.00,0.0010
3712.00,0.0010
3711.00,0.0010
3710.00,0.0009
3709.00,0.0010
3708.00,0.0010
3707.00,0.0010
3706.00,0.0010
3705.00,0.0010
3704.00,0.0011
3703.00,0.0011
3702.00,0.0010
3701.00,0.0010
3700.00,0.0010
3699.00,0.0010
3698.00,0.0010
3697.00,0.0010
3696.00,0.0011
3695.00,0.0011
3694.00,0.0012
3693.00,0.0013
3692.00,0.0013
3691.00,0.0013
3690.00,0.0013
3689.00,0.0013
3688.00,0.0013
3687.00,0.0014
3686.00,0.0014
3685.00,0.0014
3684.00,0.0014
3683.00,0.0015
3682.00,0.0015
3681.00,0.0016
3680.00,0.0017
3679.00,0.0017
3678.00,0.0018
3677.00,0.0018
3676.00,0.0017
3675.00,0.0018
3674.00,0.0019
3673.00,0.0020
3672.00,0.0020
3671.00,0.0020
3670.00,0.0021
3669.00,0.0022
3668.00,0.0022
3667.00,0.0022
3666.00,0.0023
3665.00,0.0023
3664.00,0.0024
3663.00,0.0025
3662.00,0.0025
3661.00,0.0026
3660.00,0.0027
3659.00,0.0028
3658.00,0.0029
3657.00,0.0030
3656.00,0.0031
3655.00,0.0032
3654.00,0.0033
3653.00,0.0033
3652.00,0.0033
3651.00,0.0034
3650.00,0.0035
3649.00,0.0036
3648.00,0.0037
3647.00,0.0037
3646.00,0.0038
3645.00,0.0038
3644.00,0.0039
3643.00,0.0039
3642.00,0.0040
3641.00,0.0041
3640.00,0.0042
3639.00,0.0043
3638.00,0.0044
3637.00,0.0045
3636.00,0.0045
3635.00,0.0046
3634.00,0.0047
3633.00,0.0048
3632.00,0.0049
3631.00,0.0050
3630.00,0.0051
3629.00,0.0052
3628.00,0.0054
3627.00,0.0056
3626.00,0.0057
3625.00,0.0057
3624.00,0.0058
3623.00,0.0059
3622.00,0.0060
3621.00,0.0061
3620.00,0.0062
3619.00,0.0063
3618.00,0.0064
3617.00,0.0065
3616.00,0.0066
3615.00,0.0067
3614.00,0.0068
3613.00,0.0069
3612.00,0.0070
3611.00,0.0071
3610.00,0.0072
3609.00,0.0073
3608.00,0.0074
3607.00,0.0075
3606.00,0.0076
3605.00,0.0077
3604.00,0.0078
3603.00,0.0079
3602.00,0.0080
3601.00,0.0081
3600.00,0.0082
3599.00,0.0084
3598.00,0.0085
3597.00,0.0086
3596.00,0.0087
3595.00,0.0088
3594.00,0.0089
3593.00,0.0091
3592.00,0.0092
3591.00,0.0092
3590.00,0.0093
3589.00,0.0094
3588.00,0.0096
3587.00,0.0098
3586.00,0.0099
3585.00,0.0101
3584.00,0.0101
3583.00,0.0102
3582.00,0.0103
3581.00,0.0104
3580.00,0.0105
3579.00,0.0107
3578.00,0.0108
3577.00,0.0109
3576.00,0.0110
3575.00,0.0112
3574.00,0.0113
3573.00,0.0114
3572.00,0.0115
3571.00,0.0116
3570.00,0.0116
3569.00,0.0117
3568.00,0.0119
3567.00,0.0121
3566.00,0.0123
3565.00,0.0126
3564.00,0.0127
3563.00,0.0128
3562.00,0.0129
3561.00,0.0130
3560.00,0.0131
3559.00,0.0132
3558.00,0.0133
3557.00,0.0134
3556.00,0.0135
3555.00,0.0136
3554.00,0.0138
3553.00,0.0139
3552.00,0.0141
3551.00,0.0142
3550.00,0.0143
3549.00,0.0144
3548.00,0.0145
3547.00,0.0147
3546.00,0.0148
3545.00,0.0150
3544.00,0.0151
3543.00,0.0152
3542.00,0.0153
3541.00,0.0154
3540.00,0.0155
3539.00,0.0156
3538.00,0.0158
3537.00,0.0159
3536.00,0.0161
3535.00,0.0162
3534.00,0.0163
3533.00,0.0164
3532.00,0.0165
3531.00,0.0166
3530.00,0.0167
3529.00,0.0168
3528.00,0.0169
3527.00,0.0170
3526.00,0.0171
3525.00,0.0173
3524.00,0.0174
3523.00,0.0175
3522.00,0.0176
3521.00,0.0178
3520.00,0.0179
3519.00,0.0180
3518.00,0.0181
3517.00,0.0182
3516.00,0.0183
3515.00,0.0184
3514.00,0.0185
3513.00,0.0186
3512.00,0.0187
3511.00,0.0188
3510.00,0.0190
3509.00,0.0191
3508.00,0.0192
3507.00,0.0194
3506.00,0.0194
3505.00,0.0195
3504.00,0.0196
3503.00,0.0198
3502.00,0.0199
3501.00,0.0201
3500.00,0.0202
3499.00,0.0204
3498.00,0.0204
3497.00,0.0205
3496.00,0.0206
3495.00,0.0208
3494.00,0.0209
3493.00,0.0210
3492.00,0.0212
3491.00,0.0213
3490.00,0.0214
3489.00,0.0215
3488.00,0.0216
3487.00,0.0217
3486.00,0.0219
3485.00,0.0220
3484.00,0.0221
3483.00,0.0222
3482.00,0.0223
3481.00,0.0225
3480.00,0.0226
3479.00,0.0227
3478.00,0.0229
3477.00,0.0230
3476.00,0.0231
3475.00,0.0233
3474.00,0.0234
3473.00,0.0235
3472.00,0.0236
3471.00,0.0237
3470.00,0.0238
3469.00,0.0239
3468.00,0.0241
3467.00,0.0242
3466.00,0.0243
3465.00,0.0245
3464.00,0.0246
3463.00,0.0247
3462.00,0.0248
3461.00,0.0249
3460.00,0.0251
3459.00,0.0252
3458.00,0.0253
3457.00,0.0255
3456.00,0.0256
3455.00,0.0257
3454.00,0.0258
3453.00,0.0259
3452.00,0.0261
3451.00,0.0262
3450.00,0.0263
3449.00,0.0264
3448.00,0.0265
3447.00,0.0266
3446.00,0.0267
3445.00,0.0269
3444.00,0.0270
3443.00,0.0272
3442.00,0.0273
3441.00,0.0274
3440.00,0.0276
3439.00,0.0277
3438.00,0.0278
3437.00,0.0280
3436.00,0.0281
3435.00,0.0283
3434.00,0.0284
3433.00,0.0285
3432.00,0.0286
3431.00,0.0287
3430.00,0.0288
3429.00,0.0290
3428.00,0.0291
3427.00,0.0292
3426.00,0.0294
3425.00,0.0295
3424.00,0.0297
3423.00,0.0298
3422.00,0.0299
3421.00,0.0301
3420.00,0.0302
3419.00,0.0303
3418.00,0.0304
3417.00,0.0305
3416.00,0.0306
3415.00,0.0307
3414.00,0.0309
3413.00,0.0310
3412.00,0.0312
3411.00,0.0313
3410.00,0.0314
3409.00,0.0316
3408.00,0.0317
3407.00,0.0319
3406.00,0.0320
3405.00,0.0321
3404.00,0.0322
3403.00,0.0323
3402.00,0.0324
3401.00,0.0325
3400.00,0.0327
3399.00,0.0328
3398.00,0.0330
3397.00,0.0331
3396.00,0.0333
3395.00,0.0334
3394.00,0.0335
3393.00,0.0336
3392.00,0.0337
3391.00,0.0338
3390.00,0.0340
3389.00,0.0341
3388.00,0.0342
3387.00,0.0344
3386.00,0.0345
3385.00,0.0347
3384.00,0.0348
3383.00,0.0349
3382.00,0.0351
3381.00,0.0353
3380.00,0.0354
3379.00,0.0356
3378.00,0.0358
3377.00,0.0359
3376.00,0.0361
3375.00,0.0362
3374.00,0.0364
3373.00,0.0365
3372.00,0.0367
3371.00,0.0368
3370.00,0.0369
3369.00,0.0371
3368.00,0.0373
3367.00,0.0375
3366.00,0.0377
3365.00,0.0379
3364.00,0.0381
3363.00,0.0383
3362.00,0.0384
3361.00,0.0386
3360.00,0.0388
3359.00,0.0391
3358.00,0.0393
3357.00,0.0395
3356.00,0.0397
3355.00,0.0399
3354.00,0.0401
3353.00,0.0403
3352.00,0.0405
3351.00,0.0407
3350.00,0.0409
3349.00,0.0411
3348.00,0.0414
3347.00,0.0416
3346.00,0.0419
3345.00,0.0421
3344.00,0.0423
3343.00,0.0425
3342.00,0.0428
3341.00,0.0430
3340.00,0.0432
3339.00,0.0435
3338.00,0.0437
3337.00,0.0440
3336.00,0.0443
3335.00,0.0446
3334.00,0.0449
3333.00,0.0452
3332.00,0.0455
3331.00,0.0458
3330.00,0.0461
3329.00,0.0463
3328.00,0.0466
3327.00,0.0468
3326.00,0.0471
3325.00,0.0475
3324.00,0.0479
3323.00,0.0483
3322.00,0.0486
3321.00,0.0490
3320.00,0.0494
3319.00,0.0498
3318.00,0.0502
3317.00,0.0506
3316.00,0.0509
3315.00,0.0513
3314.00,0.0516
3313.00,0.0519
3312.00,0.0522
3311.00,0.0526
3310.00,0.0529
3309.00,0.0533
3308.00,0.0536
3307.00,0.0540
3306.00,0.0545
3305.00,0.0549
3304.00,0.0554
3303.00,0.0559
3302.00,0.0564
3301.00,0.0568
3300.00,0.0573
3299.00,0.0576
3298.00,0.0580
3297.00,0.0584
3296.00,0.0587
3295.00,0.0591
3294.00,0.0595
3293.00,0.0599
3292.00,0.0603
3291.00,0.0607
3290.00,0.0611
3289.00,0.0615
3288.00,0.0619
3287.00,0.0623
3286.00,0.0626
3285.00,0.0629
3284.00,0.0632
3283.00,0.0635
3282.00,0.0637
3281.00,0.0639
3280.00,0.0641
3279.00,0.0642
3278.00,0.0643
3277.00,0.0644
3276.00,0.0644
3275.00,0.0644
3274.00,0.0644
3273.00,0.0644
3272.00,0.0643
3271.00,0.0642
3270.00,0.0642
3269.00,0.0641
3268.00,0.0640
3267.00,0.0638
3266.00,0.0636
3265.00,0.0634
3264.00,0.0631
3263.00,0.0628
3262.00,0.0624
3261.00,0.0621
3260.00,0.0617
3259.00,0.0613
3258.00,0.0609
3257.00,0.0604
3256.00,0.0601
3255.00,0.0597
3254.00,0.0594
3253.00,0.0590
3252.00,0.0587
3251.00,0.0582
3250.00,0.0578
3249.00,0.0573
3248.00,0.0568
3247.00,0.0564
3246.00,0.0560
3245.00,0.0557
3244.00,0.0555
3243.00,0.0552
3242.00,0.0548
3241.00,0.0545
3240.00,0.0541
3239.00,0.0537
3238.00,0.0533
3237.00,0.0529
3236.00,0.0525
3235.00,0.0521
3234.00,0.0518
3233.00,0.0516
3232.00,0.0514
3231.00,0.0512
3230.00,0.0510
3229.00,0.0507
3228.00,0.0505
3227.00,0.0502
3226.00,0.0499
3225.00,0.0496
3224.00,0.0494
3223.00,0.0491
3222.00,0.0488
3221.00,0.0485
3220.00,0.0483
3219.00,0.0480
3218.00,0.0478
3217.00,0.0476
3216.00,0.0473
3215.00,0.0471
3214.00,0.0469
3213.00,0.0467
3212.00,0.0465
3211.00,0.0462
3210.00,0.0460
3209.00,0.0457
3208.00,0.0455
3207.00,0.0453
3206.00,0.0451
3205.00,0.0449
3204.00,0.0447
3203.00,0.0444
3202.00,0.0442
3201.00,0.0439
3200.00,0.0437
3199.00,0.0435
3198.00,0.0433
3197.00,0.0431
3196.00,0.0428
3195.00,0.0426
3194.00,0.0424
3193.00,0.0421
3192.00,0.0419
3191.00,0.0417
3190.00,0.0415
3189.00,0.0413
3188.00,0.0410
3187.00,0.0408
3186.00,0.0406
3185.00,0.0404
3184.00,0.0402
3183.00,0.0400
3182.00,0.0398
3181.00,0.0396
3180.00,0.0394
3179.00,0.0391
3178.00,0.0389
3177.00,0.0388
3176.00,0.0385
3175.00,0.0383
3174.00,0.0381
3173.00,0.0379
3172.00,0.0377
3171.00,0.0375
3170.00,0.0373
3169.00,0.0371
3168.00,0.0369
3167.00,0.0367
3166.00,0.0365
3165.00,0.0363
3164.00,0.0362
3163.00,0.0360
3162.00,0.0358
3161.00,0.0357
3160.00,0.0355
3159.00,0.0353
3158.00,0.0351
3157.00,0.0349
3156.00,0.0347
3155.00,0.0345
3154.00,0.0343
3153.00,0.0341
3152.00,0.0340
3151.00,0.0339
3150.00,0.0338
3149.00,0.0336
3148.00,0.0335
3147.00,0.0334
3146.00,0.0332
3145.00,0.0331
3144.00,0.0329
3143.00,0.0328
3142.00,0.0327
3141.00,0.0325
3140.00,0.0324
3139.00,0.0323
3138.00,0.0322
3137.00,0.0321
3136.00,0.0320
3135.00,0.0319
3134.00,0.0318
3133.00,0.0317
3132.00,0.0316
3131.00,0.0315
3130.00,0.0314
3129.00,0.0314
3128.00,0.0313
3127.00,0.0312
3126.00,0.0312
3125.00,0.0311
3124.00,0.0310
3123.00,0.0309
3122.00,0.0307
3121.00,0.0306
3120.00,0.0306
3119.00,0.0305
3118.00,0.0305
3117.00,0.0305
3116.00,0.0305
3115.00,0.0306
3114.00,0.0307
3113.00,0.0307
3112.00,0.0307
3111.00,0.0307
3110.00,0.0307
3109.00,0.0307
3108.00,0.0308
3107.00,0.0309
3106.00,0.0309
3105.00,0.0310
3104.00,0.0310
3103.00,0.0310
3102.00,0.0310
3101.00,0.0311
3100.00,0.0311
3099.00,0.0312
3098.00,0.0314
3097.00,0.0315
3096.00,0.0315
3095.00,0.0316
3094.00,0.0316
3093.00,0.0316
3092.00,0.0316
3091.00,0.0316
3090.00,0.0317
3089.00,0.0318
3088.00,0.0318
3087.00,0.0318
3086.00,0.0318
3085.00,0.0318
3084.00,0.0318
3083.00,0.0318
3082.00,0.0318
3081.00,0.0318
3080.00,0.0318
3079.00,0.0318
3078.00,0.0318
3077.00,0.0319
3076.00,0.0319
3075.00,0.0320
3074.00,0.0319
3073.00,0.0319
3072.00,0.0318
3071.00,0.0317
3070.00,0.0316
3069.00,0.0315
3068.00,0.0314
3067.00,0.0313
3066.00,0.0313
3065.00,0.0312
3064.00,0.0312
3063.00,0.0311
3062.00,0.0310
3061.00,0.0309
3060.00,0.0308
3059.00,0.0306
3058.00,0.0304
3057.00,0.0302
3056.00,0.0300
3055.00,0.0299
3054.00,0.0297
3053.00,0.0295
3052.00,0.0293
3051.00,0.0291
3050.00,0.0290
3049.00,0.0289
3048.00,0.0287
3047.00,0.0285
3046.00,0.0283
3045.00,0.0281
3044.00,0.0278
3043.00,0.0276
3042.00,0.0275
3041.00,0.0274
3040.00,0.0273
3039.00,0.0273
3038.00,0.0272
3037.00,0.0270
3036.00,0.0268
3035.00,0.0266
3034.00,0.0265
3033.00,0.0264
3032.00,0.0263
3031.00,0.0263
3030.00,0.0262
3029.00,0.0261
3028.00,0.0259
3027.00,0.0258
3026.00,0.0256
3025.00,0.0254
3024.00,0.0253
3023.00,0.0251
3022.00,0.0250
3021.00,0.0248
3020.00,0.0246
3019.00,0.0244
3018.00,0.0243
3017.00,0.0241
3016.00,0.0240
3015.00,0.0238
3014.00,0.0237
3013.00,0.0236
3012.00,0.0236
3011.00,0.0236
3010.00,0.0236
3009.00,0.0236
3008.00,0.0236
3007.00,0.0236
3006.00,0.0236
3005.00,0.0235
3004.00,0.0235
3003.00,0.0235
3002.00,0.0235
3001.00,0.0235
3000.00,0.0235
2999.00,0.0235
2998.00,0.0235
2997.00,0.0236
2996.00,0.0238
2995.00,0.0239
2994.00,0.0240
2993.00,0.0242
2992.00,0.0244
2991.00,0.0246
2990.00,0.0249
2989.00,0.0252
2988.00,0.0254
2987.00,0.0257
2986.00,0.0260
2985.00,0.0263
2984.00,0.0266
2983.00,0.0269
2982.00,0.0272
2981.00,0.0276
2980.00,0.0280
2979.00,0.0285
2978.00,0.0289
2977.00,0.0293
2976.00,0.0297
2975.00,0.0301
2974.00,0.0306
2973.00,0.0310
2972.00,0.0315
2971.00,0.0319
2970.00,0.0323
2969.00,0.0327
2968.00,0.0330
2967.00,0.0333
2966.00,0.0336
2965.00,0.0339
2964.00,0.0340
2963.00,0.0342
2962.00,0.0343
2961.00,0.0343
2960.00,0.0343
2959.00,0.0342
2958.00,0.0340
2957.00,0.0338
2956.00,0.0335
2955.00,0.0332
2954.00,0.0329
2953.00,0.0326
2952.00,0.0324
2951.00,0.0322
2950.00,0.0320
2949.00,0.0318
2948.00,0.0318
2947.00,0.0318
2946.00,0.0318
2945.00,0.0320
2944.00,0.0322
2943.00,0.0324
2942.00,0.0327
2941.00,0.0331
2940.00,0.0334
2939.00,0.0338
2938.00,0.0341
2937.00,0.0344
2936.00,0.0347
2935.00,0.0349
2934.00,0.0352
2933.00,0.0353
2932.00,0.0354
2931.00,0.0355
2930.00,0.0355
2929.00,0.0356
2928.00,0.0356
2927.00,0.0355
2926.00,0.0354
2925.00,0.0353
2924.00,0.0351
2923.00,0.0348
2922.00,0.0345
2921.00,0.0342
2920.00,0.0338
2919.00,0.0334
2918.00,0.0329
2917.00,0.0324
2916.00,0.0319
2915.00,0.0314
2914.00,0.0309
2913.00,0.0304
2912.00,0.0300
2911.00,0.0295
2910.00,0.0292
2909.00,0.0288
2908.00,0.0285
2907.00,0.0282
2906.00,0.0279
2905.00,0.0276
2904.00,0.0273
2903.00,0.0270
2902.00,0.0268
2901.00,0.0265
2900.00,0.0263
2899.00,0.0261
2898.00,0.0259
2897.00,0.0256
2896.00,0.0255
2895.00,0.0253
2894.00,0.0252
2893.00,0.0250
2892.00,0.0249
2891.00,0.0248
2890.00,0.0247
2889.00,0.0247
2888.00,0.0246
2887.00,0.0246
2886.00,0.0246
2885.00,0.0247
2884.00,0.0248
2883.00,0.0249
2882.00,0.0250
2881.00,0.0251
2880.00,0.0253
2879.00,0.0254
2878.00,0.0255
2877.00,0.0256
2876.00,0.0257
2875.00,0.0256
2874.00,0.0256
2873.00,0.0255
2872.00,0.0254
2871.00,0.0252
2870.00,0.0250
2869.00,0.0247
2868.00,0.0245
2867.00,0.0242
2866.00,0.0239
2865.00,0.0236
2864.00,0.0234
2863.00,0.0232
2862.00,0.0231
2861.00,0.0230
2860.00,0.0229
2859.00,0.0229
2858.00,0.0229
2857.00,0.0229
2856.00,0.0228
2855.00,0.0227
2854.00,0.0226
2853.00,0.0224
2852.00,0.0222
2851.00,0.0219
2850.00,0.0215
2849.00,0.0211
2848.00,0.0207
2847.00,0.0203
2846.00,0.0199
2845.00,0.0195
2844.00,0.0191
2843.00,0.0188
2842.00,0.0185
2841.00,0.0182
2840.00,0.0180
2839.00,0.0178
2838.00,0.0176
2837.00,0.0175
2836.00,0.0174
2835.00,0.0172
2834.00,0.0171
2833.00,0.0170
2832.00,0.0169
2831.00,0.0168
2830.00,0.0168
2829.00,0.0167
2828.00,0.0166
2827.00,0.0165
2826.00,0.0164
2825.00,0.0163
2824.00,0.0163
2823.00,0.0162
2822.00,0.0162
2821.00,0.0162
2820.00,0.0162
2819.00,0.0161
2818.00,0.0160
2817.00,0.0160
2816.00,0.0159
2815.00,0.0158
2814.00,0.0157
2813.00,0.0156
2812.00,0.0156
2811.00,0.0155
2810.00,0.0155
2809.00,0.0155
2808.00,0.0154
2807.00,0.0153
2806.00,0.0153
2805.00,0.0152
2804.00,0.0152
2803.00,0.0151
2802.00,0.0151
2801.00,0.0150
2800.00,0.0150
2799.00,0.0149
2798.00,0.0149
2797.00,0.0148
2796.00,0.0148
2795.00,0.0147
2794.00,0.0147
2793.00,0.0146
2792.00,0.0145
2791.00,0.0145
2790.00,0.0144
2789.00,0.0144
2788.00,0.0144
2787.00,0.0143
2786.00,0.0143
2785.00,0.0142
2784.00,0.0142
2783.00,0.0141
2782.00,0.0141
2781.00,0.0140
2780.00,0.0140
2779.00,0.0139
2778.00,0.0138
2777.00,0.0137
2776.00,0.0136
2775.00,0.0136
2774.00,0.0135
2773.00,0.0135
2772.00,0.0135
2771.00,0.0134
2770.00,0.0134
2769.00,0.0133
2768.00,0.0133
2767.00,0.0132
2766.00,0.0132
2765.00,0.0131
2764.00,0.0131
2763.00,0.0130
2762.00,0.0130
2761.00,0.0129
2760.00,0.0129
2759.00,0.0128
2758.00,0.0128
2757.00,0.0127
