Created as New Dataset,Sample 1041 By YargerLab Date Monday, August 04 2025
cm-1,A
4000.00,0.0060
3999.00,0.0060
3998.00,0.0059
3997.00,0.0059
3996.00,0.0060
3995.00,0.0060
3994.00,0.0060
3993.00,0.0060
3992.00,0.0059
3991.00,0.0059
3990.00,0.0060
3989.00,0.0060
3988.00,0.0060
3987.00,0.0060
3986.00,0.0060
3985.00,0.0060
3984.00,0.0060
3983.00,0.0060
3982.00,0.0060
3981.00,0.0060
3980.00,0.0060
3979.00,0.0060
3978.00,0.0060
3977.00,0.0060
3976.00,0.0060
3975.00,0.0060
3974.00,0.0060
3973.00,0.0060
3972.00,0.0060
3971.00,0.0060
3970.00,0.0060
3969.00,0.0060
3968.00,0.0060
3967.00,0.0060
3966.00,0.0060
3965.00,0.0060
3964.00,0.0060
3963.00,0.0060
3962.00,0.0060
3961.00,0.0059
3960.00,0.0059
3959.00,0.0059
3958.00,0.0059
3957.00,0.0060
3956.00,0.0060
3955.00,0.0060
3954.00,0.0060
3953.00,0.0060
3952.00,0.0060
3951.00,0.0059
3950.00,0.0059
3949.00,0.0059
3948.00,0.0059
3947.00,0.0060
3946.00,0.0060
3945.00,0.0060
3944.00,0.0060
3943.00,0.0059
3942.00,0.0059
3941.00,0.0059
3940.00,0.0059
3939.00,0.0059
3938.00,0.0059
3937.00,0.0059
3936.00,0.0059
3935.00,0.0059
3934.00,0.0060
3933.00,0.0060
3932.00,0.0060
3931.00,0.0060
3930.00,0.0060
3929.00,0.0060
3928.00,0.0060
3927.00,0.0060
3926.00,0.0059
3925.00,0.0059
3924.00,0.0059
3923.00,0.0059
3922.00,0.0059
3921.00,0.0059
3920.00,0.0060
3919.00,0.0060
3918.00,0.0060
3917.00,0.0060
3916.00,0.0060
3915.00,0.0060
3914.00,0.0060
3913.00,0.0060
3912.00,0.0060
3911.00,0.0060
3910.00,0.0059
3909.00,0.0059
3908.00,0.0059
3907.00,0.0060
3906.00,0.0060
3905.00,0.0060
3904.00,0.0060
3903.00,0.0060
3902.00,0.0060
3901.00,0.0060
3900.00,0.0060
3899.00,0.0060
3898.00,0.0060
3897.00,0.0060
3896.00,0.0060
3895.00,0.0060
3894.00,0.0060
3893.00,0.0059
3892.00,0.0059
3891.00,0.0059
3890.00,0.0059
3889.00,0.0059
3888.00,0.0059
3887.00,0.0059
3886.00,0.0059
3885.00,0.0060
3884.00,0.0060
3883.00,0.0060
3882.00,0.0060
3881.00,0.0060
3880.00,0.0060
3879.00,0.0060
3878.00,0.0060
3877.00,0.0060
3876.00,0.0060
3875.00,0.0060
3874.00,0.0060
3873.00,0.0059
3872.00,0.0059
3871.00,0.0059
3870.00,0.0060
3869.00,0.0060
3868.00,0.0060
3867.00,0.0060
3866.00,0.0060
3865.00,0.0060
3864.00,0.0060
3863.00,0.0059
3862.00,0.0060
3861.00,0.0060
3860.00,0.0060
3859.00,0.0060
3858.00,0.0060
3857.00,0.0060
3856.00,0.0059
3855.00,0.0059
3854.00,0.0059
3853.00,0.0060
3852.00,0.0060
3851.00,0.0060
3850.00,0.0060
3849.00,0.0060
3848.00,0.0060
3847.00,0.0060
3846.00,0.0059
3845.00,0.0059
3844.00,0.0059
3843.00,0.0059
3842.00,0.0059
3841.00,0.0060
3840.00,0.0060
3839.00,0.0060
3838.00,0.0060
3837.00,0.0060
3836.00,0.0060
3835.00,0.0060
3834.00,0.0060
3833.00,0.0060
3832.00,0.0059
3831.00,0.0059
3830.00,0.0059
3829.00,0.0059
3828.00,0.0059
3827.00,0.0059
3826.00,0.0059
3825.00,0.0059
3824.00,0.0060
3823.00,0.0060
3822.00,0.0060
3821.00,0.0060
3820.00,0.0060
3819.00,0.0060
3818.00,0.0059
3817.00,0.0059
3816.00,0.0059
3815.00,0.0059
3814.00,0.0059
3813.00,0.0059
3812.00,0.0059
3811.00,0.0059
3810.00,0.0059
3809.00,0.0059
3808.00,0.0059
3807.00,0.0059
3806.00,0.0059
3805.00,0.0059
3804.00,0.0059
3803.00,0.0059
3802.00,0.0059
3801.00,0.0059
3800.00,0.0059
3799.00,0.0059
3798.00,0.0059
3797.00,0.0059
3796.00,0.0059
3795.00,0.0059
3794.00,0.0059
3793.00,0.0059
3792.00,0.0058
3791.00,0.0058
3790.00,0.0058
3789.00,0.0058
3788.00,0.0058
3787.00,0.0058
3786.00,0.0057
3785.00,0.0057
3784.00,0.0058
3783.00,0.0058
3782.00,0.0058
3781.00,0.0058
3780.00,0.0059
3779.00,0.0059
3778.00,0.0059
3777.00,0.0059
3776.00,0.0059
3775.00,0.0059
3774.00,0.0058
3773.00,0.0058
3772.00,0.0059
3771.00,0.0059
3770.00,0.0059
3769.00,0.0059
3768.00,0.0059
3767.00,0.0059
3766.00,0.0059
3765.00,0.0059
3764.00,0.0059
3763.00,0.0059
3762.00,0.0059
3761.00,0.0059
3760.00,0.0059
3759.00,0.0059
3758.00,0.0059
3757.00,0.0059
3756.00,0.0060
3755.00,0.0060
3754.00,0.0060
3753.00,0.0060
3752.00,0.0060
3751.00,0.0061
3750.00,0.0061
3749.00,0.0060
3748.00,0.0060
3747.00,0.0060
3746.00,0.0060
3745.00,0.0059
3744.00,0.0059
3743.00,0.0059
3742.00,0.0059
3741.00,0.0059
3740.00,0.0059
3739.00,0.0060
3738.00,0.0060
3737.00,0.0060
3736.00,0.0060
3735.00,0.0059
3734.00,0.0059
3733.00,0.0059
3732.00,0.0059
3731.00,0.0058
3730.00,0.0058
3729.00,0.0057
3728.00,0.0057
3727.00,0.0057
3726.00,0.0057
3725.00,0.0057
3724.00,0.0057
3723.00,0.0057
3722.00,0.0057
3721.00,0.0057
3720.00,0.0057
3719.00,0.0057
3718.00,0.0057
3717.00,0.0057
3716.00,0.0057
3715.00,0.0057
3714.00,0.0057
3713.00,0.0057
3712.00,0.0057
3711.00,0.0057
3710.00,0.0057
3709.00,0.0057
3708.00,0.0057
3707.00,0.0057
3706.00,0.0057
3705.00,0.0057
3704.00,0.0057
3703.00,0.0056
3702.00,0.0056
3701.00,0.0056
3700.00,0.0056
3699.00,0.0056
3698.00,0.0056
3697.00,0.0056
3696.00,0.0056
3695.00,0.0056
3694.00,0.0056
3693.00,0.0056
3692.00,0.0055
3691.00,0.0056
3690.00,0.0056
3689.00,0.0057
3688.00,0.0057
3687.00,0.0058
3686.00,0.0058
3685.00,0.0058
3684.00,0.0058
3683.00,0.0058
3682.00,0.0058
3681.00,0.0057
3680.00,0.0057
3679.00,0.0057
3678.00,0.0058
3677.00,0.0058
3676.00,0.0057
3675.00,0.0057
3674.00,0.0057
3673.00,0.0058
3672.00,0.0058
3671.00,0.0058
3670.00,0.0058
3669.00,0.0058
3668.00,0.0058
3667.00,0.0058
3666.00,0.0058
3665.00,0.0058
3664.00,0.0058
3663.00,0.0058
3662.00,0.0057
3661.00,0.0057
3660.00,0.0057
3659.00,0.0057
3658.00,0.0057
3657.00,0.0057
3656.00,0.0057
3655.00,0.0058
3654.00,0.0058
3653.00,0.0058
3652.00,0.0059
3651.00,0.0059
3650.00,0.0059
3649.00,0.0059
3648.00,0.0060
3647.00,0.0060
3646.00,0.0059
3645.00,0.0059
3644.00,0.0059
3643.00,0.0058
3642.00,0.0058
3641.00,0.0058
3640.00,0.0058
3639.00,0.0058
3638.00,0.0058
3637.00,0.0058
3636.00,0.0058
3635.00,0.0058
3634.00,0.0058
3633.00,0.0058
3632.00,0.0059
3631.00,0.0059
3630.00,0.0059
3629.00,0.0060
3628.00,0.0060
3627.00,0.0060
3626.00,0.0060
3625.00,0.0060
3624.00,0.0060
3623.00,0.0060
3622.00,0.0060
3621.00,0.0060
3620.00,0.0060
3619.00,0.0060
3618.00,0.0061
3617.00,0.0061
3616.00,0.0062
3615.00,0.0062
3614.00,0.0063
3613.00,0.0063
3612.00,0.0063
3611.00,0.0063
3610.00,0.0063
3609.00,0.0063
3608.00,0.0063
3607.00,0.0062
3606.00,0.0063
3605.00,0.0063
3604.00,0.0063
3603.00,0.0064
3602.00,0.0064
3601.00,0.0063
3600.00,0.0063
3599.00,0.0064
3598.00,0.0064
3597.00,0.0065
3596.00,0.0065
3595.00,0.0065
3594.00,0.0065
3593.00,0.0065
3592.00,0.0066
3591.00,0.0066
3590.00,0.0066
3589.00,0.0066
3588.00,0.0066
3587.00,0.0066
3586.00,0.0066
3585.00,0.0067
3584.00,0.0067
3583.00,0.0067
3582.00,0.0068
3581.00,0.0068
3580.00,0.0068
3579.00,0.0069
3578.00,0.0069
3577.00,0.0069
3576.00,0.0069
3575.00,0.0069
3574.00,0.0070
3573.00,0.0070
3572.00,0.0070
3571.00,0.0071
3570.00,0.0072
3569.00,0.0072
3568.00,0.0073
3567.00,0.0073
3566.00,0.0073
3565.00,0.0073
3564.00,0.0073
3563.00,0.0074
3562.00,0.0074
3561.00,0.0074
3560.00,0.0074
3559.00,0.0075
3558.00,0.0075
3557.00,0.0076
3556.00,0.0076
3555.00,0.0077
3554.00,0.0077
3553.00,0.0077
3552.00,0.0078
3551.00,0.0079
3550.00,0.0079
3549.00,0.0080
3548.00,0.0080
3547.00,0.0081
3546.00,0.0081
3545.00,0.0081
3544.00,0.0082
3543.00,0.0082
3542.00,0.0083
3541.00,0.0083
3540.00,0.0084
3539.00,0.0084
3538.00,0.0084
3537.00,0.0085
3536.00,0.0085
3535.00,0.0085
3534.00,0.0086
3533.00,0.0086
3532.00,0.0087
3531.00,0.0087
3530.00,0.0088
3529.00,0.0088
3528.00,0.0089
3527.00,0.0089
3526.00,0.0090
3525.00,0.0090
3524.00,0.0091
3523.00,0.0091
3522.00,0.0092
3521.00,0.0092
3520.00,0.0092
3519.00,0.0093
3518.00,0.0093
3517.00,0.0094
3516.00,0.0094
3515.00,0.0094
3514.00,0.0095
3513.00,0.0095
3512.00,0.0095
3511.00,0.0096
3510.00,0.0096
3509.00,0.0097
3508.00,0.0097
3507.00,0.0097
3506.00,0.0098
3505.00,0.0098
3504.00,0.0099
3503.00,0.0099
3502.00,0.0100
3501.00,0.0100
3500.00,0.0101
3499.00,0.0101
3498.00,0.0102
3497.00,0.0102
3496.00,0.0103
3495.00,0.0103
3494.00,0.0104
3493.00,0.0105
3492.00,0.0105
3491.00,0.0106
3490.00,0.0107
3489.00,0.0107
3488.00,0.0108
3487.00,0.0108
3486.00,0.0109
3485.00,0.0110
3484.00,0.0111
3483.00,0.0112
3482.00,0.0113
3481.00,0.0114
3480.00,0.0115
3479.00,0.0116
3478.00,0.0117
3477.00,0.0117
3476.00,0.0118
3475.00,0.0119
3474.00,0.0120
3473.00,0.0121
3472.00,0.0122
3471.00,0.0123
3470.00,0.0124
3469.00,0.0125
3468.00,0.0126
3467.00,0.0127
3466.00,0.0128
3465.00,0.0129
3464.00,0.0130
3463.00,0.0131
3462.00,0.0132
3461.00,0.0133
3460.00,0.0134
3459.00,0.0135
3458.00,0.0136
3457.00,0.0137
3456.00,0.0138
3455.00,0.0140
3454.00,0.0141
3453.00,0.0143
3452.00,0.0144
3451.00,0.0145
3450.00,0.0146
3449.00,0.0148
3448.00,0.0149
3447.00,0.0150
3446.00,0.0152
3445.00,0.0153
3444.00,0.0154
3443.00,0.0156
3442.00,0.0157
3441.00,0.0159
3440.00,0.0160
3439.00,0.0162
3438.00,0.0163
3437.00,0.0165
3436.00,0.0166
3435.00,0.0168
3434.00,0.0170
3433.00,0.0172
3432.00,0.0174
3431.00,0.0175
3430.00,0.0177
3429.00,0.0179
3428.00,0.0181
3427.00,0.0183
3426.00,0.0185
3425.00,0.0187
3424.00,0.0190
3423.00,0.0192
3422.00,0.0193
3421.00,0.0195
3420.00,0.0197
3419.00,0.0199
3418.00,0.0201
3417.00,0.0204
3416.00,0.0206
3415.00,0.0208
3414.00,0.0210
3413.00,0.0212
3412.00,0.0213
3411.00,0.0214
3410.00,0.0215
3409.00,0.0217
3408.00,0.0218
3407.00,0.0219
3406.00,0.0220
3405.00,0.0221
3404.00,0.0221
3403.00,0.0222
3402.00,0.0222
3401.00,0.0222
3400.00,0.0223
3399.00,0.0222
3398.00,0.0222
3397.00,0.0222
3396.00,0.0221
3395.00,0.0221
3394.00,0.0220
3393.00,0.0219
3392.00,0.0219
3391.00,0.0218
3390.00,0.0217
3389.00,0.0216
3388.00,0.0215
3387.00,0.0213
3386.00,0.0212
3385.00,0.0211
3384.00,0.0210
3383.00,0.0208
3382.00,0.0207
3381.00,0.0206
3380.00,0.0205
3379.00,0.0204
3378.00,0.0203
3377.00,0.0202
3376.00,0.0201
3375.00,0.0200
3374.00,0.0199
3373.00,0.0197
3372.00,0.0196
3371.00,0.0195
3370.00,0.0194
3369.00,0.0193
3368.00,0.0191
3367.00,0.0190
3366.00,0.0189
3365.00,0.0188
3364.00,0.0187
3363.00,0.0186
3362.00,0.0185
3361.00,0.0184
3360.00,0.0183
3359.00,0.0182
3358.00,0.0182
3357.00,0.0181
3356.00,0.0181
3355.00,0.0180
3354.00,0.0179
3353.00,0.0179
3352.00,0.0178
3351.00,0.0177
3350.00,0.0176
3349.00,0.0176
3348.00,0.0176
3347.00,0.0175
3346.00,0.0175
3345.00,0.0175
3344.00,0.0174
3343.00,0.0174
3342.00,0.0174
3341.00,0.0173
3340.00,0.0173
3339.00,0.0173
3338.00,0.0173
3337.00,0.0173
3336.00,0.0173
3335.00,0.0173
3334.00,0.0173
3333.00,0.0173
3332.00,0.0173
3331.00,0.0173
3330.00,0.0173
3329.00,0.0172
3328.00,0.0172
3327.00,0.0172
3326.00,0.0172
3325.00,0.0173
3324.00,0.0173
3323.00,0.0174
3322.00,0.0174
3321.00,0.0174
3320.00,0.0174
3319.00,0.0175
3318.00,0.0175
3317.00,0.0175
3316.00,0.0176
3315.00,0.0176
3314.00,0.0177
3313.00,0.0178
3312.00,0.0178
3311.00,0.0178
3310.00,0.0178
3309.00,0.0179
3308.00,0.0179
3307.00,0.0179
3306.00,0.0180
3305.00,0.0181
3304.00,0.0181
3303.00,0.0182
3302.00,0.0183
3301.00,0.0184
3300.00,0.0184
3299.00,0.0185
3298.00,0.0185
3297.00,0.0186
3296.00,0.0187
3295.00,0.0187
3294.00,0.0188
3293.00,0.0189
3292.00,0.0189
3291.00,0.0190
3290.00,0.0191
3289.00,0.0192
3288.00,0.0193
3287.00,0.0193
3286.00,0.0194
3285.00,0.0195
3284.00,0.0196
3283.00,0.0197
3282.00,0.0198
3281.00,0.0198
3280.00,0.0199
3279.00,0.0199
3278.00,0.0200
3277.00,0.0201
3276.00,0.0201
3275.00,0.0202
3274.00,0.0203
3273.00,0.0204
3272.00,0.0205
3271.00,0.0205
3270.00,0.0206
3269.00,0.0207
3268.00,0.0207
3267.00,0.0208
3266.00,0.0209
3265.00,0.0210
3264.00,0.0211
3263.00,0.0211
3262.00,0.0212
3261.00,0.0213
3260.00,0.0213
3259.00,0.0214
3258.00,0.0215
3257.00,0.0215
3256.00,0.0216
3255.00,0.0217
3254.00,0.0217
3253.00,0.0218
3252.00,0.0219
3251.00,0.0220
3250.00,0.0220
3249.00,0.0221
3248.00,0.0221
3247.00,0.0221
3246.00,0.0222
3245.00,0.0222
3244.00,0.0223
3243.00,0.0223
3242.00,0.0224
3241.00,0.0224
3240.00,0.0224
3239.00,0.0224
3238.00,0.0224
3237.00,0.0224
3236.00,0.0224
3235.00,0.0224
3234.00,0.0223
3233.00,0.0223
3232.00,0.0223
3231.00,0.0223
3230.00,0.0223
3229.00,0.0223
3228.00,0.0222
3227.00,0.0222
3226.00,0.0222
3225.00,0.0221
3224.00,0.0221
3223.00,0.0220
3222.00,0.0220
3221.00,0.0219
3220.00,0.0218
3219.00,0.0218
3218.00,0.0217
3217.00,0.0216
3216.00,0.0215
3215.00,0.0214
3214.00,0.0213
3213.00,0.0212
3212.00,0.0211
3211.00,0.0210
3210.00,0.0209
3209.00,0.0208
3208.00,0.0207
3207.00,0.0206
3206.00,0.0205
3205.00,0.0203
3204.00,0.0202
3203.00,0.0201
3202.00,0.0199
3201.00,0.0198
3200.00,0.0197
3199.00,0.0195
3198.00,0.0194
3197.00,0.0193
3196.00,0.0191
3195.00,0.0190
3194.00,0.0189
3193.00,0.0188
3192.00,0.0186
3191.00,0.0185
3190.00,0.0183
3189.00,0.0182
3188.00,0.0181
3187.00,0.0180
3186.00,0.0179
3185.00,0.0177
3184.00,0.0176
3183.00,0.0175
3182.00,0.0174
3181.00,0.0173
3180.00,0.0172
3179.00,0.0170
3178.00,0.0169
3177.00,0.0168
3176.00,0.0166
3175.00,0.0165
3174.00,0.0164
3173.00,0.0163
3172.00,0.0161
3171.00,0.0160
3170.00,0.0159
3169.00,0.0157
3168.00,0.0156
3167.00,0.0154
3166.00,0.0153
3165.00,0.0152
3164.00,0.0150
3163.00,0.0149
3162.00,0.0148
3161.00,0.0147
3160.00,0.0146
3159.00,0.0144
3158.00,0.0143
3157.00,0.0142
3156.00,0.0141
3155.00,0.0139
3154.00,0.0138
3153.00,0.0136
3152.00,0.0135
3151.00,0.0134
3150.00,0.0133
3149.00,0.0132
3148.00,0.0131
3147.00,0.0130
3146.00,0.0129
3145.00,0.0128
3144.00,0.0127
3143.00,0.0126
3142.00,0.0125
3141.00,0.0124
3140.00,0.0124
3139.00,0.0123
3138.00,0.0122
3137.00,0.0121
3136.00,0.0121
3135.00,0.0120
3134.00,0.0119
3133.00,0.0118
3132.00,0.0117
3131.00,0.0116
3130.00,0.0116
3129.00,0.0115
3128.00,0.0114
3127.00,0.0114
3126.00,0.0113
3125.00,0.0113
3124.00,0.0113
3123.00,0.0112
3122.00,0.0112
3121.00,0.0111
3120.00,0.0110
3119.00,0.0109
3118.00,0.0108
3117.00,0.0108
3116.00,0.0107
3115.00,0.0106
3114.00,0.0106
3113.00,0.0105
3112.00,0.0105
3111.00,0.0104
3110.00,0.0103
3109.00,0.0102
3108.00,0.0101
3107.00,0.0100
3106.00,0.0100
3105.00,0.0099
3104.00,0.0099
3103.00,0.0099
3102.00,0.0098
3101.00,0.0098
3100.00,0.0097
3099.00,0.0097
3098.00,0.0097
3097.00,0.0096
3096.00,0.0096
3095.00,0.0096
3094.00,0.0096
3093.00,0.0096
3092.00,0.0097
3091.00,0.0097
3090.00,0.0097
3089.00,0.0097
3088.00,0.0097
3087.00,0.0097
3086.00,0.0098
3085.00,0.0098
3084.00,0.0097
3083.00,0.0097
3082.00,0.0097
3081.00,0.0097
3080.00,0.0097
3079.00,0.0097
3078.00,0.0096
3077.00,0.0096
3076.00,0.0096
3075.00,0.0096
3074.00,0.0095
3073.00,0.0095
3072.00,0.0095
3071.00,0.0094
3070.00,0.0094
3069.00,0.0094
3068.00,0.0094
3067.00,0.0094
3066.00,0.0094
3065.00,0.0094
3064.00,0.0094
3063.00,0.0094
3062.00,0.0094
3061.00,0.0094
3060.00,0.0094
3059.00,0.0094
3058.00,0.0094
3057.00,0.0094
3056.00,0.0095
3055.00,0.0095
3054.00,0.0095
3053.00,0.0095
3052.00,0.0094
3051.00,0.0094
3050.00,0.0094
3049.00,0.0094
3048.00,0.0094
3047.00,0.0093
3046.00,0.0093
3045.00,0.0093
3044.00,0.0093
3043.00,0.0094
3042.00,0.0094
3041.00,0.0094
3040.00,0.0095
3039.00,0.0096
3038.00,0.0097
3037.00,0.0098
3036.00,0.0098
3035.00,0.0099
3034.00,0.0099
3033.00,0.0100
3032.00,0.0100
3031.00,0.0099
3030.00,0.0099
3029.00,0.0098
3028.00,0.0098
3027.00,0.0097
3026.00,0.0096
3025.00,0.0095
3024.00,0.0094
3023.00,0.0093
3022.00,0.0092
3021.00,0.0091
3020.00,0.0091
3019.00,0.0090
3018.00,0.0090
3017.00,0.0090
3016.00,0.0090
3015.00,0.0090
3014.00,0.0090
3013.00,0.0090
3012.00,0.0090
3011.00,0.0091
3010.00,0.0092
3009.00,0.0092
3008.00,0.0093
3007.00,0.0094
3006.00,0.0096
3005.00,0.0098
3004.00,0.0100
3003.00,0.0102
3002.00,0.0104
3001.00,0.0107
3000.00,0.0109
2999.00,0.0112
2998.00,0.0115
2997.00,0.0118
2996.00,0.0122
2995.00,0.0126
2994.00,0.0130
2993.00,0.0133
2992.00,0.0137
2991.00,0.0139
2990.00,0.0142
2989.00,0.0145
2988.00,0.0147
2987.00,0.0150
2986.00,0.0153
2985.00,0.0158
2984.00,0.0163
2983.00,0.0169
2982.00,0.0176
2981.00,0.0184
2980.00,0.0190
2979.00,0.0195
2978.00,0.0198
2977.00,0.0199
2976.00,0.0201
2975.00,0.0203
2974.00,0.0208
2973.00,0.0214
2972.00,0.0223
2971.00,0.0231
2970.00,0.0238
2969.00,0.0244
2968.00,0.0248
2967.00,0.0250
2966.00,0.0253
2965.00,0.0256
2964.00,0.0260
2963.00,0.0265
2962.00,0.0270
2961.00,0.0273
2960.00,0.0276
2959.00,0.0276
2958.00,0.0273
2957.00,0.0268
2956.00,0.0261
2955.00,0.0254
2954.00,0.0246
2953.00,0.0238
2952.00,0.0232
2951.00,0.0226
2950.00,0.0222
2949.00,0.0219
2948.00,0.0218
2947.00,0.0219
2946.00,0.0221
2945.00,0.0225
2944.00,0.0230
2943.00,0.0236
2942.00,0.0242
2941.00,0.0249
2940.00,0.0257
2939.00,0.0267
2938.00,0.0278
2937.00,0.0290
2936.00,0.0304
2935.00,0.0320
2934.00,0.0336
2933.00,0.0353
2932.00,0.0369
2931.00,0.0384
2930.00,0.0397
2929.00,0.0407
2928.00,0.0413
2927.00,0.0414
2926.00,0.0412
2925.00,0.0406
2924.00,0.0397
2923.00,0.0387
2922.00,0.0375
2921.00,0.0362
2920.00,0.0349
2919.00,0.0337
2918.00,0.0324
2917.00,0.0312
2916.00,0.0300
2915.00,0.0290
2914.00,0.0280
2913.00,0.0271
2912.00,0.0264
2911.00,0.0257
2910.00,0.0250
2909.00,0.0244
2908.00,0.0238
2907.00,0.0232
2906.00,0.0227
2905.00,0.0222
2904.00,0.0217
2903.00,0.0213
2902.00,0.0209
2901.00,0.0205
2900.00,0.0201
2899.00,0.0197
2898.00,0.0193
2897.00,0.0189
2896.00,0.0186
2895.00,0.0184
2894.00,0.0181
2893.00,0.0179
2892.00,0.0177
2891.00,0.0175
2890.00,0.0173
2889.00,0.0172
2888.00,0.0170
2887.00,0.0169
2886.00,0.0167
2885.00,0.0166
2884.00,0.0166
2883.00,0.0166
2882.00,0.0166
2881.00,0.0168
2880.00,0.0170
2879.00,0.0174
2878.00,0.0178
2877.00,0.0183
2876.00,0.0189
2875.00,0.0194
2874.00,0.0199
2873.00,0.0203
2872.00,0.0205
2871.00,0.0205
2870.00,0.0204
2869.00,0.0203
2868.00,0.0202
2867.00,0.0202
2866.00,0.0203
2865.00,0.0206
2864.00,0.0212
2863.00,0.0220
2862.00,0.0230
2861.00,0.0241
2860.00,0.0253
2859.00,0.0265
2858.00,0.0274
2857.00,0.0280
2856.00,0.0283
2855.00,0.0283
2854.00,0.0281
2853.00,0.0276
2852.00,0.0268
2851.00,0.0259
2850.00,0.0247
2849.00,0.0234
2848.00,0.0221
2847.00,0.0207
2846.00,0.0195
2845.00,0.0184
2844.00,0.0174
2843.00,0.0165
2842.00,0.0157
2841.00,0.0150
2840.00,0.0143
2839.00,0.0138
2838.00,0.0133
2837.00,0.0129
2836.00,0.0126
2835.00,0.0123
2834.00,0.0121
2833.00,0.0119
2832.00,0.0116
2831.00,0.0114
2830.00,0.0112
2829.00,0.0111
2828.00,0.0109
2827.00,0.0107
2826.00,0.0105
2825.00,0.0104
2824.00,0.0103
2823.00,0.0102
2822.00,0.0100
2821.00,0.0099
2820.00,0.0098
2819.00,0.0097
2818.00,0.0096
2817.00,0.0095
2816.00,0.0095
2815.00,0.0094
2814.00,0.0093
2813.00,0.0093
2812.00,0.0092
2811.00,0.0091
2810.00,0.0091
2809.00,0.0090
2808.00,0.0090
2807.00,0.0089
2806.00,0.0089
2805.00,0.0089
2804.00,0.0089
2803.00,0.0088
2802.00,0.0088
2801.00,0.0087
2800.00,0.0087
2799.00,0.0086
2798.00,0.0086
2797.00,0.0086
2796.00,0.0085
2795.00,0.0085
2794.00,0.0085
2793.00,0.0084
2792.00,0.0084
2791.00,0.0083
2790.00,0.0083
2789.00,0.0083
2788.00,0.0082
2787.00,0.0082
2786.00,0.0082
2785.00,0.0081
2784.00,0.0081
2783.00,0.0080
2782.00,0.0080
2781.00,0.0080
2780.00,0.0080
2779.00,0.0080
2778.00,0.0080
2777.00,0.0079
2776.00,0.0079
2775.00,0.0079
2774.00,0.0079
2773.00,0.0079
2772.00,0.0079
2771.00,0.0079
2770.00,0.0079
2769.00,0.0078
2768.00,0.0078
2767.00,0.0078
2766.00,0.0078
2765.00,0.0078
2764.00,0.0078
2763.00,0.0078
2762.00,0.0078
2761.00,0.0078
2760.00,0.0078
2759.00,0.0078
2758.00,0.0078
2757.00,0.0078
