Created as New Dataset,Sample 334 By YargerLab Date Monday, August 19 2024
cm-1,A
4000.00,0.0142
3999.00,0.0142
3998.00,0.0142
3997.00,0.0142
3996.00,0.0142
3995.00,0.0142
3994.00,0.0142
3993.00,0.0142
3992.00,0.0142
3991.00,0.0142
3990.00,0.0142
3989.00,0.0142
3988.00,0.0142
3987.00,0.0142
3986.00,0.0142
3985.00,0.0142
3984.00,0.0142
3983.00,0.0142
3982.00,0.0142
3981.00,0.0142
3980.00,0.0142
3979.00,0.0142
3978.00,0.0142
3977.00,0.0142
3976.00,0.0142
3975.00,0.0142
3974.00,0.0142
3973.00,0.0142
3972.00,0.0142
3971.00,0.0142
3970.00,0.0142
3969.00,0.0142
3968.00,0.0142
3967.00,0.0142
3966.00,0.0142
3965.00,0.0142
3964.00,0.0142
3963.00,0.0142
3962.00,0.0142
3961.00,0.0142
3960.00,0.0142
3959.00,0.0141
3958.00,0.0141
3957.00,0.0141
3956.00,0.0141
3955.00,0.0142
3954.00,0.0142
3953.00,0.0142
3952.00,0.0142
3951.00,0.0142
3950.00,0.0142
3949.00,0.0142
3948.00,0.0142
3947.00,0.0142
3946.00,0.0142
3945.00,0.0142
3944.00,0.0141
3943.00,0.0141
3942.00,0.0141
3941.00,0.0141
3940.00,0.0141
3939.00,0.0141
3938.00,0.0141
3937.00,0.0141
3936.00,0.0141
3935.00,0.0141
3934.00,0.0141
3933.00,0.0141
3932.00,0.0141
3931.00,0.0141
3930.00,0.0141
3929.00,0.0141
3928.00,0.0141
3927.00,0.0141
3926.00,0.0141
3925.00,0.0141
3924.00,0.0141
3923.00,0.0141
3922.00,0.0141
3921.00,0.0141
3920.00,0.0141
3919.00,0.0141
3918.00,0.0141
3917.00,0.0141
3916.00,0.0141
3915.00,0.0141
3914.00,0.0140
3913.00,0.0140
3912.00,0.0140
3911.00,0.0140
3910.00,0.0140
3909.00,0.0140
3908.00,0.0140
3907.00,0.0140
3906.00,0.0140
3905.00,0.0140
3904.00,0.0141
3903.00,0.0141
3902.00,0.0141
3901.00,0.0141
3900.00,0.0141
3899.00,0.0140
3898.00,0.0140
3897.00,0.0140
3896.00,0.0140
3895.00,0.0140
3894.00,0.0140
3893.00,0.0140
3892.00,0.0140
3891.00,0.0139
3890.00,0.0139
3889.00,0.0139
3888.00,0.0139
3887.00,0.0140
3886.00,0.0140
3885.00,0.0140
3884.00,0.0140
3883.00,0.0140
3882.00,0.0140
3881.00,0.0140
3880.00,0.0140
3879.00,0.0139
3878.00,0.0139
3877.00,0.0139
3876.00,0.0139
3875.00,0.0139
3874.00,0.0139
3873.00,0.0139
3872.00,0.0139
3871.00,0.0139
3870.00,0.0139
3869.00,0.0139
3868.00,0.0139
3867.00,0.0139
3866.00,0.0139
3865.00,0.0139
3864.00,0.0138
3863.00,0.0138
3862.00,0.0138
3861.00,0.0139
3860.00,0.0139
3859.00,0.0139
3858.00,0.0138
3857.00,0.0138
3856.00,0.0138
3855.00,0.0138
3854.00,0.0138
3853.00,0.0138
3852.00,0.0138
3851.00,0.0138
3850.00,0.0138
3849.00,0.0138
3848.00,0.0138
3847.00,0.0138
3846.00,0.0138
3845.00,0.0138
3844.00,0.0138
3843.00,0.0138
3842.00,0.0138
3841.00,0.0137
3840.00,0.0137
3839.00,0.0137
3838.00,0.0137
3837.00,0.0137
3836.00,0.0137
3835.00,0.0137
3834.00,0.0137
3833.00,0.0137
3832.00,0.0137
3831.00,0.0137
3830.00,0.0137
3829.00,0.0137
3828.00,0.0137
3827.00,0.0137
3826.00,0.0137
3825.00,0.0137
3824.00,0.0137
3823.00,0.0137
3822.00,0.0137
3821.00,0.0137
3820.00,0.0137
3819.00,0.0136
3818.00,0.0136
3817.00,0.0136
3816.00,0.0136
3815.00,0.0136
3814.00,0.0136
3813.00,0.0136
3812.00,0.0136
3811.00,0.0136
3810.00,0.0136
3809.00,0.0136
3808.00,0.0136
3807.00,0.0136
3806.00,0.0136
3805.00,0.0136
3804.00,0.0136
3803.00,0.0136
3802.00,0.0136
3801.00,0.0136
3800.00,0.0136
3799.00,0.0136
3798.00,0.0136
3797.00,0.0135
3796.00,0.0135
3795.00,0.0135
3794.00,0.0135
3793.00,0.0135
3792.00,0.0135
3791.00,0.0135
3790.00,0.0135
3789.00,0.0134
3788.00,0.0134
3787.00,0.0134
3786.00,0.0134
3785.00,0.0134
3784.00,0.0134
3783.00,0.0134
3782.00,0.0134
3781.00,0.0134
3780.00,0.0134
3779.00,0.0134
3778.00,0.0134
3777.00,0.0134
3776.00,0.0134
3775.00,0.0134
3774.00,0.0134
3773.00,0.0134
3772.00,0.0134
3771.00,0.0134
3770.00,0.0134
3769.00,0.0134
3768.00,0.0134
3767.00,0.0134
3766.00,0.0134
3765.00,0.0134
3764.00,0.0134
3763.00,0.0134
3762.00,0.0134
3761.00,0.0134
3760.00,0.0133
3759.00,0.0133
3758.00,0.0133
3757.00,0.0133
3756.00,0.0133
3755.00,0.0133
3754.00,0.0133
3753.00,0.0133
3752.00,0.0133
3751.00,0.0133
3750.00,0.0133
3749.00,0.0133
3748.00,0.0133
3747.00,0.0133
3746.00,0.0133
3745.00,0.0133
3744.00,0.0133
3743.00,0.0133
3742.00,0.0133
3741.00,0.0133
3740.00,0.0133
3739.00,0.0133
3738.00,0.0133
3737.00,0.0132
3736.00,0.0132
3735.00,0.0132
3734.00,0.0131
3733.00,0.0131
3732.00,0.0131
3731.00,0.0131
3730.00,0.0131
3729.00,0.0131
3728.00,0.0131
3727.00,0.0130
3726.00,0.0130
3725.00,0.0130
3724.00,0.0130
3723.00,0.0130
3722.00,0.0130
3721.00,0.0130
3720.00,0.0129
3719.00,0.0129
3718.00,0.0129
3717.00,0.0130
3716.00,0.0130
3715.00,0.0130
3714.00,0.0130
3713.00,0.0130
3712.00,0.0129
3711.00,0.0129
3710.00,0.0129
3709.00,0.0129
3708.00,0.0128
3707.00,0.0128
3706.00,0.0128
3705.00,0.0128
3704.00,0.0128
3703.00,0.0128
3702.00,0.0128
3701.00,0.0128
3700.00,0.0128
3699.00,0.0128
3698.00,0.0128
3697.00,0.0128
3696.00,0.0128
3695.00,0.0128
3694.00,0.0128
3693.00,0.0128
3692.00,0.0128
3691.00,0.0128
3690.00,0.0128
3689.00,0.0128
3688.00,0.0128
3687.00,0.0128
3686.00,0.0128
3685.00,0.0128
3684.00,0.0128
3683.00,0.0128
3682.00,0.0128
3681.00,0.0128
3680.00,0.0128
3679.00,0.0128
3678.00,0.0129
3677.00,0.0129
3676.00,0.0130
3675.00,0.0130
3674.00,0.0130
3673.00,0.0130
3672.00,0.0130
3671.00,0.0130
3670.00,0.0130
3669.00,0.0130
3668.00,0.0130
3667.00,0.0130
3666.00,0.0130
3665.00,0.0131
3664.00,0.0131
3663.00,0.0131
3662.00,0.0131
3661.00,0.0131
3660.00,0.0131
3659.00,0.0132
3658.00,0.0132
3657.00,0.0132
3656.00,0.0133
3655.00,0.0133
3654.00,0.0133
3653.00,0.0134
3652.00,0.0134
3651.00,0.0135
3650.00,0.0135
3649.00,0.0136
3648.00,0.0136
3647.00,0.0136
3646.00,0.0137
3645.00,0.0137
3644.00,0.0137
3643.00,0.0137
3642.00,0.0137
3641.00,0.0138
3640.00,0.0138
3639.00,0.0138
3638.00,0.0138
3637.00,0.0139
3636.00,0.0139
3635.00,0.0140
3634.00,0.0140
3633.00,0.0141
3632.00,0.0141
3631.00,0.0142
3630.00,0.0142
3629.00,0.0143
3628.00,0.0143
3627.00,0.0144
3626.00,0.0144
3625.00,0.0145
3624.00,0.0145
3623.00,0.0145
3622.00,0.0146
3621.00,0.0147
3620.00,0.0147
3619.00,0.0147
3618.00,0.0148
3617.00,0.0149
3616.00,0.0149
3615.00,0.0150
3614.00,0.0151
3613.00,0.0151
3612.00,0.0152
3611.00,0.0152
3610.00,0.0153
3609.00,0.0153
3608.00,0.0154
3607.00,0.0154
3606.00,0.0155
3605.00,0.0155
3604.00,0.0156
3603.00,0.0156
3602.00,0.0157
3601.00,0.0157
3600.00,0.0158
3599.00,0.0158
3598.00,0.0159
3597.00,0.0160
3596.00,0.0160
3595.00,0.0161
3594.00,0.0161
3593.00,0.0162
3592.00,0.0162
3591.00,0.0163
3590.00,0.0164
3589.00,0.0164
3588.00,0.0165
3587.00,0.0166
3586.00,0.0167
3585.00,0.0167
3584.00,0.0168
3583.00,0.0169
3582.00,0.0169
3581.00,0.0170
3580.00,0.0170
3579.00,0.0171
3578.00,0.0171
3577.00,0.0172
3576.00,0.0172
3575.00,0.0173
3574.00,0.0174
3573.00,0.0174
3572.00,0.0175
3571.00,0.0176
3570.00,0.0177
3569.00,0.0177
3568.00,0.0178
3567.00,0.0179
3566.00,0.0180
3565.00,0.0181
3564.00,0.0182
3563.00,0.0182
3562.00,0.0183
3561.00,0.0184
3560.00,0.0184
3559.00,0.0185
3558.00,0.0185
3557.00,0.0186
3556.00,0.0187
3555.00,0.0187
3554.00,0.0188
3553.00,0.0189
3552.00,0.0189
3551.00,0.0190
3550.00,0.0191
3549.00,0.0192
3548.00,0.0193
3547.00,0.0194
3546.00,0.0195
3545.00,0.0196
3544.00,0.0196
3543.00,0.0197
3542.00,0.0198
3541.00,0.0198
3540.00,0.0199
3539.00,0.0199
3538.00,0.0200
3537.00,0.0201
3536.00,0.0202
3535.00,0.0202
3534.00,0.0203
3533.00,0.0204
3532.00,0.0204
3531.00,0.0205
3530.00,0.0206
3529.00,0.0207
3528.00,0.0208
3527.00,0.0208
3526.00,0.0209
3525.00,0.0210
3524.00,0.0211
3523.00,0.0212
3522.00,0.0212
3521.00,0.0213
3520.00,0.0214
3519.00,0.0214
3518.00,0.0215
3517.00,0.0216
3516.00,0.0216
3515.00,0.0217
3514.00,0.0218
3513.00,0.0219
3512.00,0.0220
3511.00,0.0220
3510.00,0.0221
3509.00,0.0222
3508.00,0.0222
3507.00,0.0223
3506.00,0.0224
3505.00,0.0225
3504.00,0.0226
3503.00,0.0227
3502.00,0.0228
3501.00,0.0229
3500.00,0.0229
3499.00,0.0230
3498.00,0.0231
3497.00,0.0231
3496.00,0.0232
3495.00,0.0233
3494.00,0.0234
3493.00,0.0234
3492.00,0.0235
3491.00,0.0236
3490.00,0.0237
3489.00,0.0238
3488.00,0.0238
3487.00,0.0239
3486.00,0.0240
3485.00,0.0241
3484.00,0.0242
3483.00,0.0243
3482.00,0.0244
3481.00,0.0245
3480.00,0.0245
3479.00,0.0246
3478.00,0.0247
3477.00,0.0247
3476.00,0.0248
3475.00,0.0249
3474.00,0.0250
3473.00,0.0251
3472.00,0.0252
3471.00,0.0252
3470.00,0.0253
3469.00,0.0254
3468.00,0.0255
3467.00,0.0256
3466.00,0.0256
3465.00,0.0257
3464.00,0.0258
3463.00,0.0258
3462.00,0.0259
3461.00,0.0260
3460.00,0.0261
3459.00,0.0262
3458.00,0.0262
3457.00,0.0263
3456.00,0.0264
3455.00,0.0265
3454.00,0.0265
3453.00,0.0266
3452.00,0.0267
3451.00,0.0268
3450.00,0.0268
3449.00,0.0269
3448.00,0.0270
3447.00,0.0271
3446.00,0.0271
3445.00,0.0272
3444.00,0.0273
3443.00,0.0274
3442.00,0.0275
3441.00,0.0276
3440.00,0.0276
3439.00,0.0277
3438.00,0.0278
3437.00,0.0279
3436.00,0.0280
3435.00,0.0280
3434.00,0.0281
3433.00,0.0282
3432.00,0.0283
3431.00,0.0283
3430.00,0.0284
3429.00,0.0285
3428.00,0.0286
3427.00,0.0286
3426.00,0.0287
3425.00,0.0288
3424.00,0.0289
3423.00,0.0289
3422.00,0.0290
3421.00,0.0291
3420.00,0.0292
3419.00,0.0293
3418.00,0.0294
3417.00,0.0295
3416.00,0.0296
3415.00,0.0296
3414.00,0.0297
3413.00,0.0298
3412.00,0.0298
3411.00,0.0299
3410.00,0.0300
3409.00,0.0301
3408.00,0.0301
3407.00,0.0302
3406.00,0.0303
3405.00,0.0304
3404.00,0.0305
3403.00,0.0305
3402.00,0.0306
3401.00,0.0307
3400.00,0.0308
3399.00,0.0308
3398.00,0.0309
3397.00,0.0310
3396.00,0.0311
3395.00,0.0312
3394.00,0.0313
3393.00,0.0313
3392.00,0.0314
3391.00,0.0315
3390.00,0.0315
3389.00,0.0316
3388.00,0.0317
3387.00,0.0318
3386.00,0.0319
3385.00,0.0319
3384.00,0.0320
3383.00,0.0321
3382.00,0.0322
3381.00,0.0323
3380.00,0.0323
3379.00,0.0324
3378.00,0.0325
3377.00,0.0326
3376.00,0.0327
3375.00,0.0328
3374.00,0.0329
3373.00,0.0330
3372.00,0.0331
3371.00,0.0332
3370.00,0.0333
3369.00,0.0334
3368.00,0.0335
3367.00,0.0336
3366.00,0.0337
3365.00,0.0338
3364.00,0.0339
3363.00,0.0340
3362.00,0.0341
3361.00,0.0343
3360.00,0.0344
3359.00,0.0345
3358.00,0.0346
3357.00,0.0347
3356.00,0.0349
3355.00,0.0350
3354.00,0.0351
3353.00,0.0352
3352.00,0.0353
3351.00,0.0354
3350.00,0.0355
3349.00,0.0357
3348.00,0.0358
3347.00,0.0359
3346.00,0.0361
3345.00,0.0362
3344.00,0.0363
3343.00,0.0365
3342.00,0.0366
3341.00,0.0368
3340.00,0.0369
3339.00,0.0371
3338.00,0.0372
3337.00,0.0374
3336.00,0.0376
3335.00,0.0378
3334.00,0.0379
3333.00,0.0381
3332.00,0.0383
3331.00,0.0385
3330.00,0.0386
3329.00,0.0388
3328.00,0.0390
3327.00,0.0391
3326.00,0.0393
3325.00,0.0395
3324.00,0.0397
3323.00,0.0400
3322.00,0.0402
3321.00,0.0404
3320.00,0.0406
3319.00,0.0408
3318.00,0.0410
3317.00,0.0413
3316.00,0.0415
3315.00,0.0417
3314.00,0.0419
3313.00,0.0422
3312.00,0.0424
3311.00,0.0426
3310.00,0.0428
3309.00,0.0430
3308.00,0.0432
3307.00,0.0434
3306.00,0.0437
3305.00,0.0440
3304.00,0.0443
3303.00,0.0446
3302.00,0.0448
3301.00,0.0451
3300.00,0.0454
3299.00,0.0456
3298.00,0.0458
3297.00,0.0460
3296.00,0.0462
3295.00,0.0465
3294.00,0.0467
3293.00,0.0470
3292.00,0.0472
3291.00,0.0475
3290.00,0.0477
3289.00,0.0480
3288.00,0.0482
3287.00,0.0484
3286.00,0.0486
3285.00,0.0488
3284.00,0.0489
3283.00,0.0491
3282.00,0.0492
3281.00,0.0494
3280.00,0.0495
3279.00,0.0496
3278.00,0.0497
3277.00,0.0497
3276.00,0.0498
3275.00,0.0498
3274.00,0.0498
3273.00,0.0497
3272.00,0.0497
3271.00,0.0497
3270.00,0.0497
3269.00,0.0497
3268.00,0.0496
3267.00,0.0496
3266.00,0.0495
3265.00,0.0494
3264.00,0.0493
3263.00,0.0491
3262.00,0.0490
3261.00,0.0488
3260.00,0.0486
3259.00,0.0484
3258.00,0.0482
3257.00,0.0480
3256.00,0.0479
3255.00,0.0477
3254.00,0.0475
3253.00,0.0474
3252.00,0.0472
3251.00,0.0470
3250.00,0.0468
3249.00,0.0466
3248.00,0.0464
3247.00,0.0462
3246.00,0.0460
3245.00,0.0459
3244.00,0.0458
3243.00,0.0456
3242.00,0.0454
3241.00,0.0452
3240.00,0.0451
3239.00,0.0449
3238.00,0.0447
3237.00,0.0445
3236.00,0.0444
3235.00,0.0442
3234.00,0.0440
3233.00,0.0439
3232.00,0.0438
3231.00,0.0437
3230.00,0.0437
3229.00,0.0436
3228.00,0.0434
3227.00,0.0433
3226.00,0.0432
3225.00,0.0431
3224.00,0.0429
3223.00,0.0428
3222.00,0.0427
3221.00,0.0426
3220.00,0.0425
3219.00,0.0424
3218.00,0.0423
3217.00,0.0422
3216.00,0.0421
3215.00,0.0420
3214.00,0.0419
3213.00,0.0418
3212.00,0.0417
3211.00,0.0416
3210.00,0.0415
3209.00,0.0414
3208.00,0.0413
3207.00,0.0412
3206.00,0.0411
3205.00,0.0410
3204.00,0.0409
3203.00,0.0408
3202.00,0.0407
3201.00,0.0406
3200.00,0.0405
3199.00,0.0404
3198.00,0.0403
3197.00,0.0402
3196.00,0.0401
3195.00,0.0400
3194.00,0.0399
3193.00,0.0398
3192.00,0.0397
3191.00,0.0396
3190.00,0.0394
3189.00,0.0393
3188.00,0.0392
3187.00,0.0391
3186.00,0.0390
3185.00,0.0389
3184.00,0.0388
3183.00,0.0387
3182.00,0.0385
3181.00,0.0384
3180.00,0.0383
3179.00,0.0382
3178.00,0.0381
3177.00,0.0380
3176.00,0.0379
3175.00,0.0377
3174.00,0.0376
3173.00,0.0375
3172.00,0.0374
3171.00,0.0373
3170.00,0.0371
3169.00,0.0370
3168.00,0.0369
3167.00,0.0368
3166.00,0.0367
3165.00,0.0366
3164.00,0.0364
3163.00,0.0363
3162.00,0.0362
3161.00,0.0361
3160.00,0.0360
3159.00,0.0359
3158.00,0.0358
3157.00,0.0356
3156.00,0.0355
3155.00,0.0354
3154.00,0.0353
3153.00,0.0352
3152.00,0.0351
3151.00,0.0350
3150.00,0.0349
3149.00,0.0348
3148.00,0.0347
3147.00,0.0346
3146.00,0.0346
3145.00,0.0345
3144.00,0.0344
3143.00,0.0343
3142.00,0.0342
3141.00,0.0341
3140.00,0.0340
3139.00,0.0339
3138.00,0.0338
3137.00,0.0337
3136.00,0.0337
3135.00,0.0336
3134.00,0.0335
3133.00,0.0334
3132.00,0.0334
3131.00,0.0333
3130.00,0.0332
3129.00,0.0331
3128.00,0.0331
3127.00,0.0330
3126.00,0.0330
3125.00,0.0329
3124.00,0.0328
3123.00,0.0328
3122.00,0.0327
3121.00,0.0326
3120.00,0.0325
3119.00,0.0325
3118.00,0.0325
3117.00,0.0324
3116.00,0.0324
3115.00,0.0324
3114.00,0.0324
3113.00,0.0324
3112.00,0.0324
3111.00,0.0324
3110.00,0.0324
3109.00,0.0323
3108.00,0.0323
3107.00,0.0324
3106.00,0.0324
3105.00,0.0324
3104.00,0.0324
3103.00,0.0324
3102.00,0.0324
3101.00,0.0324
3100.00,0.0324
3099.00,0.0324
3098.00,0.0324
3097.00,0.0325
3096.00,0.0325
3095.00,0.0325
3094.00,0.0325
3093.00,0.0325
3092.00,0.0325
3091.00,0.0325
3090.00,0.0326
3089.00,0.0326
3088.00,0.0326
3087.00,0.0326
3086.00,0.0326
3085.00,0.0326
3084.00,0.0326
3083.00,0.0326
3082.00,0.0326
3081.00,0.0326
3080.00,0.0326
3079.00,0.0327
3078.00,0.0327
3077.00,0.0328
3076.00,0.0328
3075.00,0.0328
3074.00,0.0329
3073.00,0.0329
3072.00,0.0329
3071.00,0.0328
3070.00,0.0328
3069.00,0.0327
3068.00,0.0327
3067.00,0.0327
3066.00,0.0327
3065.00,0.0327
3064.00,0.0327
3063.00,0.0327
3062.00,0.0327
3061.00,0.0327
3060.00,0.0326
3059.00,0.0325
3058.00,0.0325
3057.00,0.0324
3056.00,0.0323
3055.00,0.0322
3054.00,0.0321
3053.00,0.0321
3052.00,0.0320
3051.00,0.0319
3050.00,0.0319
3049.00,0.0318
3048.00,0.0317
3047.00,0.0316
3046.00,0.0315
3045.00,0.0314
3044.00,0.0313
3043.00,0.0312
3042.00,0.0312
3041.00,0.0311
3040.00,0.0311
3039.00,0.0310
3038.00,0.0310
3037.00,0.0309
3036.00,0.0308
3035.00,0.0307
3034.00,0.0306
3033.00,0.0305
3032.00,0.0305
3031.00,0.0304
3030.00,0.0304
3029.00,0.0303
3028.00,0.0302
3027.00,0.0301
3026.00,0.0300
3025.00,0.0299
3024.00,0.0299
3023.00,0.0298
3022.00,0.0297
3021.00,0.0295
3020.00,0.0294
3019.00,0.0293
3018.00,0.0293
3017.00,0.0292
3016.00,0.0291
3015.00,0.0290
3014.00,0.0290
3013.00,0.0289
3012.00,0.0289
3011.00,0.0289
3010.00,0.0288
3009.00,0.0288
3008.00,0.0288
3007.00,0.0288
3006.00,0.0287
3005.00,0.0287
3004.00,0.0286
3003.00,0.0286
3002.00,0.0286
3001.00,0.0286
3000.00,0.0285
2999.00,0.0285
2998.00,0.0285
2997.00,0.0285
2996.00,0.0285
2995.00,0.0285
2994.00,0.0286
2993.00,0.0286
2992.00,0.0287
2991.00,0.0288
2990.00,0.0289
2989.00,0.0290
2988.00,0.0291
2987.00,0.0292
2986.00,0.0293
2985.00,0.0294
2984.00,0.0295
2983.00,0.0296
2982.00,0.0297
2981.00,0.0299
2980.00,0.0300
2979.00,0.0302
2978.00,0.0304
2977.00,0.0305
2976.00,0.0307
2975.00,0.0309
2974.00,0.0310
2973.00,0.0312
2972.00,0.0314
2971.00,0.0315
2970.00,0.0317
2969.00,0.0318
2968.00,0.0320
2967.00,0.0321
2966.00,0.0322
2965.00,0.0323
2964.00,0.0324
2963.00,0.0325
2962.00,0.0325
2961.00,0.0325
2960.00,0.0326
2959.00,0.0326
2958.00,0.0325
2957.00,0.0325
2956.00,0.0325
2955.00,0.0325
2954.00,0.0325
2953.00,0.0324
2952.00,0.0324
2951.00,0.0324
2950.00,0.0324
2949.00,0.0324
2948.00,0.0325
2947.00,0.0325
2946.00,0.0326
2945.00,0.0327
2944.00,0.0328
2943.00,0.0330
2942.00,0.0331
2941.00,0.0333
2940.00,0.0335
2939.00,0.0336
2938.00,0.0338
2937.00,0.0340
2936.00,0.0341
2935.00,0.0342
2934.00,0.0343
2933.00,0.0344
2932.00,0.0344
2931.00,0.0344
2930.00,0.0344
2929.00,0.0343
2928.00,0.0342
2927.00,0.0340
2926.00,0.0337
2925.00,0.0334
2924.00,0.0330
2923.00,0.0325
2922.00,0.0319
2921.00,0.0313
2920.00,0.0306
2919.00,0.0299
2918.00,0.0293
2917.00,0.0288
2916.00,0.0286
2915.00,0.0286
2914.00,0.0289
2913.00,0.0293
2912.00,0.0297
2911.00,0.0301
2910.00,0.0303
2909.00,0.0304
2908.00,0.0305
2907.00,0.0305
2906.00,0.0304
2905.00,0.0303
2904.00,0.0303
2903.00,0.0302
2902.00,0.0301
2901.00,0.0300
2900.00,0.0300
2899.00,0.0299
2898.00,0.0298
2897.00,0.0298
2896.00,0.0297
2895.00,0.0296
2894.00,0.0296
2893.00,0.0295
2892.00,0.0295
2891.00,0.0295
2890.00,0.0294
2889.00,0.0294
2888.00,0.0294
2887.00,0.0294
2886.00,0.0295
2885.00,0.0295
2884.00,0.0295
2883.00,0.0296
2882.00,0.0297
2881.00,0.0298
2880.00,0.0298
2879.00,0.0299
2878.00,0.0300
2877.00,0.0301
2876.00,0.0301
2875.00,0.0301
2874.00,0.0302
2873.00,0.0302
2872.00,0.0301
2871.00,0.0301
2870.00,0.0300
2869.00,0.0299
2868.00,0.0298
2867.00,0.0297
2866.00,0.0296
2865.00,0.0296
2864.00,0.0295
2863.00,0.0294
2862.00,0.0293
2861.00,0.0293
2860.00,0.0292
2859.00,0.0292
2858.00,0.0291
2857.00,0.0290
2856.00,0.0288
2855.00,0.0285
2854.00,0.0282
2853.00,0.0276
2852.00,0.0270
2851.00,0.0264
2850.00,0.0258
2849.00,0.0255
2848.00,0.0254
2847.00,0.0256
2846.00,0.0260
2845.00,0.0263
2844.00,0.0266
2843.00,0.0267
2842.00,0.0268
2841.00,0.0268
2840.00,0.0267
2839.00,0.0267
2838.00,0.0266
2837.00,0.0266
2836.00,0.0265
2835.00,0.0265
2834.00,0.0264
2833.00,0.0263
2832.00,0.0263
2831.00,0.0262
2830.00,0.0262
2829.00,0.0261
2828.00,0.0261
2827.00,0.0260
2826.00,0.0260
2825.00,0.0259
2824.00,0.0259
2823.00,0.0258
2822.00,0.0258
2821.00,0.0257
2820.00,0.0257
2819.00,0.0257
2818.00,0.0256
2817.00,0.0256
2816.00,0.0256
2815.00,0.0255
2814.00,0.0255
2813.00,0.0254
2812.00,0.0254
2811.00,0.0254
2810.00,0.0253
2809.00,0.0253
2808.00,0.0252
2807.00,0.0252
2806.00,0.0252
2805.00,0.0251
2804.00,0.0251
2803.00,0.0251
2802.00,0.0250
2801.00,0.0250
2800.00,0.0249
2799.00,0.0249
2798.00,0.0249
2797.00,0.0248
2796.00,0.0248
2795.00,0.0248
2794.00,0.0247
2793.00,0.0247
2792.00,0.0247
2791.00,0.0246
2790.00,0.0246
2789.00,0.0246
2788.00,0.0245
2787.00,0.0245
2786.00,0.0245
2785.00,0.0245
2784.00,0.0244
2783.00,0.0244
2782.00,0.0244
2781.00,0.0243
2780.00,0.0243
2779.00,0.0242
2778.00,0.0242
2777.00,0.0242
2776.00,0.0241
2775.00,0.0241
2774.00,0.0241
2773.00,0.0240
2772.00,0.0240
2771.00,0.0240
2770.00,0.0239
2769.00,0.0239
2768.00,0.0239
2767.00,0.0238
2766.00,0.0238
2765.00,0.0238
2764.00,0.0238
2763.00,0.0237
2762.00,0.0237
2761.00,0.0237
2760.00,0.0236
2759.00,0.0236
2758.00,0.0236
2757.00,0.0235
