Created as New Dataset,Sample 331 By YargerLab Date Monday, August 19 2024
cm-1,A
4000.00,0.0095
3999.00,0.0095
3998.00,0.0095
3997.00,0.0094
3996.00,0.0094
3995.00,0.0094
3994.00,0.0095
3993.00,0.0095
3992.00,0.0095
3991.00,0.0095
3990.00,0.0095
3989.00,0.0095
3988.00,0.0095
3987.00,0.0095
3986.00,0.0095
3985.00,0.0095
3984.00,0.0095
3983.00,0.0095
3982.00,0.0095
3981.00,0.0095
3980.00,0.0095
3979.00,0.0095
3978.00,0.0095
3977.00,0.0095
3976.00,0.0095
3975.00,0.0095
3974.00,0.0095
3973.00,0.0094
3972.00,0.0094
3971.00,0.0094
3970.00,0.0094
3969.00,0.0094
3968.00,0.0094
3967.00,0.0094
3966.00,0.0094
3965.00,0.0094
3964.00,0.0094
3963.00,0.0094
3962.00,0.0094
3961.00,0.0094
3960.00,0.0094
3959.00,0.0094
3958.00,0.0094
3957.00,0.0094
3956.00,0.0094
3955.00,0.0094
3954.00,0.0094
3953.00,0.0094
3952.00,0.0094
3951.00,0.0094
3950.00,0.0094
3949.00,0.0094
3948.00,0.0094
3947.00,0.0094
3946.00,0.0094
3945.00,0.0094
3944.00,0.0094
3943.00,0.0094
3942.00,0.0094
3941.00,0.0093
3940.00,0.0093
3939.00,0.0093
3938.00,0.0094
3937.00,0.0094
3936.00,0.0094
3935.00,0.0094
3934.00,0.0094
3933.00,0.0094
3932.00,0.0093
3931.00,0.0093
3930.00,0.0093
3929.00,0.0093
3928.00,0.0093
3927.00,0.0093
3926.00,0.0093
3925.00,0.0093
3924.00,0.0093
3923.00,0.0093
3922.00,0.0093
3921.00,0.0093
3920.00,0.0093
3919.00,0.0093
3918.00,0.0093
3917.00,0.0093
3916.00,0.0093
3915.00,0.0093
3914.00,0.0093
3913.00,0.0093
3912.00,0.0093
3911.00,0.0093
3910.00,0.0093
3909.00,0.0093
3908.00,0.0093
3907.00,0.0093
3906.00,0.0093
3905.00,0.0092
3904.00,0.0092
3903.00,0.0092
3902.00,0.0091
3901.00,0.0091
3900.00,0.0091
3899.00,0.0091
3898.00,0.0091
3897.00,0.0092
3896.00,0.0092
3895.00,0.0092
3894.00,0.0092
3893.00,0.0092
3892.00,0.0092
3891.00,0.0092
3890.00,0.0092
3889.00,0.0092
3888.00,0.0091
3887.00,0.0091
3886.00,0.0092
3885.00,0.0092
3884.00,0.0092
3883.00,0.0091
3882.00,0.0091
3881.00,0.0091
3880.00,0.0091
3879.00,0.0092
3878.00,0.0092
3877.00,0.0092
3876.00,0.0091
3875.00,0.0091
3874.00,0.0091
3873.00,0.0091
3872.00,0.0090
3871.00,0.0090
3870.00,0.0090
3869.00,0.0091
3868.00,0.0090
3867.00,0.0090
3866.00,0.0090
3865.00,0.0090
3864.00,0.0090
3863.00,0.0090
3862.00,0.0090
3861.00,0.0090
3860.00,0.0090
3859.00,0.0091
3858.00,0.0091
3857.00,0.0091
3856.00,0.0090
3855.00,0.0090
3854.00,0.0090
3853.00,0.0089
3852.00,0.0089
3851.00,0.0089
3850.00,0.0089
3849.00,0.0089
3848.00,0.0090
3847.00,0.0090
3846.00,0.0090
3845.00,0.0091
3844.00,0.0091
3843.00,0.0090
3842.00,0.0090
3841.00,0.0090
3840.00,0.0089
3839.00,0.0089
3838.00,0.0089
3837.00,0.0089
3836.00,0.0089
3835.00,0.0089
3834.00,0.0089
3833.00,0.0089
3832.00,0.0090
3831.00,0.0090
3830.00,0.0090
3829.00,0.0090
3828.00,0.0090
3827.00,0.0090
3826.00,0.0090
3825.00,0.0090
3824.00,0.0090
3823.00,0.0089
3822.00,0.0089
3821.00,0.0089
3820.00,0.0089
3819.00,0.0088
3818.00,0.0088
3817.00,0.0088
3816.00,0.0088
3815.00,0.0089
3814.00,0.0089
3813.00,0.0089
3812.00,0.0089
3811.00,0.0089
3810.00,0.0090
3809.00,0.0089
3808.00,0.0089
3807.00,0.0089
3806.00,0.0089
3805.00,0.0089
3804.00,0.0088
3803.00,0.0088
3802.00,0.0088
3801.00,0.0088
3800.00,0.0088
3799.00,0.0088
3798.00,0.0088
3797.00,0.0088
3796.00,0.0089
3795.00,0.0089
3794.00,0.0089
3793.00,0.0089
3792.00,0.0089
3791.00,0.0089
3790.00,0.0090
3789.00,0.0090
3788.00,0.0089
3787.00,0.0089
3786.00,0.0089
3785.00,0.0089
3784.00,0.0089
3783.00,0.0089
3782.00,0.0089
3781.00,0.0088
3780.00,0.0089
3779.00,0.0089
3778.00,0.0089
3777.00,0.0089
3776.00,0.0089
3775.00,0.0089
3774.00,0.0089
3773.00,0.0089
3772.00,0.0089
3771.00,0.0089
3770.00,0.0089
3769.00,0.0088
3768.00,0.0088
3767.00,0.0088
3766.00,0.0088
3765.00,0.0088
3764.00,0.0088
3763.00,0.0088
3762.00,0.0088
3761.00,0.0088
3760.00,0.0088
3759.00,0.0088
3758.00,0.0088
3757.00,0.0088
3756.00,0.0088
3755.00,0.0087
3754.00,0.0087
3753.00,0.0087
3752.00,0.0087
3751.00,0.0086
3750.00,0.0086
3749.00,0.0085
3748.00,0.0085
3747.00,0.0085
3746.00,0.0084
3745.00,0.0085
3744.00,0.0086
3743.00,0.0086
3742.00,0.0086
3741.00,0.0086
3740.00,0.0086
3739.00,0.0086
3738.00,0.0086
3737.00,0.0085
3736.00,0.0085
3735.00,0.0085
3734.00,0.0085
3733.00,0.0085
3732.00,0.0085
3731.00,0.0085
3730.00,0.0085
3729.00,0.0085
3728.00,0.0085
3727.00,0.0086
3726.00,0.0086
3725.00,0.0086
3724.00,0.0085
3723.00,0.0085
3722.00,0.0085
3721.00,0.0085
3720.00,0.0085
3719.00,0.0085
3718.00,0.0085
3717.00,0.0086
3716.00,0.0086
3715.00,0.0085
3714.00,0.0085
3713.00,0.0085
3712.00,0.0085
3711.00,0.0084
3710.00,0.0084
3709.00,0.0084
3708.00,0.0084
3707.00,0.0084
3706.00,0.0085
3705.00,0.0085
3704.00,0.0085
3703.00,0.0085
3702.00,0.0085
3701.00,0.0085
3700.00,0.0085
3699.00,0.0085
3698.00,0.0085
3697.00,0.0085
3696.00,0.0085
3695.00,0.0085
3694.00,0.0085
3693.00,0.0085
3692.00,0.0085
3691.00,0.0084
3690.00,0.0084
3689.00,0.0084
3688.00,0.0084
3687.00,0.0084
3686.00,0.0084
3685.00,0.0085
3684.00,0.0085
3683.00,0.0085
3682.00,0.0085
3681.00,0.0085
3680.00,0.0086
3679.00,0.0085
3678.00,0.0085
3677.00,0.0085
3676.00,0.0085
3675.00,0.0085
3674.00,0.0085
3673.00,0.0085
3672.00,0.0084
3671.00,0.0085
3670.00,0.0085
3669.00,0.0086
3668.00,0.0086
3667.00,0.0086
3666.00,0.0087
3665.00,0.0087
3664.00,0.0088
3663.00,0.0089
3662.00,0.0089
3661.00,0.0090
3660.00,0.0090
3659.00,0.0090
3658.00,0.0090
3657.00,0.0090
3656.00,0.0090
3655.00,0.0090
3654.00,0.0090
3653.00,0.0090
3652.00,0.0090
3651.00,0.0090
3650.00,0.0090
3649.00,0.0090
3648.00,0.0091
3647.00,0.0091
3646.00,0.0091
3645.00,0.0092
3644.00,0.0093
3643.00,0.0093
3642.00,0.0094
3641.00,0.0095
3640.00,0.0095
3639.00,0.0096
3638.00,0.0096
3637.00,0.0096
3636.00,0.0097
3635.00,0.0097
3634.00,0.0097
3633.00,0.0098
3632.00,0.0097
3631.00,0.0097
3630.00,0.0097
3629.00,0.0098
3628.00,0.0098
3627.00,0.0099
3626.00,0.0099
3625.00,0.0100
3624.00,0.0100
3623.00,0.0101
3622.00,0.0102
3621.00,0.0102
3620.00,0.0103
3619.00,0.0103
3618.00,0.0104
3617.00,0.0104
3616.00,0.0104
3615.00,0.0105
3614.00,0.0105
3613.00,0.0106
3612.00,0.0107
3611.00,0.0107
3610.00,0.0107
3609.00,0.0108
3608.00,0.0109
3607.00,0.0109
3606.00,0.0110
3605.00,0.0111
3604.00,0.0111
3603.00,0.0112
3602.00,0.0112
3601.00,0.0113
3600.00,0.0113
3599.00,0.0114
3598.00,0.0114
3597.00,0.0115
3596.00,0.0115
3595.00,0.0116
3594.00,0.0116
3593.00,0.0117
3592.00,0.0117
3591.00,0.0118
3590.00,0.0118
3589.00,0.0119
3588.00,0.0119
3587.00,0.0120
3586.00,0.0121
3585.00,0.0122
3584.00,0.0122
3583.00,0.0123
3582.00,0.0124
3581.00,0.0124
3580.00,0.0125
3579.00,0.0126
3578.00,0.0126
3577.00,0.0127
3576.00,0.0127
3575.00,0.0128
3574.00,0.0129
3573.00,0.0129
3572.00,0.0130
3571.00,0.0131
3570.00,0.0131
3569.00,0.0131
3568.00,0.0132
3567.00,0.0132
3566.00,0.0133
3565.00,0.0134
3564.00,0.0134
3563.00,0.0135
3562.00,0.0136
3561.00,0.0137
3560.00,0.0138
3559.00,0.0139
3558.00,0.0139
3557.00,0.0140
3556.00,0.0141
3555.00,0.0141
3554.00,0.0142
3553.00,0.0143
3552.00,0.0143
3551.00,0.0144
3550.00,0.0145
3549.00,0.0146
3548.00,0.0147
3547.00,0.0147
3546.00,0.0148
3545.00,0.0149
3544.00,0.0149
3543.00,0.0150
3542.00,0.0151
3541.00,0.0151
3540.00,0.0152
3539.00,0.0153
3538.00,0.0153
3537.00,0.0154
3536.00,0.0155
3535.00,0.0155
3534.00,0.0156
3533.00,0.0157
3532.00,0.0157
3531.00,0.0158
3530.00,0.0159
3529.00,0.0159
3528.00,0.0160
3527.00,0.0160
3526.00,0.0161
3525.00,0.0162
3524.00,0.0162
3523.00,0.0163
3522.00,0.0164
3521.00,0.0165
3520.00,0.0165
3519.00,0.0166
3518.00,0.0167
3517.00,0.0168
3516.00,0.0169
3515.00,0.0169
3514.00,0.0170
3513.00,0.0170
3512.00,0.0171
3511.00,0.0172
3510.00,0.0172
3509.00,0.0173
3508.00,0.0173
3507.00,0.0174
3506.00,0.0175
3505.00,0.0176
3504.00,0.0177
3503.00,0.0177
3502.00,0.0178
3501.00,0.0179
3500.00,0.0179
3499.00,0.0180
3498.00,0.0181
3497.00,0.0181
3496.00,0.0182
3495.00,0.0183
3494.00,0.0184
3493.00,0.0184
3492.00,0.0185
3491.00,0.0186
3490.00,0.0187
3489.00,0.0188
3488.00,0.0188
3487.00,0.0189
3486.00,0.0190
3485.00,0.0190
3484.00,0.0191
3483.00,0.0192
3482.00,0.0193
3481.00,0.0193
3480.00,0.0194
3479.00,0.0194
3478.00,0.0195
3477.00,0.0196
3476.00,0.0197
3475.00,0.0197
3474.00,0.0198
3473.00,0.0199
3472.00,0.0200
3471.00,0.0201
3470.00,0.0201
3469.00,0.0202
3468.00,0.0203
3467.00,0.0203
3466.00,0.0204
3465.00,0.0204
3464.00,0.0205
3463.00,0.0206
3462.00,0.0206
3461.00,0.0207
3460.00,0.0208
3459.00,0.0209
3458.00,0.0209
3457.00,0.0210
3456.00,0.0211
3455.00,0.0211
3454.00,0.0212
3453.00,0.0213
3452.00,0.0213
3451.00,0.0214
3450.00,0.0215
3449.00,0.0215
3448.00,0.0216
3447.00,0.0217
3446.00,0.0217
3445.00,0.0218
3444.00,0.0218
3443.00,0.0219
3442.00,0.0220
3441.00,0.0221
3440.00,0.0222
3439.00,0.0223
3438.00,0.0223
3437.00,0.0224
3436.00,0.0225
3435.00,0.0226
3434.00,0.0226
3433.00,0.0227
3432.00,0.0228
3431.00,0.0228
3430.00,0.0229
3429.00,0.0230
3428.00,0.0230
3427.00,0.0231
3426.00,0.0232
3425.00,0.0232
3424.00,0.0233
3423.00,0.0234
3422.00,0.0234
3421.00,0.0235
3420.00,0.0236
3419.00,0.0237
3418.00,0.0237
3417.00,0.0238
3416.00,0.0239
3415.00,0.0239
3414.00,0.0240
3413.00,0.0241
3412.00,0.0242
3411.00,0.0242
3410.00,0.0243
3409.00,0.0244
3408.00,0.0244
3407.00,0.0245
3406.00,0.0246
3405.00,0.0246
3404.00,0.0247
3403.00,0.0248
3402.00,0.0249
3401.00,0.0249
3400.00,0.0250
3399.00,0.0250
3398.00,0.0251
3397.00,0.0251
3396.00,0.0252
3395.00,0.0253
3394.00,0.0253
3393.00,0.0254
3392.00,0.0255
3391.00,0.0255
3390.00,0.0256
3389.00,0.0257
3388.00,0.0257
3387.00,0.0258
3386.00,0.0259
3385.00,0.0259
3384.00,0.0260
3383.00,0.0261
3382.00,0.0261
3381.00,0.0262
3380.00,0.0263
3379.00,0.0263
3378.00,0.0264
3377.00,0.0265
3376.00,0.0266
3375.00,0.0267
3374.00,0.0267
3373.00,0.0268
3372.00,0.0269
3371.00,0.0270
3370.00,0.0270
3369.00,0.0271
3368.00,0.0272
3367.00,0.0273
3366.00,0.0274
3365.00,0.0275
3364.00,0.0276
3363.00,0.0277
3362.00,0.0278
3361.00,0.0278
3360.00,0.0279
3359.00,0.0280
3358.00,0.0281
3357.00,0.0282
3356.00,0.0283
3355.00,0.0284
3354.00,0.0285
3353.00,0.0286
3352.00,0.0286
3351.00,0.0287
3350.00,0.0288
3349.00,0.0289
3348.00,0.0290
3347.00,0.0291
3346.00,0.0292
3345.00,0.0293
3344.00,0.0294
3343.00,0.0295
3342.00,0.0296
3341.00,0.0298
3340.00,0.0299
3339.00,0.0300
3338.00,0.0301
3337.00,0.0302
3336.00,0.0303
3335.00,0.0305
3334.00,0.0306
3333.00,0.0307
3332.00,0.0308
3331.00,0.0310
3330.00,0.0311
3329.00,0.0312
3328.00,0.0313
3327.00,0.0315
3326.00,0.0316
3325.00,0.0317
3324.00,0.0319
3323.00,0.0320
3322.00,0.0322
3321.00,0.0323
3320.00,0.0325
3319.00,0.0326
3318.00,0.0328
3317.00,0.0329
3316.00,0.0331
3315.00,0.0332
3314.00,0.0334
3313.00,0.0335
3312.00,0.0337
3311.00,0.0338
3310.00,0.0339
3309.00,0.0341
3308.00,0.0342
3307.00,0.0344
3306.00,0.0345
3305.00,0.0347
3304.00,0.0349
3303.00,0.0351
3302.00,0.0353
3301.00,0.0355
3300.00,0.0356
3299.00,0.0358
3298.00,0.0359
3297.00,0.0360
3296.00,0.0362
3295.00,0.0363
3294.00,0.0365
3293.00,0.0366
3292.00,0.0368
3291.00,0.0369
3290.00,0.0371
3289.00,0.0372
3288.00,0.0374
3287.00,0.0375
3286.00,0.0376
3285.00,0.0377
3284.00,0.0378
3283.00,0.0379
3282.00,0.0380
3281.00,0.0381
3280.00,0.0382
3279.00,0.0382
3278.00,0.0382
3277.00,0.0383
3276.00,0.0383
3275.00,0.0382
3274.00,0.0382
3273.00,0.0382
3272.00,0.0382
3271.00,0.0381
3270.00,0.0381
3269.00,0.0381
3268.00,0.0381
3267.00,0.0380
3266.00,0.0379
3265.00,0.0379
3264.00,0.0378
3263.00,0.0377
3262.00,0.0376
3261.00,0.0374
3260.00,0.0373
3259.00,0.0372
3258.00,0.0370
3257.00,0.0369
3256.00,0.0368
3255.00,0.0367
3254.00,0.0365
3253.00,0.0364
3252.00,0.0363
3251.00,0.0361
3250.00,0.0360
3249.00,0.0358
3248.00,0.0357
3247.00,0.0356
3246.00,0.0355
3245.00,0.0354
3244.00,0.0353
3243.00,0.0352
3242.00,0.0350
3241.00,0.0349
3240.00,0.0348
3239.00,0.0347
3238.00,0.0345
3237.00,0.0344
3236.00,0.0343
3235.00,0.0342
3234.00,0.0341
3233.00,0.0340
3232.00,0.0339
3231.00,0.0338
3230.00,0.0338
3229.00,0.0337
3228.00,0.0336
3227.00,0.0335
3226.00,0.0334
3225.00,0.0334
3224.00,0.0333
3223.00,0.0332
3222.00,0.0331
3221.00,0.0331
3220.00,0.0330
3219.00,0.0329
3218.00,0.0328
3217.00,0.0327
3216.00,0.0326
3215.00,0.0326
3214.00,0.0325
3213.00,0.0324
3212.00,0.0324
3211.00,0.0323
3210.00,0.0322
3209.00,0.0322
3208.00,0.0321
3207.00,0.0320
3206.00,0.0319
3205.00,0.0318
3204.00,0.0318
3203.00,0.0317
3202.00,0.0316
3201.00,0.0316
3200.00,0.0315
3199.00,0.0314
3198.00,0.0314
3197.00,0.0313
3196.00,0.0312
3195.00,0.0311
3194.00,0.0310
3193.00,0.0309
3192.00,0.0308
3191.00,0.0308
3190.00,0.0307
3189.00,0.0306
3188.00,0.0305
3187.00,0.0304
3186.00,0.0303
3185.00,0.0302
3184.00,0.0301
3183.00,0.0300
3182.00,0.0299
3181.00,0.0298
3180.00,0.0298
3179.00,0.0297
3178.00,0.0296
3177.00,0.0295
3176.00,0.0294
3175.00,0.0293
3174.00,0.0292
3173.00,0.0291
3172.00,0.0290
3171.00,0.0289
3170.00,0.0288
3169.00,0.0287
3168.00,0.0286
3167.00,0.0285
3166.00,0.0284
3165.00,0.0283
3164.00,0.0282
3163.00,0.0281
3162.00,0.0280
3161.00,0.0279
3160.00,0.0278
3159.00,0.0277
3158.00,0.0276
3157.00,0.0276
3156.00,0.0275
3155.00,0.0274
3154.00,0.0273
3153.00,0.0272
3152.00,0.0271
3151.00,0.0270
3150.00,0.0269
3149.00,0.0268
3148.00,0.0268
3147.00,0.0267
3146.00,0.0266
3145.00,0.0265
3144.00,0.0265
3143.00,0.0264
3142.00,0.0263
3141.00,0.0262
3140.00,0.0261
3139.00,0.0260
3138.00,0.0260
3137.00,0.0259
3136.00,0.0258
3135.00,0.0258
3134.00,0.0257
3133.00,0.0256
3132.00,0.0256
3131.00,0.0255
3130.00,0.0254
3129.00,0.0254
3128.00,0.0253
3127.00,0.0253
3126.00,0.0252
3125.00,0.0252
3124.00,0.0251
3123.00,0.0251
3122.00,0.0250
3121.00,0.0249
3120.00,0.0249
3119.00,0.0248
3118.00,0.0248
3117.00,0.0248
3116.00,0.0247
3115.00,0.0247
3114.00,0.0247
3113.00,0.0247
3112.00,0.0247
3111.00,0.0247
3110.00,0.0247
3109.00,0.0247
3108.00,0.0246
3107.00,0.0246
3106.00,0.0246
3105.00,0.0246
3104.00,0.0246
3103.00,0.0246
3102.00,0.0246
3101.00,0.0246
3100.00,0.0246
3099.00,0.0246
3098.00,0.0247
3097.00,0.0247
3096.00,0.0247
3095.00,0.0247
3094.00,0.0247
3093.00,0.0247
3092.00,0.0247
3091.00,0.0247
3090.00,0.0247
3089.00,0.0247
3088.00,0.0247
3087.00,0.0247
3086.00,0.0247
3085.00,0.0247
3084.00,0.0247
3083.00,0.0247
3082.00,0.0247
3081.00,0.0247
3080.00,0.0247
3079.00,0.0247
3078.00,0.0247
3077.00,0.0248
3076.00,0.0248
3075.00,0.0248
3074.00,0.0248
3073.00,0.0248
3072.00,0.0248
3071.00,0.0248
3070.00,0.0248
3069.00,0.0248
3068.00,0.0247
3067.00,0.0247
3066.00,0.0247
3065.00,0.0247
3064.00,0.0247
3063.00,0.0247
3062.00,0.0246
3061.00,0.0246
3060.00,0.0246
3059.00,0.0245
3058.00,0.0245
3057.00,0.0244
3056.00,0.0244
3055.00,0.0243
3054.00,0.0242
3053.00,0.0242
3052.00,0.0241
3051.00,0.0240
3050.00,0.0240
3049.00,0.0239
3048.00,0.0239
3047.00,0.0238
3046.00,0.0237
3045.00,0.0236
3044.00,0.0235
3043.00,0.0235
3042.00,0.0234
3041.00,0.0234
3040.00,0.0233
3039.00,0.0233
3038.00,0.0232
3037.00,0.0231
3036.00,0.0231
3035.00,0.0230
3034.00,0.0229
3033.00,0.0229
3032.00,0.0228
3031.00,0.0228
3030.00,0.0227
3029.00,0.0227
3028.00,0.0226
3027.00,0.0225
3026.00,0.0225
3025.00,0.0224
3024.00,0.0223
3023.00,0.0222
3022.00,0.0222
3021.00,0.0221
3020.00,0.0220
3019.00,0.0219
3018.00,0.0218
3017.00,0.0218
3016.00,0.0217
3015.00,0.0217
3014.00,0.0216
3013.00,0.0216
3012.00,0.0215
3011.00,0.0215
3010.00,0.0215
3009.00,0.0214
3008.00,0.0214
3007.00,0.0214
3006.00,0.0214
3005.00,0.0213
3004.00,0.0213
3003.00,0.0213
3002.00,0.0213
3001.00,0.0213
3000.00,0.0212
2999.00,0.0212
2998.00,0.0212
2997.00,0.0212
2996.00,0.0212
2995.00,0.0212
2994.00,0.0213
2993.00,0.0213
2992.00,0.0214
2991.00,0.0214
2990.00,0.0215
2989.00,0.0216
2988.00,0.0216
2987.00,0.0217
2986.00,0.0218
2985.00,0.0219
2984.00,0.0220
2983.00,0.0221
2982.00,0.0222
2981.00,0.0223
2980.00,0.0225
2979.00,0.0226
2978.00,0.0227
2977.00,0.0228
2976.00,0.0229
2975.00,0.0231
2974.00,0.0232
2973.00,0.0233
2972.00,0.0235
2971.00,0.0236
2970.00,0.0237
2969.00,0.0239
2968.00,0.0240
2967.00,0.0241
2966.00,0.0242
2965.00,0.0242
2964.00,0.0243
2963.00,0.0244
2962.00,0.0244
2961.00,0.0244
2960.00,0.0244
2959.00,0.0244
2958.00,0.0244
2957.00,0.0244
2956.00,0.0244
2955.00,0.0244
2954.00,0.0244
2953.00,0.0244
2952.00,0.0244
2951.00,0.0244
2950.00,0.0244
2949.00,0.0244
2948.00,0.0245
2947.00,0.0245
2946.00,0.0246
2945.00,0.0247
2944.00,0.0248
2943.00,0.0249
2942.00,0.0250
2941.00,0.0252
2940.00,0.0253
2939.00,0.0254
2938.00,0.0256
2937.00,0.0257
2936.00,0.0258
2935.00,0.0259
2934.00,0.0260
2933.00,0.0261
2932.00,0.0261
2931.00,0.0261
2930.00,0.0261
2929.00,0.0260
2928.00,0.0258
2927.00,0.0256
2926.00,0.0254
2925.00,0.0251
2924.00,0.0247
2923.00,0.0242
2922.00,0.0237
2921.00,0.0231
2920.00,0.0225
2919.00,0.0218
2918.00,0.0212
2917.00,0.0208
2916.00,0.0206
2915.00,0.0206
2914.00,0.0209
2913.00,0.0213
2912.00,0.0218
2911.00,0.0221
2910.00,0.0223
2909.00,0.0225
2908.00,0.0225
2907.00,0.0225
2906.00,0.0225
2905.00,0.0225
2904.00,0.0224
2903.00,0.0224
2902.00,0.0223
2901.00,0.0222
2900.00,0.0222
2899.00,0.0221
2898.00,0.0220
2897.00,0.0220
2896.00,0.0219
2895.00,0.0219
2894.00,0.0218
2893.00,0.0218
2892.00,0.0218
2891.00,0.0218
2890.00,0.0217
2889.00,0.0217
2888.00,0.0217
2887.00,0.0217
2886.00,0.0217
2885.00,0.0218
2884.00,0.0218
2883.00,0.0219
2882.00,0.0219
2881.00,0.0220
2880.00,0.0220
2879.00,0.0221
2878.00,0.0222
2877.00,0.0222
2876.00,0.0223
2875.00,0.0223
2874.00,0.0223
2873.00,0.0223
2872.00,0.0223
2871.00,0.0222
2870.00,0.0222
2869.00,0.0221
2868.00,0.0220
2867.00,0.0219
2866.00,0.0218
2865.00,0.0218
2864.00,0.0217
2863.00,0.0216
2862.00,0.0216
2861.00,0.0215
2860.00,0.0215
2859.00,0.0215
2858.00,0.0214
2857.00,0.0213
2856.00,0.0211
2855.00,0.0209
2854.00,0.0205
2853.00,0.0200
2852.00,0.0194
2851.00,0.0188
2850.00,0.0183
2849.00,0.0180
2848.00,0.0179
2847.00,0.0181
2846.00,0.0185
2845.00,0.0188
2844.00,0.0191
2843.00,0.0193
2842.00,0.0193
2841.00,0.0193
2840.00,0.0193
2839.00,0.0193
2838.00,0.0192
2837.00,0.0192
2836.00,0.0192
2835.00,0.0191
2834.00,0.0191
2833.00,0.0190
2832.00,0.0190
2831.00,0.0189
2830.00,0.0189
2829.00,0.0188
2828.00,0.0188
2827.00,0.0188
2826.00,0.0187
2825.00,0.0187
2824.00,0.0186
2823.00,0.0186
2822.00,0.0186
2821.00,0.0185
2820.00,0.0185
2819.00,0.0185
2818.00,0.0184
2817.00,0.0184
2816.00,0.0184
2815.00,0.0183
2814.00,0.0183
2813.00,0.0183
2812.00,0.0182
2811.00,0.0182
2810.00,0.0182
2809.00,0.0181
2808.00,0.0181
2807.00,0.0181
2806.00,0.0181
2805.00,0.0180
2804.00,0.0180
2803.00,0.0180
2802.00,0.0179
2801.00,0.0179
2800.00,0.0179
2799.00,0.0178
2798.00,0.0178
2797.00,0.0178
2796.00,0.0177
2795.00,0.0177
2794.00,0.0177
2793.00,0.0177
2792.00,0.0176
2791.00,0.0176
2790.00,0.0176
2789.00,0.0175
2788.00,0.0175
2787.00,0.0175
2786.00,0.0175
2785.00,0.0175
2784.00,0.0174
2783.00,0.0174
2782.00,0.0174
2781.00,0.0174
2780.00,0.0173
2779.00,0.0173
2778.00,0.0172
2777.00,0.0172
2776.00,0.0172
2775.00,0.0172
2774.00,0.0171
2773.00,0.0171
2772.00,0.0171
2771.00,0.0171
2770.00,0.0170
2769.00,0.0170
2768.00,0.0170
2767.00,0.0170
2766.00,0.0170
2765.00,0.0169
2764.00,0.0169
2763.00,0.0169
2762.00,0.0168
2761.00,0.0168
2760.00,0.0168
2759.00,0.0168
2758.00,0.0167
2757.00,0.0167
