Created as New Dataset,Sample 326 By YargerLab Date Monday, August 19 2024
cm-1,A
4000.00,0.0135
3999.00,0.0135
3998.00,0.0135
3997.00,0.0136
3996.00,0.0136
3995.00,0.0136
3994.00,0.0136
3993.00,0.0136
3992.00,0.0136
3991.00,0.0135
3990.00,0.0135
3989.00,0.0135
3988.00,0.0135
3987.00,0.0135
3986.00,0.0135
3985.00,0.0135
3984.00,0.0135
3983.00,0.0135
3982.00,0.0135
3981.00,0.0135
3980.00,0.0135
3979.00,0.0135
3978.00,0.0135
3977.00,0.0135
3976.00,0.0135
3975.00,0.0135
3974.00,0.0135
3973.00,0.0135
3972.00,0.0135
3971.00,0.0135
3970.00,0.0135
3969.00,0.0135
3968.00,0.0135
3967.00,0.0135
3966.00,0.0135
3965.00,0.0135
3964.00,0.0135
3963.00,0.0135
3962.00,0.0135
3961.00,0.0135
3960.00,0.0135
3959.00,0.0135
3958.00,0.0135
3957.00,0.0135
3956.00,0.0135
3955.00,0.0135
3954.00,0.0135
3953.00,0.0135
3952.00,0.0135
3951.00,0.0135
3950.00,0.0135
3949.00,0.0135
3948.00,0.0135
3947.00,0.0135
3946.00,0.0135
3945.00,0.0134
3944.00,0.0134
3943.00,0.0134
3942.00,0.0134
3941.00,0.0134
3940.00,0.0134
3939.00,0.0134
3938.00,0.0134
3937.00,0.0134
3936.00,0.0134
3935.00,0.0134
3934.00,0.0134
3933.00,0.0134
3932.00,0.0134
3931.00,0.0134
3930.00,0.0134
3929.00,0.0134
3928.00,0.0133
3927.00,0.0133
3926.00,0.0134
3925.00,0.0134
3924.00,0.0134
3923.00,0.0134
3922.00,0.0134
3921.00,0.0134
3920.00,0.0134
3919.00,0.0134
3918.00,0.0134
3917.00,0.0134
3916.00,0.0134
3915.00,0.0134
3914.00,0.0133
3913.00,0.0133
3912.00,0.0133
3911.00,0.0133
3910.00,0.0133
3909.00,0.0133
3908.00,0.0133
3907.00,0.0133
3906.00,0.0133
3905.00,0.0133
3904.00,0.0133
3903.00,0.0133
3902.00,0.0133
3901.00,0.0133
3900.00,0.0133
3899.00,0.0133
3898.00,0.0133
3897.00,0.0133
3896.00,0.0133
3895.00,0.0133
3894.00,0.0133
3893.00,0.0133
3892.00,0.0133
3891.00,0.0132
3890.00,0.0132
3889.00,0.0132
3888.00,0.0132
3887.00,0.0132
3886.00,0.0132
3885.00,0.0132
3884.00,0.0132
3883.00,0.0132
3882.00,0.0132
3881.00,0.0132
3880.00,0.0132
3879.00,0.0132
3878.00,0.0132
3877.00,0.0132
3876.00,0.0132
3875.00,0.0132
3874.00,0.0132
3873.00,0.0132
3872.00,0.0131
3871.00,0.0131
3870.00,0.0131
3869.00,0.0131
3868.00,0.0131
3867.00,0.0131
3866.00,0.0131
3865.00,0.0131
3864.00,0.0131
3863.00,0.0131
3862.00,0.0131
3861.00,0.0131
3860.00,0.0131
3859.00,0.0131
3858.00,0.0131
3857.00,0.0131
3856.00,0.0130
3855.00,0.0130
3854.00,0.0130
3853.00,0.0130
3852.00,0.0130
3851.00,0.0130
3850.00,0.0130
3849.00,0.0130
3848.00,0.0131
3847.00,0.0131
3846.00,0.0131
3845.00,0.0131
3844.00,0.0130
3843.00,0.0130
3842.00,0.0130
3841.00,0.0130
3840.00,0.0129
3839.00,0.0129
3838.00,0.0129
3837.00,0.0129
3836.00,0.0129
3835.00,0.0129
3834.00,0.0129
3833.00,0.0130
3832.00,0.0130
3831.00,0.0130
3830.00,0.0130
3829.00,0.0130
3828.00,0.0130
3827.00,0.0130
3826.00,0.0130
3825.00,0.0130
3824.00,0.0130
3823.00,0.0129
3822.00,0.0129
3821.00,0.0129
3820.00,0.0129
3819.00,0.0128
3818.00,0.0128
3817.00,0.0128
3816.00,0.0129
3815.00,0.0129
3814.00,0.0129
3813.00,0.0129
3812.00,0.0129
3811.00,0.0129
3810.00,0.0129
3809.00,0.0129
3808.00,0.0129
3807.00,0.0128
3806.00,0.0128
3805.00,0.0128
3804.00,0.0128
3803.00,0.0128
3802.00,0.0128
3801.00,0.0128
3800.00,0.0128
3799.00,0.0128
3798.00,0.0128
3797.00,0.0128
3796.00,0.0128
3795.00,0.0129
3794.00,0.0129
3793.00,0.0129
3792.00,0.0129
3791.00,0.0129
3790.00,0.0129
3789.00,0.0128
3788.00,0.0128
3787.00,0.0128
3786.00,0.0128
3785.00,0.0128
3784.00,0.0128
3783.00,0.0127
3782.00,0.0127
3781.00,0.0127
3780.00,0.0128
3779.00,0.0128
3778.00,0.0128
3777.00,0.0128
3776.00,0.0128
3775.00,0.0128
3774.00,0.0127
3773.00,0.0127
3772.00,0.0127
3771.00,0.0127
3770.00,0.0127
3769.00,0.0127
3768.00,0.0127
3767.00,0.0127
3766.00,0.0127
3765.00,0.0127
3764.00,0.0127
3763.00,0.0127
3762.00,0.0126
3761.00,0.0126
3760.00,0.0126
3759.00,0.0126
3758.00,0.0126
3757.00,0.0126
3756.00,0.0126
3755.00,0.0126
3754.00,0.0125
3753.00,0.0125
3752.00,0.0125
3751.00,0.0125
3750.00,0.0125
3749.00,0.0125
3748.00,0.0124
3747.00,0.0124
3746.00,0.0124
3745.00,0.0124
3744.00,0.0124
3743.00,0.0124
3742.00,0.0124
3741.00,0.0125
3740.00,0.0125
3739.00,0.0124
3738.00,0.0124
3737.00,0.0124
3736.00,0.0124
3735.00,0.0123
3734.00,0.0123
3733.00,0.0124
3732.00,0.0124
3731.00,0.0124
3730.00,0.0124
3729.00,0.0124
3728.00,0.0124
3727.00,0.0124
3726.00,0.0124
3725.00,0.0123
3724.00,0.0123
3723.00,0.0123
3722.00,0.0123
3721.00,0.0123
3720.00,0.0123
3719.00,0.0123
3718.00,0.0123
3717.00,0.0123
3716.00,0.0123
3715.00,0.0123
3714.00,0.0122
3713.00,0.0122
3712.00,0.0122
3711.00,0.0121
3710.00,0.0121
3709.00,0.0121
3708.00,0.0121
3707.00,0.0122
3706.00,0.0122
3705.00,0.0122
3704.00,0.0122
3703.00,0.0122
3702.00,0.0121
3701.00,0.0121
3700.00,0.0121
3699.00,0.0121
3698.00,0.0121
3697.00,0.0121
3696.00,0.0121
3695.00,0.0121
3694.00,0.0121
3693.00,0.0121
3692.00,0.0120
3691.00,0.0120
3690.00,0.0120
3689.00,0.0120
3688.00,0.0120
3687.00,0.0120
3686.00,0.0120
3685.00,0.0120
3684.00,0.0120
3683.00,0.0120
3682.00,0.0120
3681.00,0.0120
3680.00,0.0120
3679.00,0.0120
3678.00,0.0120
3677.00,0.0120
3676.00,0.0120
3675.00,0.0120
3674.00,0.0120
3673.00,0.0120
3672.00,0.0119
3671.00,0.0120
3670.00,0.0120
3669.00,0.0120
3668.00,0.0121
3667.00,0.0121
3666.00,0.0121
3665.00,0.0122
3664.00,0.0122
3663.00,0.0122
3662.00,0.0122
3661.00,0.0122
3660.00,0.0122
3659.00,0.0122
3658.00,0.0122
3657.00,0.0122
3656.00,0.0122
3655.00,0.0122
3654.00,0.0122
3653.00,0.0122
3652.00,0.0122
3651.00,0.0122
3650.00,0.0122
3649.00,0.0122
3648.00,0.0122
3647.00,0.0123
3646.00,0.0123
3645.00,0.0123
3644.00,0.0124
3643.00,0.0124
3642.00,0.0124
3641.00,0.0125
3640.00,0.0125
3639.00,0.0125
3638.00,0.0125
3637.00,0.0125
3636.00,0.0125
3635.00,0.0125
3634.00,0.0125
3633.00,0.0125
3632.00,0.0125
3631.00,0.0125
3630.00,0.0125
3629.00,0.0126
3628.00,0.0126
3627.00,0.0126
3626.00,0.0126
3625.00,0.0127
3624.00,0.0127
3623.00,0.0128
3622.00,0.0128
3621.00,0.0128
3620.00,0.0129
3619.00,0.0129
3618.00,0.0129
3617.00,0.0129
3616.00,0.0129
3615.00,0.0129
3614.00,0.0130
3613.00,0.0130
3612.00,0.0130
3611.00,0.0131
3610.00,0.0131
3609.00,0.0131
3608.00,0.0131
3607.00,0.0132
3606.00,0.0132
3605.00,0.0133
3604.00,0.0133
3603.00,0.0133
3602.00,0.0134
3601.00,0.0134
3600.00,0.0134
3599.00,0.0134
3598.00,0.0135
3597.00,0.0135
3596.00,0.0135
3595.00,0.0135
3594.00,0.0136
3593.00,0.0136
3592.00,0.0136
3591.00,0.0136
3590.00,0.0137
3589.00,0.0137
3588.00,0.0137
3587.00,0.0138
3586.00,0.0138
3585.00,0.0139
3584.00,0.0139
3583.00,0.0139
3582.00,0.0140
3581.00,0.0140
3580.00,0.0141
3579.00,0.0141
3578.00,0.0141
3577.00,0.0142
3576.00,0.0142
3575.00,0.0142
3574.00,0.0143
3573.00,0.0143
3572.00,0.0143
3571.00,0.0144
3570.00,0.0144
3569.00,0.0145
3568.00,0.0145
3567.00,0.0146
3566.00,0.0146
3565.00,0.0146
3564.00,0.0147
3563.00,0.0147
3562.00,0.0148
3561.00,0.0148
3560.00,0.0149
3559.00,0.0149
3558.00,0.0149
3557.00,0.0150
3556.00,0.0150
3555.00,0.0151
3554.00,0.0151
3553.00,0.0151
3552.00,0.0152
3551.00,0.0152
3550.00,0.0153
3549.00,0.0154
3548.00,0.0154
3547.00,0.0155
3546.00,0.0156
3545.00,0.0156
3544.00,0.0157
3543.00,0.0157
3542.00,0.0157
3541.00,0.0158
3540.00,0.0158
3539.00,0.0158
3538.00,0.0159
3537.00,0.0159
3536.00,0.0160
3535.00,0.0160
3534.00,0.0160
3533.00,0.0161
3532.00,0.0161
3531.00,0.0162
3530.00,0.0162
3529.00,0.0163
3528.00,0.0163
3527.00,0.0164
3526.00,0.0164
3525.00,0.0165
3524.00,0.0165
3523.00,0.0166
3522.00,0.0166
3521.00,0.0166
3520.00,0.0167
3519.00,0.0167
3518.00,0.0168
3517.00,0.0168
3516.00,0.0169
3515.00,0.0169
3514.00,0.0170
3513.00,0.0170
3512.00,0.0171
3511.00,0.0171
3510.00,0.0171
3509.00,0.0172
3508.00,0.0172
3507.00,0.0173
3506.00,0.0173
3505.00,0.0174
3504.00,0.0175
3503.00,0.0175
3502.00,0.0176
3501.00,0.0176
3500.00,0.0177
3499.00,0.0177
3498.00,0.0178
3497.00,0.0178
3496.00,0.0179
3495.00,0.0179
3494.00,0.0179
3493.00,0.0180
3492.00,0.0180
3491.00,0.0181
3490.00,0.0182
3489.00,0.0182
3488.00,0.0183
3487.00,0.0183
3486.00,0.0183
3485.00,0.0184
3484.00,0.0184
3483.00,0.0185
3482.00,0.0186
3481.00,0.0186
3480.00,0.0187
3479.00,0.0187
3478.00,0.0188
3477.00,0.0188
3476.00,0.0189
3475.00,0.0189
3474.00,0.0190
3473.00,0.0190
3472.00,0.0191
3471.00,0.0191
3470.00,0.0192
3469.00,0.0193
3468.00,0.0193
3467.00,0.0193
3466.00,0.0194
3465.00,0.0194
3464.00,0.0195
3463.00,0.0195
3462.00,0.0196
3461.00,0.0196
3460.00,0.0197
3459.00,0.0197
3458.00,0.0198
3457.00,0.0198
3456.00,0.0198
3455.00,0.0199
3454.00,0.0199
3453.00,0.0200
3452.00,0.0200
3451.00,0.0201
3450.00,0.0202
3449.00,0.0202
3448.00,0.0203
3447.00,0.0203
3446.00,0.0203
3445.00,0.0204
3444.00,0.0204
3443.00,0.0205
3442.00,0.0206
3441.00,0.0206
3440.00,0.0207
3439.00,0.0207
3438.00,0.0208
3437.00,0.0208
3436.00,0.0209
3435.00,0.0209
3434.00,0.0210
3433.00,0.0211
3432.00,0.0211
3431.00,0.0212
3430.00,0.0212
3429.00,0.0212
3428.00,0.0213
3427.00,0.0213
3426.00,0.0214
3425.00,0.0214
3424.00,0.0215
3423.00,0.0216
3422.00,0.0216
3421.00,0.0217
3420.00,0.0217
3419.00,0.0218
3418.00,0.0218
3417.00,0.0219
3416.00,0.0219
3415.00,0.0220
3414.00,0.0220
3413.00,0.0221
3412.00,0.0222
3411.00,0.0222
3410.00,0.0223
3409.00,0.0223
3408.00,0.0223
3407.00,0.0224
3406.00,0.0224
3405.00,0.0225
3404.00,0.0226
3403.00,0.0226
3402.00,0.0227
3401.00,0.0227
3400.00,0.0228
3399.00,0.0228
3398.00,0.0229
3397.00,0.0229
3396.00,0.0230
3395.00,0.0230
3394.00,0.0231
3393.00,0.0231
3392.00,0.0231
3391.00,0.0232
3390.00,0.0232
3389.00,0.0233
3388.00,0.0234
3387.00,0.0234
3386.00,0.0235
3385.00,0.0235
3384.00,0.0236
3383.00,0.0236
3382.00,0.0237
3381.00,0.0237
3380.00,0.0238
3379.00,0.0238
3378.00,0.0239
3377.00,0.0240
3376.00,0.0241
3375.00,0.0241
3374.00,0.0242
3373.00,0.0242
3372.00,0.0243
3371.00,0.0244
3370.00,0.0244
3369.00,0.0245
3368.00,0.0246
3367.00,0.0247
3366.00,0.0248
3365.00,0.0248
3364.00,0.0249
3363.00,0.0250
3362.00,0.0250
3361.00,0.0251
3360.00,0.0252
3359.00,0.0253
3358.00,0.0254
3357.00,0.0255
3356.00,0.0256
3355.00,0.0257
3354.00,0.0257
3353.00,0.0258
3352.00,0.0259
3351.00,0.0260
3350.00,0.0261
3349.00,0.0262
3348.00,0.0263
3347.00,0.0264
3346.00,0.0265
3345.00,0.0266
3344.00,0.0267
3343.00,0.0268
3342.00,0.0269
3341.00,0.0270
3340.00,0.0271
3339.00,0.0272
3338.00,0.0274
3337.00,0.0275
3336.00,0.0277
3335.00,0.0278
3334.00,0.0280
3333.00,0.0281
3332.00,0.0282
3331.00,0.0284
3330.00,0.0285
3329.00,0.0286
3328.00,0.0288
3327.00,0.0289
3326.00,0.0291
3325.00,0.0292
3324.00,0.0294
3323.00,0.0296
3322.00,0.0297
3321.00,0.0299
3320.00,0.0301
3319.00,0.0303
3318.00,0.0305
3317.00,0.0307
3316.00,0.0309
3315.00,0.0311
3314.00,0.0313
3313.00,0.0314
3312.00,0.0316
3311.00,0.0318
3310.00,0.0319
3309.00,0.0321
3308.00,0.0323
3307.00,0.0325
3306.00,0.0328
3305.00,0.0330
3304.00,0.0333
3303.00,0.0335
3302.00,0.0338
3301.00,0.0340
3300.00,0.0342
3299.00,0.0345
3298.00,0.0347
3297.00,0.0349
3296.00,0.0351
3295.00,0.0353
3294.00,0.0355
3293.00,0.0358
3292.00,0.0360
3291.00,0.0362
3290.00,0.0365
3289.00,0.0367
3288.00,0.0369
3287.00,0.0371
3286.00,0.0373
3285.00,0.0375
3284.00,0.0376
3283.00,0.0378
3282.00,0.0380
3281.00,0.0381
3280.00,0.0382
3279.00,0.0383
3278.00,0.0384
3277.00,0.0385
3276.00,0.0385
3275.00,0.0386
3274.00,0.0386
3273.00,0.0386
3272.00,0.0386
3271.00,0.0386
3270.00,0.0386
3269.00,0.0386
3268.00,0.0386
3267.00,0.0385
3266.00,0.0384
3265.00,0.0383
3264.00,0.0382
3263.00,0.0381
3262.00,0.0380
3261.00,0.0378
3260.00,0.0377
3259.00,0.0375
3258.00,0.0373
3257.00,0.0371
3256.00,0.0370
3255.00,0.0368
3254.00,0.0367
3253.00,0.0365
3252.00,0.0364
3251.00,0.0362
3250.00,0.0360
3249.00,0.0358
3248.00,0.0356
3247.00,0.0354
3246.00,0.0353
3245.00,0.0352
3244.00,0.0350
3243.00,0.0349
3242.00,0.0347
3241.00,0.0346
3240.00,0.0344
3239.00,0.0343
3238.00,0.0341
3237.00,0.0339
3236.00,0.0337
3235.00,0.0336
3234.00,0.0334
3233.00,0.0333
3232.00,0.0332
3231.00,0.0331
3230.00,0.0331
3229.00,0.0330
3228.00,0.0328
3227.00,0.0327
3226.00,0.0326
3225.00,0.0325
3224.00,0.0324
3223.00,0.0323
3222.00,0.0322
3221.00,0.0321
3220.00,0.0319
3219.00,0.0318
3218.00,0.0317
3217.00,0.0316
3216.00,0.0315
3215.00,0.0314
3214.00,0.0313
3213.00,0.0313
3212.00,0.0312
3211.00,0.0311
3210.00,0.0310
3209.00,0.0309
3208.00,0.0308
3207.00,0.0307
3206.00,0.0306
3205.00,0.0305
3204.00,0.0305
3203.00,0.0304
3202.00,0.0303
3201.00,0.0302
3200.00,0.0301
3199.00,0.0301
3198.00,0.0300
3197.00,0.0299
3196.00,0.0298
3195.00,0.0297
3194.00,0.0296
3193.00,0.0295
3192.00,0.0294
3191.00,0.0293
3190.00,0.0293
3189.00,0.0292
3188.00,0.0291
3187.00,0.0290
3186.00,0.0289
3185.00,0.0288
3184.00,0.0287
3183.00,0.0286
3182.00,0.0285
3181.00,0.0284
3180.00,0.0284
3179.00,0.0283
3178.00,0.0282
3177.00,0.0281
3176.00,0.0280
3175.00,0.0279
3174.00,0.0278
3173.00,0.0277
3172.00,0.0277
3171.00,0.0276
3170.00,0.0275
3169.00,0.0274
3168.00,0.0273
3167.00,0.0272
3166.00,0.0271
3165.00,0.0270
3164.00,0.0269
3163.00,0.0268
3162.00,0.0267
3161.00,0.0266
3160.00,0.0265
3159.00,0.0265
3158.00,0.0264
3157.00,0.0263
3156.00,0.0262
3155.00,0.0261
3154.00,0.0260
3153.00,0.0259
3152.00,0.0259
3151.00,0.0258
3150.00,0.0257
3149.00,0.0257
3148.00,0.0256
3147.00,0.0255
3146.00,0.0255
3145.00,0.0254
3144.00,0.0253
3143.00,0.0252
3142.00,0.0252
3141.00,0.0251
3140.00,0.0250
3139.00,0.0249
3138.00,0.0249
3137.00,0.0248
3136.00,0.0248
3135.00,0.0247
3134.00,0.0247
3133.00,0.0246
3132.00,0.0245
3131.00,0.0245
3130.00,0.0244
3129.00,0.0244
3128.00,0.0243
3127.00,0.0243
3126.00,0.0243
3125.00,0.0242
3124.00,0.0242
3123.00,0.0241
3122.00,0.0240
3121.00,0.0240
3120.00,0.0239
3119.00,0.0239
3118.00,0.0239
3117.00,0.0239
3116.00,0.0238
3115.00,0.0238
3114.00,0.0238
3113.00,0.0238
3112.00,0.0238
3111.00,0.0238
3110.00,0.0238
3109.00,0.0238
3108.00,0.0238
3107.00,0.0238
3106.00,0.0238
3105.00,0.0238
3104.00,0.0238
3103.00,0.0238
3102.00,0.0238
3101.00,0.0238
3100.00,0.0238
3099.00,0.0238
3098.00,0.0238
3097.00,0.0239
3096.00,0.0239
3095.00,0.0239
3094.00,0.0239
3093.00,0.0239
3092.00,0.0239
3091.00,0.0239
3090.00,0.0240
3089.00,0.0240
3088.00,0.0240
3087.00,0.0240
3086.00,0.0240
3085.00,0.0240
3084.00,0.0240
3083.00,0.0240
3082.00,0.0240
3081.00,0.0240
3080.00,0.0240
3079.00,0.0240
3078.00,0.0240
3077.00,0.0241
3076.00,0.0241
3075.00,0.0241
3074.00,0.0241
3073.00,0.0242
3072.00,0.0241
3071.00,0.0241
3070.00,0.0241
3069.00,0.0241
3068.00,0.0241
3067.00,0.0240
3066.00,0.0240
3065.00,0.0240
3064.00,0.0240
3063.00,0.0240
3062.00,0.0240
3061.00,0.0240
3060.00,0.0240
3059.00,0.0239
3058.00,0.0238
3057.00,0.0238
3056.00,0.0237
3055.00,0.0237
3054.00,0.0236
3053.00,0.0235
3052.00,0.0235
3051.00,0.0234
3050.00,0.0234
3049.00,0.0233
3048.00,0.0233
3047.00,0.0232
3046.00,0.0231
3045.00,0.0230
3044.00,0.0229
3043.00,0.0229
3042.00,0.0228
3041.00,0.0228
3040.00,0.0228
3039.00,0.0228
3038.00,0.0227
3037.00,0.0227
3036.00,0.0226
3035.00,0.0225
3034.00,0.0224
3033.00,0.0224
3032.00,0.0224
3031.00,0.0224
3030.00,0.0223
3029.00,0.0223
3028.00,0.0223
3027.00,0.0222
3026.00,0.0221
3025.00,0.0220
3024.00,0.0220
3023.00,0.0219
3022.00,0.0218
3021.00,0.0217
3020.00,0.0217
3019.00,0.0216
3018.00,0.0215
3017.00,0.0214
3016.00,0.0213
3015.00,0.0213
3014.00,0.0212
3013.00,0.0212
3012.00,0.0212
3011.00,0.0212
3010.00,0.0212
3009.00,0.0212
3008.00,0.0212
3007.00,0.0211
3006.00,0.0211
3005.00,0.0211
3004.00,0.0211
3003.00,0.0211
3002.00,0.0211
3001.00,0.0210
3000.00,0.0210
2999.00,0.0210
2998.00,0.0210
2997.00,0.0210
2996.00,0.0210
2995.00,0.0210
2994.00,0.0210
2993.00,0.0211
2992.00,0.0211
2991.00,0.0212
2990.00,0.0212
2989.00,0.0213
2988.00,0.0214
2987.00,0.0214
2986.00,0.0215
2985.00,0.0216
2984.00,0.0216
2983.00,0.0217
2982.00,0.0218
2981.00,0.0219
2980.00,0.0219
2979.00,0.0220
2978.00,0.0221
2977.00,0.0221
2976.00,0.0222
2975.00,0.0223
2974.00,0.0224
2973.00,0.0224
2972.00,0.0225
2971.00,0.0226
2970.00,0.0226
2969.00,0.0226
2968.00,0.0227
2967.00,0.0227
2966.00,0.0227
2965.00,0.0227
2964.00,0.0227
2963.00,0.0227
2962.00,0.0226
2961.00,0.0226
2960.00,0.0226
2959.00,0.0225
2958.00,0.0225
2957.00,0.0224
2956.00,0.0224
2955.00,0.0224
2954.00,0.0224
2953.00,0.0224
2952.00,0.0224
2951.00,0.0224
2950.00,0.0224
2949.00,0.0224
2948.00,0.0224
2947.00,0.0224
2946.00,0.0224
2945.00,0.0224
2944.00,0.0225
2943.00,0.0225
2942.00,0.0226
2941.00,0.0226
2940.00,0.0226
2939.00,0.0227
2938.00,0.0227
2937.00,0.0226
2936.00,0.0226
2935.00,0.0226
2934.00,0.0225
2933.00,0.0224
2932.00,0.0223
2931.00,0.0222
2930.00,0.0220
2929.00,0.0218
2928.00,0.0215
2927.00,0.0212
2926.00,0.0209
2925.00,0.0205
2924.00,0.0201
2923.00,0.0197
2922.00,0.0192
2921.00,0.0186
2920.00,0.0181
2919.00,0.0175
2918.00,0.0171
2917.00,0.0168
2916.00,0.0167
2915.00,0.0170
2914.00,0.0174
2913.00,0.0180
2912.00,0.0186
2911.00,0.0191
2910.00,0.0195
2909.00,0.0198
2908.00,0.0200
2907.00,0.0201
2906.00,0.0202
2905.00,0.0202
2904.00,0.0203
2903.00,0.0203
2902.00,0.0203
2901.00,0.0203
2900.00,0.0203
2899.00,0.0203
2898.00,0.0203
2897.00,0.0203
2896.00,0.0203
2895.00,0.0204
2894.00,0.0204
2893.00,0.0204
2892.00,0.0204
2891.00,0.0204
2890.00,0.0205
2889.00,0.0205
2888.00,0.0206
2887.00,0.0206
2886.00,0.0206
2885.00,0.0207
2884.00,0.0208
2883.00,0.0208
2882.00,0.0209
2881.00,0.0210
2880.00,0.0211
2879.00,0.0211
2878.00,0.0212
2877.00,0.0212
2876.00,0.0212
2875.00,0.0212
2874.00,0.0212
2873.00,0.0212
2872.00,0.0212
2871.00,0.0212
2870.00,0.0211
2869.00,0.0211
2868.00,0.0210
2867.00,0.0209
2866.00,0.0208
2865.00,0.0206
2864.00,0.0205
2863.00,0.0204
2862.00,0.0203
2861.00,0.0201
2860.00,0.0200
2859.00,0.0198
2858.00,0.0197
2857.00,0.0194
2856.00,0.0192
2855.00,0.0189
2854.00,0.0185
2853.00,0.0180
2852.00,0.0174
2851.00,0.0169
2850.00,0.0164
2849.00,0.0163
2848.00,0.0164
2847.00,0.0168
2846.00,0.0173
2845.00,0.0179
2844.00,0.0183
2843.00,0.0187
2842.00,0.0189
2841.00,0.0190
2840.00,0.0191
2839.00,0.0191
2838.00,0.0192
2837.00,0.0192
2836.00,0.0192
2835.00,0.0192
2834.00,0.0192
2833.00,0.0192
2832.00,0.0192
2831.00,0.0192
2830.00,0.0192
2829.00,0.0192
2828.00,0.0191
2827.00,0.0191
2826.00,0.0191
2825.00,0.0191
2824.00,0.0191
2823.00,0.0191
2822.00,0.0190
2821.00,0.0190
2820.00,0.0190
2819.00,0.0190
2818.00,0.0190
2817.00,0.0190
2816.00,0.0190
2815.00,0.0189
2814.00,0.0189
2813.00,0.0189
2812.00,0.0189
2811.00,0.0189
2810.00,0.0189
2809.00,0.0188
2808.00,0.0188
2807.00,0.0188
2806.00,0.0188
2805.00,0.0188
2804.00,0.0188
2803.00,0.0187
2802.00,0.0187
2801.00,0.0187
2800.00,0.0187
2799.00,0.0187
2798.00,0.0187
2797.00,0.0186
2796.00,0.0186
2795.00,0.0186
2794.00,0.0186
2793.00,0.0186
2792.00,0.0186
2791.00,0.0186
2790.00,0.0185
2789.00,0.0185
2788.00,0.0185
2787.00,0.0185
2786.00,0.0185
2785.00,0.0185
2784.00,0.0184
2783.00,0.0184
2782.00,0.0184
2781.00,0.0184
2780.00,0.0184
2779.00,0.0184
2778.00,0.0183
2777.00,0.0183
2776.00,0.0183
2775.00,0.0183
2774.00,0.0183
2773.00,0.0183
2772.00,0.0183
2771.00,0.0182
2770.00,0.0182
2769.00,0.0182
2768.00,0.0182
2767.00,0.0182
2766.00,0.0182
2765.00,0.0181
2764.00,0.0181
2763.00,0.0181
2762.00,0.0181
2761.00,0.0181
2760.00,0.0181
2759.00,0.0180
2758.00,0.0180
2757.00,0.0180
