Created as New Dataset,Sample 330 By YargerLab Date Monday, August 19 2024
cm-1,A
4000.00,0.0116
3999.00,0.0116
3998.00,0.0116
3997.00,0.0116
3996.00,0.0116
3995.00,0.0116
3994.00,0.0116
3993.00,0.0116
3992.00,0.0116
3991.00,0.0116
3990.00,0.0115
3989.00,0.0115
3988.00,0.0115
3987.00,0.0115
3986.00,0.0115
3985.00,0.0115
3984.00,0.0115
3983.00,0.0115
3982.00,0.0115
3981.00,0.0115
3980.00,0.0116
3979.00,0.0116
3978.00,0.0116
3977.00,0.0116
3976.00,0.0116
3975.00,0.0116
3974.00,0.0116
3973.00,0.0116
3972.00,0.0115
3971.00,0.0115
3970.00,0.0115
3969.00,0.0115
3968.00,0.0115
3967.00,0.0115
3966.00,0.0116
3965.00,0.0116
3964.00,0.0116
3963.00,0.0116
3962.00,0.0115
3961.00,0.0115
3960.00,0.0115
3959.00,0.0115
3958.00,0.0115
3957.00,0.0115
3956.00,0.0115
3955.00,0.0115
3954.00,0.0115
3953.00,0.0115
3952.00,0.0115
3951.00,0.0115
3950.00,0.0115
3949.00,0.0115
3948.00,0.0115
3947.00,0.0115
3946.00,0.0115
3945.00,0.0115
3944.00,0.0115
3943.00,0.0115
3942.00,0.0115
3941.00,0.0115
3940.00,0.0115
3939.00,0.0115
3938.00,0.0115
3937.00,0.0115
3936.00,0.0115
3935.00,0.0115
3934.00,0.0115
3933.00,0.0115
3932.00,0.0115
3931.00,0.0115
3930.00,0.0114
3929.00,0.0114
3928.00,0.0114
3927.00,0.0114
3926.00,0.0114
3925.00,0.0114
3924.00,0.0114
3923.00,0.0114
3922.00,0.0114
3921.00,0.0115
3920.00,0.0115
3919.00,0.0114
3918.00,0.0114
3917.00,0.0114
3916.00,0.0114
3915.00,0.0114
3914.00,0.0114
3913.00,0.0114
3912.00,0.0114
3911.00,0.0114
3910.00,0.0114
3909.00,0.0114
3908.00,0.0114
3907.00,0.0114
3906.00,0.0114
3905.00,0.0114
3904.00,0.0113
3903.00,0.0113
3902.00,0.0113
3901.00,0.0113
3900.00,0.0113
3899.00,0.0113
3898.00,0.0113
3897.00,0.0113
3896.00,0.0113
3895.00,0.0113
3894.00,0.0113
3893.00,0.0113
3892.00,0.0113
3891.00,0.0113
3890.00,0.0113
3889.00,0.0113
3888.00,0.0113
3887.00,0.0114
3886.00,0.0113
3885.00,0.0113
3884.00,0.0113
3883.00,0.0113
3882.00,0.0113
3881.00,0.0113
3880.00,0.0113
3879.00,0.0113
3878.00,0.0113
3877.00,0.0113
3876.00,0.0113
3875.00,0.0113
3874.00,0.0113
3873.00,0.0113
3872.00,0.0113
3871.00,0.0113
3870.00,0.0113
3869.00,0.0112
3868.00,0.0112
3867.00,0.0113
3866.00,0.0113
3865.00,0.0112
3864.00,0.0112
3863.00,0.0112
3862.00,0.0112
3861.00,0.0112
3860.00,0.0112
3859.00,0.0112
3858.00,0.0112
3857.00,0.0112
3856.00,0.0112
3855.00,0.0112
3854.00,0.0112
3853.00,0.0112
3852.00,0.0112
3851.00,0.0112
3850.00,0.0112
3849.00,0.0112
3848.00,0.0112
3847.00,0.0112
3846.00,0.0112
3845.00,0.0112
3844.00,0.0112
3843.00,0.0112
3842.00,0.0112
3841.00,0.0112
3840.00,0.0112
3839.00,0.0112
3838.00,0.0112
3837.00,0.0112
3836.00,0.0112
3835.00,0.0112
3834.00,0.0112
3833.00,0.0112
3832.00,0.0111
3831.00,0.0111
3830.00,0.0111
3829.00,0.0111
3828.00,0.0111
3827.00,0.0111
3826.00,0.0111
3825.00,0.0111
3824.00,0.0111
3823.00,0.0111
3822.00,0.0111
3821.00,0.0111
3820.00,0.0110
3819.00,0.0111
3818.00,0.0111
3817.00,0.0111
3816.00,0.0111
3815.00,0.0111
3814.00,0.0111
3813.00,0.0111
3812.00,0.0110
3811.00,0.0110
3810.00,0.0110
3809.00,0.0110
3808.00,0.0110
3807.00,0.0110
3806.00,0.0110
3805.00,0.0110
3804.00,0.0110
3803.00,0.0110
3802.00,0.0110
3801.00,0.0110
3800.00,0.0110
3799.00,0.0110
3798.00,0.0110
3797.00,0.0110
3796.00,0.0110
3795.00,0.0110
3794.00,0.0110
3793.00,0.0110
3792.00,0.0110
3791.00,0.0110
3790.00,0.0109
3789.00,0.0109
3788.00,0.0109
3787.00,0.0109
3786.00,0.0109
3785.00,0.0109
3784.00,0.0109
3783.00,0.0109
3782.00,0.0109
3781.00,0.0109
3780.00,0.0109
3779.00,0.0109
3778.00,0.0109
3777.00,0.0109
3776.00,0.0109
3775.00,0.0109
3774.00,0.0109
3773.00,0.0109
3772.00,0.0109
3771.00,0.0109
3770.00,0.0109
3769.00,0.0109
3768.00,0.0109
3767.00,0.0109
3766.00,0.0109
3765.00,0.0109
3764.00,0.0108
3763.00,0.0108
3762.00,0.0108
3761.00,0.0108
3760.00,0.0108
3759.00,0.0108
3758.00,0.0108
3757.00,0.0108
3756.00,0.0108
3755.00,0.0108
3754.00,0.0108
3753.00,0.0108
3752.00,0.0108
3751.00,0.0108
3750.00,0.0108
3749.00,0.0108
3748.00,0.0108
3747.00,0.0108
3746.00,0.0108
3745.00,0.0108
3744.00,0.0108
3743.00,0.0108
3742.00,0.0108
3741.00,0.0107
3740.00,0.0107
3739.00,0.0107
3738.00,0.0107
3737.00,0.0106
3736.00,0.0106
3735.00,0.0106
3734.00,0.0106
3733.00,0.0106
3732.00,0.0106
3731.00,0.0106
3730.00,0.0106
3729.00,0.0106
3728.00,0.0106
3727.00,0.0106
3726.00,0.0106
3725.00,0.0105
3724.00,0.0105
3723.00,0.0105
3722.00,0.0105
3721.00,0.0105
3720.00,0.0105
3719.00,0.0105
3718.00,0.0105
3717.00,0.0105
3716.00,0.0105
3715.00,0.0105
3714.00,0.0105
3713.00,0.0105
3712.00,0.0105
3711.00,0.0105
3710.00,0.0104
3709.00,0.0104
3708.00,0.0104
3707.00,0.0104
3706.00,0.0104
3705.00,0.0104
3704.00,0.0104
3703.00,0.0104
3702.00,0.0104
3701.00,0.0104
3700.00,0.0104
3699.00,0.0104
3698.00,0.0104
3697.00,0.0104
3696.00,0.0104
3695.00,0.0104
3694.00,0.0104
3693.00,0.0104
3692.00,0.0104
3691.00,0.0104
3690.00,0.0104
3689.00,0.0104
3688.00,0.0105
3687.00,0.0105
3686.00,0.0105
3685.00,0.0105
3684.00,0.0105
3683.00,0.0105
3682.00,0.0105
3681.00,0.0105
3680.00,0.0105
3679.00,0.0105
3678.00,0.0105
3677.00,0.0106
3676.00,0.0106
3675.00,0.0106
3674.00,0.0106
3673.00,0.0107
3672.00,0.0107
3671.00,0.0107
3670.00,0.0107
3669.00,0.0107
3668.00,0.0107
3667.00,0.0108
3666.00,0.0108
3665.00,0.0108
3664.00,0.0108
3663.00,0.0108
3662.00,0.0108
3661.00,0.0109
3660.00,0.0109
3659.00,0.0109
3658.00,0.0110
3657.00,0.0110
3656.00,0.0110
3655.00,0.0110
3654.00,0.0110
3653.00,0.0111
3652.00,0.0111
3651.00,0.0112
3650.00,0.0112
3649.00,0.0113
3648.00,0.0113
3647.00,0.0113
3646.00,0.0114
3645.00,0.0114
3644.00,0.0114
3643.00,0.0115
3642.00,0.0115
3641.00,0.0115
3640.00,0.0116
3639.00,0.0116
3638.00,0.0116
3637.00,0.0117
3636.00,0.0117
3635.00,0.0118
3634.00,0.0118
3633.00,0.0119
3632.00,0.0119
3631.00,0.0120
3630.00,0.0120
3629.00,0.0120
3628.00,0.0121
3627.00,0.0121
3626.00,0.0122
3625.00,0.0122
3624.00,0.0123
3623.00,0.0123
3622.00,0.0124
3621.00,0.0125
3620.00,0.0125
3619.00,0.0126
3618.00,0.0126
3617.00,0.0127
3616.00,0.0128
3615.00,0.0128
3614.00,0.0129
3613.00,0.0129
3612.00,0.0130
3611.00,0.0130
3610.00,0.0131
3609.00,0.0131
3608.00,0.0132
3607.00,0.0133
3606.00,0.0133
3605.00,0.0134
3604.00,0.0134
3603.00,0.0135
3602.00,0.0136
3601.00,0.0136
3600.00,0.0137
3599.00,0.0137
3598.00,0.0138
3597.00,0.0138
3596.00,0.0139
3595.00,0.0139
3594.00,0.0140
3593.00,0.0140
3592.00,0.0141
3591.00,0.0142
3590.00,0.0142
3589.00,0.0143
3588.00,0.0144
3587.00,0.0144
3586.00,0.0145
3585.00,0.0146
3584.00,0.0147
3583.00,0.0147
3582.00,0.0148
3581.00,0.0149
3580.00,0.0149
3579.00,0.0150
3578.00,0.0151
3577.00,0.0151
3576.00,0.0152
3575.00,0.0153
3574.00,0.0154
3573.00,0.0154
3572.00,0.0155
3571.00,0.0155
3570.00,0.0156
3569.00,0.0157
3568.00,0.0158
3567.00,0.0158
3566.00,0.0159
3565.00,0.0160
3564.00,0.0161
3563.00,0.0161
3562.00,0.0162
3561.00,0.0163
3560.00,0.0164
3559.00,0.0165
3558.00,0.0165
3557.00,0.0166
3556.00,0.0167
3555.00,0.0167
3554.00,0.0168
3553.00,0.0169
3552.00,0.0170
3551.00,0.0170
3550.00,0.0171
3549.00,0.0172
3548.00,0.0173
3547.00,0.0174
3546.00,0.0175
3545.00,0.0176
3544.00,0.0176
3543.00,0.0177
3542.00,0.0178
3541.00,0.0178
3540.00,0.0179
3539.00,0.0180
3538.00,0.0180
3537.00,0.0181
3536.00,0.0182
3535.00,0.0183
3534.00,0.0184
3533.00,0.0184
3532.00,0.0185
3531.00,0.0186
3530.00,0.0187
3529.00,0.0187
3528.00,0.0188
3527.00,0.0189
3526.00,0.0190
3525.00,0.0190
3524.00,0.0191
3523.00,0.0192
3522.00,0.0192
3521.00,0.0193
3520.00,0.0194
3519.00,0.0195
3518.00,0.0196
3517.00,0.0196
3516.00,0.0197
3515.00,0.0198
3514.00,0.0199
3513.00,0.0199
3512.00,0.0200
3511.00,0.0201
3510.00,0.0201
3509.00,0.0202
3508.00,0.0203
3507.00,0.0204
3506.00,0.0205
3505.00,0.0205
3504.00,0.0206
3503.00,0.0207
3502.00,0.0208
3501.00,0.0209
3500.00,0.0209
3499.00,0.0210
3498.00,0.0211
3497.00,0.0212
3496.00,0.0213
3495.00,0.0213
3494.00,0.0214
3493.00,0.0215
3492.00,0.0216
3491.00,0.0217
3490.00,0.0217
3489.00,0.0218
3488.00,0.0219
3487.00,0.0220
3486.00,0.0221
3485.00,0.0221
3484.00,0.0222
3483.00,0.0223
3482.00,0.0224
3481.00,0.0225
3480.00,0.0226
3479.00,0.0227
3478.00,0.0227
3477.00,0.0228
3476.00,0.0229
3475.00,0.0230
3474.00,0.0230
3473.00,0.0231
3472.00,0.0232
3471.00,0.0233
3470.00,0.0234
3469.00,0.0234
3468.00,0.0235
3467.00,0.0236
3466.00,0.0237
3465.00,0.0237
3464.00,0.0238
3463.00,0.0239
3462.00,0.0240
3461.00,0.0241
3460.00,0.0241
3459.00,0.0242
3458.00,0.0243
3457.00,0.0244
3456.00,0.0244
3455.00,0.0245
3454.00,0.0246
3453.00,0.0247
3452.00,0.0247
3451.00,0.0248
3450.00,0.0249
3449.00,0.0250
3448.00,0.0250
3447.00,0.0251
3446.00,0.0252
3445.00,0.0252
3444.00,0.0253
3443.00,0.0254
3442.00,0.0255
3441.00,0.0256
3440.00,0.0257
3439.00,0.0258
3438.00,0.0259
3437.00,0.0259
3436.00,0.0260
3435.00,0.0261
3434.00,0.0262
3433.00,0.0263
3432.00,0.0264
3431.00,0.0264
3430.00,0.0265
3429.00,0.0266
3428.00,0.0267
3427.00,0.0267
3426.00,0.0268
3425.00,0.0269
3424.00,0.0270
3423.00,0.0271
3422.00,0.0272
3421.00,0.0272
3420.00,0.0273
3419.00,0.0274
3418.00,0.0275
3417.00,0.0276
3416.00,0.0276
3415.00,0.0277
3414.00,0.0278
3413.00,0.0279
3412.00,0.0280
3411.00,0.0281
3410.00,0.0281
3409.00,0.0282
3408.00,0.0283
3407.00,0.0284
3406.00,0.0284
3405.00,0.0285
3404.00,0.0286
3403.00,0.0287
3402.00,0.0288
3401.00,0.0288
3400.00,0.0289
3399.00,0.0290
3398.00,0.0291
3397.00,0.0291
3396.00,0.0292
3395.00,0.0293
3394.00,0.0293
3393.00,0.0294
3392.00,0.0295
3391.00,0.0295
3390.00,0.0296
3389.00,0.0297
3388.00,0.0298
3387.00,0.0299
3386.00,0.0300
3385.00,0.0300
3384.00,0.0301
3383.00,0.0302
3382.00,0.0303
3381.00,0.0303
3380.00,0.0304
3379.00,0.0305
3378.00,0.0306
3377.00,0.0307
3376.00,0.0308
3375.00,0.0308
3374.00,0.0309
3373.00,0.0310
3372.00,0.0311
3371.00,0.0312
3370.00,0.0313
3369.00,0.0314
3368.00,0.0315
3367.00,0.0316
3366.00,0.0317
3365.00,0.0318
3364.00,0.0319
3363.00,0.0320
3362.00,0.0321
3361.00,0.0323
3360.00,0.0324
3359.00,0.0325
3358.00,0.0326
3357.00,0.0327
3356.00,0.0328
3355.00,0.0329
3354.00,0.0330
3353.00,0.0331
3352.00,0.0332
3351.00,0.0333
3350.00,0.0335
3349.00,0.0336
3348.00,0.0337
3347.00,0.0339
3346.00,0.0340
3345.00,0.0341
3344.00,0.0342
3343.00,0.0343
3342.00,0.0345
3341.00,0.0346
3340.00,0.0347
3339.00,0.0348
3338.00,0.0350
3337.00,0.0351
3336.00,0.0353
3335.00,0.0354
3334.00,0.0356
3333.00,0.0357
3332.00,0.0359
3331.00,0.0360
3330.00,0.0362
3329.00,0.0363
3328.00,0.0365
3327.00,0.0366
3326.00,0.0368
3325.00,0.0369
3324.00,0.0371
3323.00,0.0373
3322.00,0.0375
3321.00,0.0376
3320.00,0.0378
3319.00,0.0380
3318.00,0.0382
3317.00,0.0384
3316.00,0.0386
3315.00,0.0388
3314.00,0.0389
3313.00,0.0391
3312.00,0.0393
3311.00,0.0394
3310.00,0.0396
3309.00,0.0397
3308.00,0.0399
3307.00,0.0401
3306.00,0.0403
3305.00,0.0406
3304.00,0.0408
3303.00,0.0411
3302.00,0.0413
3301.00,0.0415
3300.00,0.0417
3299.00,0.0419
3298.00,0.0421
3297.00,0.0422
3296.00,0.0424
3295.00,0.0426
3294.00,0.0428
3293.00,0.0429
3292.00,0.0432
3291.00,0.0434
3290.00,0.0436
3289.00,0.0438
3288.00,0.0440
3287.00,0.0441
3286.00,0.0442
3285.00,0.0444
3284.00,0.0445
3283.00,0.0446
3282.00,0.0447
3281.00,0.0448
3280.00,0.0449
3279.00,0.0449
3278.00,0.0450
3277.00,0.0450
3276.00,0.0450
3275.00,0.0450
3274.00,0.0450
3273.00,0.0450
3272.00,0.0449
3271.00,0.0449
3270.00,0.0449
3269.00,0.0449
3268.00,0.0448
3267.00,0.0448
3266.00,0.0447
3265.00,0.0446
3264.00,0.0445
3263.00,0.0444
3262.00,0.0442
3261.00,0.0441
3260.00,0.0439
3259.00,0.0438
3258.00,0.0436
3257.00,0.0434
3256.00,0.0433
3255.00,0.0431
3254.00,0.0430
3253.00,0.0428
3252.00,0.0427
3251.00,0.0425
3250.00,0.0423
3249.00,0.0421
3248.00,0.0419
3247.00,0.0418
3246.00,0.0416
3245.00,0.0415
3244.00,0.0414
3243.00,0.0413
3242.00,0.0411
3241.00,0.0410
3240.00,0.0408
3239.00,0.0407
3238.00,0.0405
3237.00,0.0404
3236.00,0.0402
3235.00,0.0400
3234.00,0.0399
3233.00,0.0398
3232.00,0.0398
3231.00,0.0397
3230.00,0.0396
3229.00,0.0395
3228.00,0.0394
3227.00,0.0393
3226.00,0.0392
3225.00,0.0391
3224.00,0.0390
3223.00,0.0389
3222.00,0.0388
3221.00,0.0387
3220.00,0.0386
3219.00,0.0385
3218.00,0.0384
3217.00,0.0383
3216.00,0.0382
3215.00,0.0381
3214.00,0.0380
3213.00,0.0380
3212.00,0.0379
3211.00,0.0378
3210.00,0.0377
3209.00,0.0376
3208.00,0.0375
3207.00,0.0374
3206.00,0.0373
3205.00,0.0372
3204.00,0.0371
3203.00,0.0370
3202.00,0.0370
3201.00,0.0369
3200.00,0.0368
3199.00,0.0367
3198.00,0.0366
3197.00,0.0365
3196.00,0.0364
3195.00,0.0363
3194.00,0.0362
3193.00,0.0361
3192.00,0.0360
3191.00,0.0359
3190.00,0.0358
3189.00,0.0357
3188.00,0.0356
3187.00,0.0355
3186.00,0.0354
3185.00,0.0353
3184.00,0.0352
3183.00,0.0350
3182.00,0.0349
3181.00,0.0348
3180.00,0.0347
3179.00,0.0346
3178.00,0.0345
3177.00,0.0344
3176.00,0.0343
3175.00,0.0342
3174.00,0.0341
3173.00,0.0339
3172.00,0.0338
3171.00,0.0337
3170.00,0.0336
3169.00,0.0335
3168.00,0.0334
3167.00,0.0332
3166.00,0.0331
3165.00,0.0330
3164.00,0.0329
3163.00,0.0328
3162.00,0.0327
3161.00,0.0325
3160.00,0.0324
3159.00,0.0323
3158.00,0.0322
3157.00,0.0321
3156.00,0.0320
3155.00,0.0319
3154.00,0.0318
3153.00,0.0316
3152.00,0.0315
3151.00,0.0315
3150.00,0.0314
3149.00,0.0313
3148.00,0.0312
3147.00,0.0311
3146.00,0.0310
3145.00,0.0310
3144.00,0.0309
3143.00,0.0308
3142.00,0.0306
3141.00,0.0305
3140.00,0.0304
3139.00,0.0303
3138.00,0.0303
3137.00,0.0302
3136.00,0.0301
3135.00,0.0301
3134.00,0.0300
3133.00,0.0299
3132.00,0.0298
3131.00,0.0298
3130.00,0.0297
3129.00,0.0296
3128.00,0.0296
3127.00,0.0295
3126.00,0.0295
3125.00,0.0294
3124.00,0.0293
3123.00,0.0292
3122.00,0.0292
3121.00,0.0291
3120.00,0.0290
3119.00,0.0290
3118.00,0.0289
3117.00,0.0289
3116.00,0.0289
3115.00,0.0289
3114.00,0.0289
3113.00,0.0289
3112.00,0.0289
3111.00,0.0288
3110.00,0.0288
3109.00,0.0288
3108.00,0.0288
3107.00,0.0288
3106.00,0.0288
3105.00,0.0288
3104.00,0.0288
3103.00,0.0288
3102.00,0.0288
3101.00,0.0288
3100.00,0.0288
3099.00,0.0288
3098.00,0.0288
3097.00,0.0289
3096.00,0.0289
3095.00,0.0289
3094.00,0.0289
3093.00,0.0289
3092.00,0.0289
3091.00,0.0289
3090.00,0.0289
3089.00,0.0289
3088.00,0.0290
3087.00,0.0290
3086.00,0.0290
3085.00,0.0290
3084.00,0.0290
3083.00,0.0289
3082.00,0.0289
3081.00,0.0289
3080.00,0.0290
3079.00,0.0290
3078.00,0.0290
3077.00,0.0291
3076.00,0.0291
3075.00,0.0292
3074.00,0.0292
3073.00,0.0292
3072.00,0.0292
3071.00,0.0291
3070.00,0.0291
3069.00,0.0290
3068.00,0.0290
3067.00,0.0290
3066.00,0.0290
3065.00,0.0290
3064.00,0.0290
3063.00,0.0290
3062.00,0.0290
3061.00,0.0290
3060.00,0.0289
3059.00,0.0288
3058.00,0.0288
3057.00,0.0287
3056.00,0.0286
3055.00,0.0286
3054.00,0.0285
3053.00,0.0284
3052.00,0.0283
3051.00,0.0282
3050.00,0.0282
3049.00,0.0281
3048.00,0.0281
3047.00,0.0280
3046.00,0.0279
3045.00,0.0278
3044.00,0.0277
3043.00,0.0276
3042.00,0.0275
3041.00,0.0275
3040.00,0.0274
3039.00,0.0274
3038.00,0.0273
3037.00,0.0272
3036.00,0.0271
3035.00,0.0270
3034.00,0.0269
3033.00,0.0269
3032.00,0.0268
3031.00,0.0268
3030.00,0.0267
3029.00,0.0267
3028.00,0.0266
3027.00,0.0265
3026.00,0.0264
3025.00,0.0263
3024.00,0.0262
3023.00,0.0261
3022.00,0.0261
3021.00,0.0260
3020.00,0.0258
3019.00,0.0257
3018.00,0.0256
3017.00,0.0256
3016.00,0.0255
3015.00,0.0254
3014.00,0.0253
3013.00,0.0253
3012.00,0.0253
3011.00,0.0253
3010.00,0.0252
3009.00,0.0252
3008.00,0.0252
3007.00,0.0252
3006.00,0.0251
3005.00,0.0251
3004.00,0.0250
3003.00,0.0250
3002.00,0.0250
3001.00,0.0250
3000.00,0.0249
2999.00,0.0249
2998.00,0.0249
2997.00,0.0249
2996.00,0.0250
2995.00,0.0250
2994.00,0.0250
2993.00,0.0250
2992.00,0.0251
2991.00,0.0252
2990.00,0.0253
2989.00,0.0254
2988.00,0.0255
2987.00,0.0255
2986.00,0.0256
2985.00,0.0257
2984.00,0.0258
2983.00,0.0260
2982.00,0.0261
2981.00,0.0262
2980.00,0.0264
2979.00,0.0265
2978.00,0.0267
2977.00,0.0268
2976.00,0.0270
2975.00,0.0272
2974.00,0.0273
2973.00,0.0275
2972.00,0.0276
2971.00,0.0277
2970.00,0.0279
2969.00,0.0280
2968.00,0.0281
2967.00,0.0283
2966.00,0.0284
2965.00,0.0284
2964.00,0.0285
2963.00,0.0286
2962.00,0.0286
2961.00,0.0286
2960.00,0.0286
2959.00,0.0286
2958.00,0.0286
2957.00,0.0286
2956.00,0.0286
2955.00,0.0285
2954.00,0.0285
2953.00,0.0285
2952.00,0.0285
2951.00,0.0285
2950.00,0.0285
2949.00,0.0285
2948.00,0.0285
2947.00,0.0286
2946.00,0.0286
2945.00,0.0287
2944.00,0.0288
2943.00,0.0290
2942.00,0.0291
2941.00,0.0293
2940.00,0.0294
2939.00,0.0296
2938.00,0.0297
2937.00,0.0298
2936.00,0.0299
2935.00,0.0300
2934.00,0.0301
2933.00,0.0301
2932.00,0.0301
2931.00,0.0301
2930.00,0.0300
2929.00,0.0299
2928.00,0.0298
2927.00,0.0296
2926.00,0.0293
2925.00,0.0290
2924.00,0.0286
2923.00,0.0281
2922.00,0.0276
2921.00,0.0270
2920.00,0.0263
2919.00,0.0257
2918.00,0.0251
2917.00,0.0246
2916.00,0.0244
2915.00,0.0245
2914.00,0.0247
2913.00,0.0251
2912.00,0.0256
2911.00,0.0259
2910.00,0.0262
2909.00,0.0263
2908.00,0.0264
2907.00,0.0264
2906.00,0.0263
2905.00,0.0263
2904.00,0.0262
2903.00,0.0262
2902.00,0.0261
2901.00,0.0260
2900.00,0.0259
2899.00,0.0259
2898.00,0.0258
2897.00,0.0257
2896.00,0.0257
2895.00,0.0256
2894.00,0.0256
2893.00,0.0256
2892.00,0.0255
2891.00,0.0255
2890.00,0.0255
2889.00,0.0255
2888.00,0.0255
2887.00,0.0255
2886.00,0.0255
2885.00,0.0255
2884.00,0.0256
2883.00,0.0257
2882.00,0.0257
2881.00,0.0258
2880.00,0.0259
2879.00,0.0259
2878.00,0.0260
2877.00,0.0260
2876.00,0.0261
2875.00,0.0261
2874.00,0.0261
2873.00,0.0261
2872.00,0.0260
2871.00,0.0260
2870.00,0.0259
2869.00,0.0259
2868.00,0.0258
2867.00,0.0257
2866.00,0.0256
2865.00,0.0255
2864.00,0.0254
2863.00,0.0253
2862.00,0.0252
2861.00,0.0251
2860.00,0.0251
2859.00,0.0250
2858.00,0.0249
2857.00,0.0248
2856.00,0.0246
2855.00,0.0243
2854.00,0.0240
2853.00,0.0235
2852.00,0.0229
2851.00,0.0222
2850.00,0.0217
2849.00,0.0214
2848.00,0.0213
2847.00,0.0215
2846.00,0.0219
2845.00,0.0222
2844.00,0.0225
2843.00,0.0227
2842.00,0.0227
2841.00,0.0227
2840.00,0.0227
2839.00,0.0227
2838.00,0.0226
2837.00,0.0226
2836.00,0.0225
2835.00,0.0225
2834.00,0.0224
2833.00,0.0224
2832.00,0.0223
2831.00,0.0223
2830.00,0.0222
2829.00,0.0222
2828.00,0.0221
2827.00,0.0221
2826.00,0.0220
2825.00,0.0220
2824.00,0.0219
2823.00,0.0219
2822.00,0.0218
2821.00,0.0218
2820.00,0.0218
2819.00,0.0217
2818.00,0.0217
2817.00,0.0217
2816.00,0.0217
2815.00,0.0216
2814.00,0.0216
2813.00,0.0215
2812.00,0.0215
2811.00,0.0215
2810.00,0.0214
2809.00,0.0214
2808.00,0.0213
2807.00,0.0213
2806.00,0.0213
2805.00,0.0213
2804.00,0.0212
2803.00,0.0212
2802.00,0.0212
2801.00,0.0211
2800.00,0.0211
2799.00,0.0210
2798.00,0.0210
2797.00,0.0210
2796.00,0.0209
2795.00,0.0209
2794.00,0.0209
2793.00,0.0209
2792.00,0.0208
2791.00,0.0208
2790.00,0.0208
2789.00,0.0207
2788.00,0.0207
2787.00,0.0207
2786.00,0.0206
2785.00,0.0206
2784.00,0.0206
2783.00,0.0206
2782.00,0.0205
2781.00,0.0205
2780.00,0.0205
2779.00,0.0204
2778.00,0.0204
2777.00,0.0204
2776.00,0.0203
2775.00,0.0203
2774.00,0.0203
2773.00,0.0203
2772.00,0.0202
2771.00,0.0202
2770.00,0.0202
2769.00,0.0201
2768.00,0.0201
2767.00,0.0201
2766.00,0.0201
2765.00,0.0200
2764.00,0.0200
2763.00,0.0200
2762.00,0.0199
2761.00,0.0199
2760.00,0.0199
2759.00,0.0199
2758.00,0.0198
2757.00,0.0198
