Created as New Dataset,Sample 327 By YargerLab Date Monday, August 19 2024
cm-1,A
4000.00,0.0101
3999.00,0.0101
3998.00,0.0101
3997.00,0.0101
3996.00,0.0101
3995.00,0.0101
3994.00,0.0101
3993.00,0.0101
3992.00,0.0101
3991.00,0.0101
3990.00,0.0101
3989.00,0.0101
3988.00,0.0101
3987.00,0.0101
3986.00,0.0101
3985.00,0.0101
3984.00,0.0102
3983.00,0.0102
3982.00,0.0102
3981.00,0.0101
3980.00,0.0101
3979.00,0.0101
3978.00,0.0101
3977.00,0.0101
3976.00,0.0101
3975.00,0.0101
3974.00,0.0101
3973.00,0.0101
3972.00,0.0101
3971.00,0.0101
3970.00,0.0101
3969.00,0.0101
3968.00,0.0101
3967.00,0.0101
3966.00,0.0101
3965.00,0.0101
3964.00,0.0101
3963.00,0.0101
3962.00,0.0101
3961.00,0.0101
3960.00,0.0101
3959.00,0.0101
3958.00,0.0101
3957.00,0.0101
3956.00,0.0101
3955.00,0.0101
3954.00,0.0101
3953.00,0.0101
3952.00,0.0101
3951.00,0.0101
3950.00,0.0101
3949.00,0.0101
3948.00,0.0101
3947.00,0.0101
3946.00,0.0101
3945.00,0.0100
3944.00,0.0100
3943.00,0.0101
3942.00,0.0101
3941.00,0.0101
3940.00,0.0100
3939.00,0.0100
3938.00,0.0100
3937.00,0.0100
3936.00,0.0100
3935.00,0.0100
3934.00,0.0100
3933.00,0.0100
3932.00,0.0100
3931.00,0.0100
3930.00,0.0100
3929.00,0.0100
3928.00,0.0100
3927.00,0.0100
3926.00,0.0100
3925.00,0.0100
3924.00,0.0100
3923.00,0.0100
3922.00,0.0100
3921.00,0.0100
3920.00,0.0100
3919.00,0.0100
3918.00,0.0100
3917.00,0.0100
3916.00,0.0100
3915.00,0.0100
3914.00,0.0100
3913.00,0.0100
3912.00,0.0100
3911.00,0.0100
3910.00,0.0100
3909.00,0.0100
3908.00,0.0099
3907.00,0.0099
3906.00,0.0099
3905.00,0.0099
3904.00,0.0098
3903.00,0.0098
3902.00,0.0098
3901.00,0.0098
3900.00,0.0098
3899.00,0.0098
3898.00,0.0098
3897.00,0.0098
3896.00,0.0099
3895.00,0.0099
3894.00,0.0099
3893.00,0.0099
3892.00,0.0099
3891.00,0.0099
3890.00,0.0098
3889.00,0.0098
3888.00,0.0098
3887.00,0.0098
3886.00,0.0098
3885.00,0.0098
3884.00,0.0098
3883.00,0.0098
3882.00,0.0098
3881.00,0.0098
3880.00,0.0098
3879.00,0.0098
3878.00,0.0098
3877.00,0.0098
3876.00,0.0098
3875.00,0.0098
3874.00,0.0098
3873.00,0.0098
3872.00,0.0097
3871.00,0.0097
3870.00,0.0097
3869.00,0.0097
3868.00,0.0097
3867.00,0.0097
3866.00,0.0097
3865.00,0.0097
3864.00,0.0097
3863.00,0.0097
3862.00,0.0097
3861.00,0.0097
3860.00,0.0097
3859.00,0.0097
3858.00,0.0097
3857.00,0.0096
3856.00,0.0096
3855.00,0.0096
3854.00,0.0095
3853.00,0.0095
3852.00,0.0095
3851.00,0.0095
3850.00,0.0096
3849.00,0.0096
3848.00,0.0097
3847.00,0.0097
3846.00,0.0097
3845.00,0.0097
3844.00,0.0097
3843.00,0.0097
3842.00,0.0096
3841.00,0.0096
3840.00,0.0096
3839.00,0.0095
3838.00,0.0095
3837.00,0.0095
3836.00,0.0095
3835.00,0.0095
3834.00,0.0096
3833.00,0.0096
3832.00,0.0096
3831.00,0.0097
3830.00,0.0097
3829.00,0.0097
3828.00,0.0097
3827.00,0.0097
3826.00,0.0097
3825.00,0.0096
3824.00,0.0096
3823.00,0.0095
3822.00,0.0095
3821.00,0.0095
3820.00,0.0095
3819.00,0.0094
3818.00,0.0094
3817.00,0.0095
3816.00,0.0095
3815.00,0.0095
3814.00,0.0096
3813.00,0.0096
3812.00,0.0096
3811.00,0.0096
3810.00,0.0096
3809.00,0.0096
3808.00,0.0096
3807.00,0.0095
3806.00,0.0095
3805.00,0.0095
3804.00,0.0094
3803.00,0.0095
3802.00,0.0095
3801.00,0.0095
3800.00,0.0094
3799.00,0.0095
3798.00,0.0095
3797.00,0.0095
3796.00,0.0096
3795.00,0.0096
3794.00,0.0096
3793.00,0.0096
3792.00,0.0097
3791.00,0.0097
3790.00,0.0096
3789.00,0.0096
3788.00,0.0096
3787.00,0.0096
3786.00,0.0096
3785.00,0.0096
3784.00,0.0096
3783.00,0.0096
3782.00,0.0095
3781.00,0.0095
3780.00,0.0096
3779.00,0.0096
3778.00,0.0096
3777.00,0.0096
3776.00,0.0096
3775.00,0.0096
3774.00,0.0096
3773.00,0.0095
3772.00,0.0095
3771.00,0.0095
3770.00,0.0095
3769.00,0.0095
3768.00,0.0095
3767.00,0.0095
3766.00,0.0095
3765.00,0.0095
3764.00,0.0095
3763.00,0.0095
3762.00,0.0095
3761.00,0.0095
3760.00,0.0094
3759.00,0.0094
3758.00,0.0094
3757.00,0.0094
3756.00,0.0093
3755.00,0.0093
3754.00,0.0092
3753.00,0.0092
3752.00,0.0092
3751.00,0.0091
3750.00,0.0091
3749.00,0.0091
3748.00,0.0090
3747.00,0.0090
3746.00,0.0091
3745.00,0.0091
3744.00,0.0091
3743.00,0.0091
3742.00,0.0092
3741.00,0.0092
3740.00,0.0092
3739.00,0.0092
3738.00,0.0091
3737.00,0.0091
3736.00,0.0091
3735.00,0.0091
3734.00,0.0091
3733.00,0.0091
3732.00,0.0091
3731.00,0.0091
3730.00,0.0091
3729.00,0.0091
3728.00,0.0091
3727.00,0.0092
3726.00,0.0092
3725.00,0.0092
3724.00,0.0092
3723.00,0.0092
3722.00,0.0092
3721.00,0.0092
3720.00,0.0092
3719.00,0.0092
3718.00,0.0092
3717.00,0.0092
3716.00,0.0092
3715.00,0.0091
3714.00,0.0091
3713.00,0.0090
3712.00,0.0090
3711.00,0.0089
3710.00,0.0089
3709.00,0.0089
3708.00,0.0090
3707.00,0.0090
3706.00,0.0090
3705.00,0.0090
3704.00,0.0091
3703.00,0.0091
3702.00,0.0091
3701.00,0.0090
3700.00,0.0090
3699.00,0.0090
3698.00,0.0090
3697.00,0.0090
3696.00,0.0091
3695.00,0.0091
3694.00,0.0090
3693.00,0.0090
3692.00,0.0090
3691.00,0.0089
3690.00,0.0089
3689.00,0.0089
3688.00,0.0089
3687.00,0.0089
3686.00,0.0089
3685.00,0.0090
3684.00,0.0090
3683.00,0.0090
3682.00,0.0090
3681.00,0.0090
3680.00,0.0089
3679.00,0.0089
3678.00,0.0088
3677.00,0.0088
3676.00,0.0088
3675.00,0.0088
3674.00,0.0087
3673.00,0.0087
3672.00,0.0087
3671.00,0.0088
3670.00,0.0088
3669.00,0.0089
3668.00,0.0089
3667.00,0.0089
3666.00,0.0090
3665.00,0.0090
3664.00,0.0090
3663.00,0.0091
3662.00,0.0091
3661.00,0.0091
3660.00,0.0091
3659.00,0.0091
3658.00,0.0091
3657.00,0.0091
3656.00,0.0090
3655.00,0.0090
3654.00,0.0089
3653.00,0.0089
3652.00,0.0089
3651.00,0.0089
3650.00,0.0089
3649.00,0.0089
3648.00,0.0089
3647.00,0.0089
3646.00,0.0090
3645.00,0.0090
3644.00,0.0091
3643.00,0.0091
3642.00,0.0092
3641.00,0.0092
3640.00,0.0092
3639.00,0.0092
3638.00,0.0093
3637.00,0.0093
3636.00,0.0093
3635.00,0.0093
3634.00,0.0092
3633.00,0.0092
3632.00,0.0092
3631.00,0.0091
3630.00,0.0091
3629.00,0.0091
3628.00,0.0091
3627.00,0.0092
3626.00,0.0092
3625.00,0.0093
3624.00,0.0093
3623.00,0.0094
3622.00,0.0094
3621.00,0.0094
3620.00,0.0094
3619.00,0.0094
3618.00,0.0094
3617.00,0.0094
3616.00,0.0094
3615.00,0.0095
3614.00,0.0095
3613.00,0.0095
3612.00,0.0095
3611.00,0.0095
3610.00,0.0095
3609.00,0.0096
3608.00,0.0096
3607.00,0.0096
3606.00,0.0097
3605.00,0.0097
3604.00,0.0097
3603.00,0.0098
3602.00,0.0098
3601.00,0.0098
3600.00,0.0099
3599.00,0.0099
3598.00,0.0099
3597.00,0.0099
3596.00,0.0099
3595.00,0.0099
3594.00,0.0100
3593.00,0.0100
3592.00,0.0100
3591.00,0.0100
3590.00,0.0100
3589.00,0.0100
3588.00,0.0100
3587.00,0.0101
3586.00,0.0101
3585.00,0.0101
3584.00,0.0102
3583.00,0.0102
3582.00,0.0103
3581.00,0.0103
3580.00,0.0103
3579.00,0.0103
3578.00,0.0104
3577.00,0.0104
3576.00,0.0104
3575.00,0.0104
3574.00,0.0105
3573.00,0.0105
3572.00,0.0105
3571.00,0.0105
3570.00,0.0105
3569.00,0.0105
3568.00,0.0105
3567.00,0.0106
3566.00,0.0106
3565.00,0.0106
3564.00,0.0107
3563.00,0.0107
3562.00,0.0108
3561.00,0.0108
3560.00,0.0109
3559.00,0.0109
3558.00,0.0109
3557.00,0.0109
3556.00,0.0110
3555.00,0.0110
3554.00,0.0110
3553.00,0.0111
3552.00,0.0111
3551.00,0.0111
3550.00,0.0111
3549.00,0.0112
3548.00,0.0112
3547.00,0.0113
3546.00,0.0113
3545.00,0.0114
3544.00,0.0114
3543.00,0.0114
3542.00,0.0115
3541.00,0.0115
3540.00,0.0115
3539.00,0.0115
3538.00,0.0115
3537.00,0.0116
3536.00,0.0116
3535.00,0.0116
3534.00,0.0117
3533.00,0.0117
3532.00,0.0117
3531.00,0.0118
3530.00,0.0118
3529.00,0.0118
3528.00,0.0119
3527.00,0.0119
3526.00,0.0119
3525.00,0.0120
3524.00,0.0120
3523.00,0.0120
3522.00,0.0121
3521.00,0.0121
3520.00,0.0121
3519.00,0.0122
3518.00,0.0122
3517.00,0.0122
3516.00,0.0123
3515.00,0.0123
3514.00,0.0123
3513.00,0.0124
3512.00,0.0124
3511.00,0.0124
3510.00,0.0124
3509.00,0.0125
3508.00,0.0125
3507.00,0.0125
3506.00,0.0125
3505.00,0.0126
3504.00,0.0126
3503.00,0.0127
3502.00,0.0127
3501.00,0.0127
3500.00,0.0128
3499.00,0.0128
3498.00,0.0128
3497.00,0.0129
3496.00,0.0129
3495.00,0.0129
3494.00,0.0130
3493.00,0.0130
3492.00,0.0130
3491.00,0.0131
3490.00,0.0131
3489.00,0.0132
3488.00,0.0132
3487.00,0.0132
3486.00,0.0132
3485.00,0.0133
3484.00,0.0133
3483.00,0.0134
3482.00,0.0134
3481.00,0.0135
3480.00,0.0135
3479.00,0.0135
3478.00,0.0135
3477.00,0.0136
3476.00,0.0136
3475.00,0.0137
3474.00,0.0137
3473.00,0.0137
3472.00,0.0138
3471.00,0.0138
3470.00,0.0138
3469.00,0.0139
3468.00,0.0139
3467.00,0.0139
3466.00,0.0139
3465.00,0.0140
3464.00,0.0140
3463.00,0.0140
3462.00,0.0141
3461.00,0.0141
3460.00,0.0142
3459.00,0.0142
3458.00,0.0142
3457.00,0.0143
3456.00,0.0143
3455.00,0.0143
3454.00,0.0144
3453.00,0.0144
3452.00,0.0144
3451.00,0.0144
3450.00,0.0145
3449.00,0.0145
3448.00,0.0145
3447.00,0.0146
3446.00,0.0146
3445.00,0.0146
3444.00,0.0146
3443.00,0.0147
3442.00,0.0147
3441.00,0.0148
3440.00,0.0148
3439.00,0.0149
3438.00,0.0149
3437.00,0.0150
3436.00,0.0150
3435.00,0.0150
3434.00,0.0151
3433.00,0.0151
3432.00,0.0151
3431.00,0.0152
3430.00,0.0152
3429.00,0.0152
3428.00,0.0152
3427.00,0.0153
3426.00,0.0153
3425.00,0.0153
3424.00,0.0154
3423.00,0.0154
3422.00,0.0155
3421.00,0.0155
3420.00,0.0156
3419.00,0.0156
3418.00,0.0156
3417.00,0.0156
3416.00,0.0157
3415.00,0.0157
3414.00,0.0157
3413.00,0.0158
3412.00,0.0158
3411.00,0.0159
3410.00,0.0159
3409.00,0.0159
3408.00,0.0160
3407.00,0.0160
3406.00,0.0160
3405.00,0.0161
3404.00,0.0161
3403.00,0.0162
3402.00,0.0162
3401.00,0.0162
3400.00,0.0163
3399.00,0.0163
3398.00,0.0163
3397.00,0.0163
3396.00,0.0164
3395.00,0.0164
3394.00,0.0164
3393.00,0.0165
3392.00,0.0165
3391.00,0.0165
3390.00,0.0166
3389.00,0.0166
3388.00,0.0167
3387.00,0.0167
3386.00,0.0167
3385.00,0.0168
3384.00,0.0168
3383.00,0.0168
3382.00,0.0169
3381.00,0.0169
3380.00,0.0170
3379.00,0.0170
3378.00,0.0170
3377.00,0.0171
3376.00,0.0171
3375.00,0.0172
3374.00,0.0172
3373.00,0.0172
3372.00,0.0173
3371.00,0.0173
3370.00,0.0174
3369.00,0.0174
3368.00,0.0175
3367.00,0.0175
3366.00,0.0176
3365.00,0.0176
3364.00,0.0177
3363.00,0.0178
3362.00,0.0178
3361.00,0.0179
3360.00,0.0179
3359.00,0.0180
3358.00,0.0180
3357.00,0.0181
3356.00,0.0182
3355.00,0.0182
3354.00,0.0183
3353.00,0.0183
3352.00,0.0184
3351.00,0.0184
3350.00,0.0185
3349.00,0.0186
3348.00,0.0186
3347.00,0.0187
3346.00,0.0188
3345.00,0.0188
3344.00,0.0189
3343.00,0.0190
3342.00,0.0190
3341.00,0.0191
3340.00,0.0192
3339.00,0.0193
3338.00,0.0194
3337.00,0.0195
3336.00,0.0196
3335.00,0.0197
3334.00,0.0198
3333.00,0.0198
3332.00,0.0199
3331.00,0.0200
3330.00,0.0201
3329.00,0.0202
3328.00,0.0203
3327.00,0.0204
3326.00,0.0205
3325.00,0.0206
3324.00,0.0207
3323.00,0.0208
3322.00,0.0209
3321.00,0.0210
3320.00,0.0211
3319.00,0.0213
3318.00,0.0214
3317.00,0.0215
3316.00,0.0217
3315.00,0.0218
3314.00,0.0219
3313.00,0.0220
3312.00,0.0221
3311.00,0.0222
3310.00,0.0223
3309.00,0.0224
3308.00,0.0226
3307.00,0.0227
3306.00,0.0229
3305.00,0.0230
3304.00,0.0232
3303.00,0.0234
3302.00,0.0236
3301.00,0.0237
3300.00,0.0239
3299.00,0.0240
3298.00,0.0241
3297.00,0.0243
3296.00,0.0244
3295.00,0.0245
3294.00,0.0247
3293.00,0.0248
3292.00,0.0250
3291.00,0.0252
3290.00,0.0253
3289.00,0.0255
3288.00,0.0256
3287.00,0.0258
3286.00,0.0259
3285.00,0.0260
3284.00,0.0261
3283.00,0.0262
3282.00,0.0263
3281.00,0.0264
3280.00,0.0265
3279.00,0.0266
3278.00,0.0267
3277.00,0.0267
3276.00,0.0267
3275.00,0.0267
3274.00,0.0267
3273.00,0.0267
3272.00,0.0267
3271.00,0.0267
3270.00,0.0267
3269.00,0.0267
3268.00,0.0267
3267.00,0.0267
3266.00,0.0267
3265.00,0.0266
3264.00,0.0266
3263.00,0.0265
3262.00,0.0264
3261.00,0.0263
3260.00,0.0262
3259.00,0.0261
3258.00,0.0259
3257.00,0.0258
3256.00,0.0257
3255.00,0.0256
3254.00,0.0255
3253.00,0.0254
3252.00,0.0253
3251.00,0.0252
3250.00,0.0251
3249.00,0.0249
3248.00,0.0248
3247.00,0.0247
3246.00,0.0246
3245.00,0.0245
3244.00,0.0244
3243.00,0.0243
3242.00,0.0242
3241.00,0.0241
3240.00,0.0240
3239.00,0.0239
3238.00,0.0238
3237.00,0.0237
3236.00,0.0236
3235.00,0.0234
3234.00,0.0234
3233.00,0.0233
3232.00,0.0232
3231.00,0.0232
3230.00,0.0231
3229.00,0.0231
3228.00,0.0230
3227.00,0.0229
3226.00,0.0228
3225.00,0.0228
3224.00,0.0227
3223.00,0.0226
3222.00,0.0225
3221.00,0.0225
3220.00,0.0224
3219.00,0.0223
3218.00,0.0223
3217.00,0.0222
3216.00,0.0221
3215.00,0.0221
3214.00,0.0220
3213.00,0.0219
3212.00,0.0219
3211.00,0.0218
3210.00,0.0218
3209.00,0.0217
3208.00,0.0217
3207.00,0.0216
3206.00,0.0215
3205.00,0.0215
3204.00,0.0214
3203.00,0.0214
3202.00,0.0213
3201.00,0.0213
3200.00,0.0212
3199.00,0.0212
3198.00,0.0211
3197.00,0.0211
3196.00,0.0210
3195.00,0.0209
3194.00,0.0209
3193.00,0.0208
3192.00,0.0207
3191.00,0.0207
3190.00,0.0206
3189.00,0.0206
3188.00,0.0205
3187.00,0.0205
3186.00,0.0204
3185.00,0.0204
3184.00,0.0203
3183.00,0.0202
3182.00,0.0202
3181.00,0.0201
3180.00,0.0201
3179.00,0.0200
3178.00,0.0200
3177.00,0.0199
3176.00,0.0199
3175.00,0.0198
3174.00,0.0197
3173.00,0.0197
3172.00,0.0196
3171.00,0.0195
3170.00,0.0195
3169.00,0.0194
3168.00,0.0194
3167.00,0.0193
3166.00,0.0193
3165.00,0.0192
3164.00,0.0191
3163.00,0.0191
3162.00,0.0190
3161.00,0.0189
3160.00,0.0189
3159.00,0.0188
3158.00,0.0188
3157.00,0.0187
3156.00,0.0187
3155.00,0.0186
3154.00,0.0185
3153.00,0.0185
3152.00,0.0184
3151.00,0.0184
3150.00,0.0184
3149.00,0.0183
3148.00,0.0183
3147.00,0.0182
3146.00,0.0182
3145.00,0.0182
3144.00,0.0181
3143.00,0.0181
3142.00,0.0180
3141.00,0.0179
3140.00,0.0179
3139.00,0.0178
3138.00,0.0178
3137.00,0.0178
3136.00,0.0177
3135.00,0.0177
3134.00,0.0177
3133.00,0.0176
3132.00,0.0176
3131.00,0.0175
3130.00,0.0175
3129.00,0.0175
3128.00,0.0175
3127.00,0.0174
3126.00,0.0174
3125.00,0.0174
3124.00,0.0173
3123.00,0.0173
3122.00,0.0172
3121.00,0.0172
3120.00,0.0172
3119.00,0.0171
3118.00,0.0171
3117.00,0.0171
3116.00,0.0171
3115.00,0.0171
3114.00,0.0171
3113.00,0.0171
3112.00,0.0171
3111.00,0.0171
3110.00,0.0171
3109.00,0.0170
3108.00,0.0170
3107.00,0.0171
3106.00,0.0171
3105.00,0.0171
3104.00,0.0171
3103.00,0.0171
3102.00,0.0171
3101.00,0.0171
3100.00,0.0171
3099.00,0.0171
3098.00,0.0171
3097.00,0.0171
3096.00,0.0171
3095.00,0.0172
3094.00,0.0172
3093.00,0.0171
3092.00,0.0171
3091.00,0.0172
3090.00,0.0172
3089.00,0.0172
3088.00,0.0172
3087.00,0.0172
3086.00,0.0172
3085.00,0.0171
3084.00,0.0171
3083.00,0.0171
3082.00,0.0171
3081.00,0.0171
3080.00,0.0172
3079.00,0.0172
3078.00,0.0172
3077.00,0.0172
3076.00,0.0173
3075.00,0.0173
3074.00,0.0173
3073.00,0.0173
3072.00,0.0173
3071.00,0.0173
3070.00,0.0173
3069.00,0.0173
3068.00,0.0172
3067.00,0.0172
3066.00,0.0172
3065.00,0.0172
3064.00,0.0172
3063.00,0.0172
3062.00,0.0172
3061.00,0.0172
3060.00,0.0172
3059.00,0.0172
3058.00,0.0171
3057.00,0.0171
3056.00,0.0171
3055.00,0.0170
3054.00,0.0170
3053.00,0.0169
3052.00,0.0169
3051.00,0.0168
3050.00,0.0168
3049.00,0.0168
3048.00,0.0168
3047.00,0.0167
3046.00,0.0166
3045.00,0.0166
3044.00,0.0165
3043.00,0.0165
3042.00,0.0165
3041.00,0.0164
3040.00,0.0164
3039.00,0.0164
3038.00,0.0164
3037.00,0.0164
3036.00,0.0163
3035.00,0.0162
3034.00,0.0162
3033.00,0.0162
3032.00,0.0162
3031.00,0.0162
3030.00,0.0162
3029.00,0.0161
3028.00,0.0161
3027.00,0.0160
3026.00,0.0160
3025.00,0.0159
3024.00,0.0159
3023.00,0.0158
3022.00,0.0158
3021.00,0.0157
3020.00,0.0157
3019.00,0.0156
3018.00,0.0156
3017.00,0.0155
3016.00,0.0155
3015.00,0.0154
3014.00,0.0154
3013.00,0.0153
3012.00,0.0153
3011.00,0.0153
3010.00,0.0153
3009.00,0.0153
3008.00,0.0153
3007.00,0.0153
3006.00,0.0153
3005.00,0.0153
3004.00,0.0153
3003.00,0.0153
3002.00,0.0153
3001.00,0.0153
3000.00,0.0152
2999.00,0.0152
2998.00,0.0152
2997.00,0.0152
2996.00,0.0152
2995.00,0.0152
2994.00,0.0152
2993.00,0.0152
2992.00,0.0153
2991.00,0.0153
2990.00,0.0153
2989.00,0.0154
2988.00,0.0154
2987.00,0.0155
2986.00,0.0155
2985.00,0.0155
2984.00,0.0156
2983.00,0.0156
2982.00,0.0157
2981.00,0.0157
2980.00,0.0158
2979.00,0.0158
2978.00,0.0159
2977.00,0.0159
2976.00,0.0160
2975.00,0.0160
2974.00,0.0161
2973.00,0.0161
2972.00,0.0162
2971.00,0.0162
2970.00,0.0162
2969.00,0.0162
2968.00,0.0163
2967.00,0.0163
2966.00,0.0163
2965.00,0.0163
2964.00,0.0162
2963.00,0.0162
2962.00,0.0162
2961.00,0.0162
2960.00,0.0161
2959.00,0.0161
2958.00,0.0161
2957.00,0.0161
2956.00,0.0160
2955.00,0.0160
2954.00,0.0160
2953.00,0.0161
2952.00,0.0161
2951.00,0.0161
2950.00,0.0161
2949.00,0.0161
2948.00,0.0161
2947.00,0.0161
2946.00,0.0161
2945.00,0.0161
2944.00,0.0161
2943.00,0.0162
2942.00,0.0162
2941.00,0.0162
2940.00,0.0163
2939.00,0.0163
2938.00,0.0163
2937.00,0.0162
2936.00,0.0162
2935.00,0.0162
2934.00,0.0161
2933.00,0.0160
2932.00,0.0159
2931.00,0.0158
2930.00,0.0156
2929.00,0.0155
2928.00,0.0152
2927.00,0.0150
2926.00,0.0147
2925.00,0.0144
2924.00,0.0140
2923.00,0.0135
2922.00,0.0130
2921.00,0.0125
2920.00,0.0120
2919.00,0.0114
2918.00,0.0110
2917.00,0.0107
2916.00,0.0107
2915.00,0.0110
2914.00,0.0115
2913.00,0.0121
2912.00,0.0127
2911.00,0.0133
2910.00,0.0137
2909.00,0.0140
2908.00,0.0142
2907.00,0.0143
2906.00,0.0144
2905.00,0.0145
2904.00,0.0145
2903.00,0.0146
2902.00,0.0146
2901.00,0.0146
2900.00,0.0146
2899.00,0.0146
2898.00,0.0146
2897.00,0.0146
2896.00,0.0147
2895.00,0.0147
2894.00,0.0147
2893.00,0.0147
2892.00,0.0147
2891.00,0.0148
2890.00,0.0148
2889.00,0.0148
2888.00,0.0149
2887.00,0.0149
2886.00,0.0149
2885.00,0.0150
2884.00,0.0150
2883.00,0.0151
2882.00,0.0152
2881.00,0.0152
2880.00,0.0153
2879.00,0.0153
2878.00,0.0153
2877.00,0.0154
2876.00,0.0154
2875.00,0.0154
2874.00,0.0154
2873.00,0.0154
2872.00,0.0154
2871.00,0.0154
2870.00,0.0153
2869.00,0.0153
2868.00,0.0152
2867.00,0.0152
2866.00,0.0151
2865.00,0.0150
2864.00,0.0150
2863.00,0.0149
2862.00,0.0148
2861.00,0.0147
2860.00,0.0145
2859.00,0.0144
2858.00,0.0143
2857.00,0.0141
2856.00,0.0139
2855.00,0.0136
2854.00,0.0132
2853.00,0.0127
2852.00,0.0121
2851.00,0.0116
2850.00,0.0112
2849.00,0.0110
2848.00,0.0112
2847.00,0.0116
2846.00,0.0121
2845.00,0.0127
2844.00,0.0132
2843.00,0.0135
2842.00,0.0137
2841.00,0.0139
2840.00,0.0140
2839.00,0.0140
2838.00,0.0141
2837.00,0.0141
2836.00,0.0141
2835.00,0.0142
2834.00,0.0142
2833.00,0.0141
2832.00,0.0141
2831.00,0.0141
2830.00,0.0141
2829.00,0.0141
2828.00,0.0141
2827.00,0.0141
2826.00,0.0141
2825.00,0.0141
2824.00,0.0141
2823.00,0.0141
2822.00,0.0141
2821.00,0.0141
2820.00,0.0140
2819.00,0.0140
2818.00,0.0140
2817.00,0.0140
2816.00,0.0140
2815.00,0.0140
2814.00,0.0140
2813.00,0.0140
2812.00,0.0140
2811.00,0.0140
2810.00,0.0140
2809.00,0.0139
2808.00,0.0139
2807.00,0.0139
2806.00,0.0139
2805.00,0.0139
2804.00,0.0139
2803.00,0.0139
2802.00,0.0139
2801.00,0.0139
2800.00,0.0138
2799.00,0.0138
2798.00,0.0138
2797.00,0.0138
2796.00,0.0138
2795.00,0.0138
2794.00,0.0138
2793.00,0.0138
2792.00,0.0138
2791.00,0.0138
2790.00,0.0138
2789.00,0.0137
2788.00,0.0137
2787.00,0.0137
2786.00,0.0137
2785.00,0.0137
2784.00,0.0137
2783.00,0.0137
2782.00,0.0137
2781.00,0.0137
2780.00,0.0137
2779.00,0.0136
2778.00,0.0136
2777.00,0.0136
2776.00,0.0136
2775.00,0.0136
2774.00,0.0136
2773.00,0.0136
2772.00,0.0135
2771.00,0.0135
2770.00,0.0135
2769.00,0.0135
2768.00,0.0135
2767.00,0.0135
2766.00,0.0135
2765.00,0.0135
2764.00,0.0135
2763.00,0.0135
2762.00,0.0134
2761.00,0.0134
2760.00,0.0134
2759.00,0.0134
2758.00,0.0134
2757.00,0.0134
