Created as New Dataset,Sample 325 By YargerLab Date Monday, August 19 2024
cm-1,A
4000.00,0.0110
3999.00,0.0110
3998.00,0.0110
3997.00,0.0110
3996.00,0.0110
3995.00,0.0110
3994.00,0.0110
3993.00,0.0110
3992.00,0.0110
3991.00,0.0110
3990.00,0.0110
3989.00,0.0110
3988.00,0.0110
3987.00,0.0110
3986.00,0.0110
3985.00,0.0110
3984.00,0.0110
3983.00,0.0110
3982.00,0.0110
3981.00,0.0110
3980.00,0.0110
3979.00,0.0110
3978.00,0.0110
3977.00,0.0110
3976.00,0.0110
3975.00,0.0110
3974.00,0.0110
3973.00,0.0110
3972.00,0.0110
3971.00,0.0110
3970.00,0.0109
3969.00,0.0109
3968.00,0.0110
3967.00,0.0110
3966.00,0.0110
3965.00,0.0110
3964.00,0.0110
3963.00,0.0110
3962.00,0.0110
3961.00,0.0110
3960.00,0.0110
3959.00,0.0110
3958.00,0.0110
3957.00,0.0110
3956.00,0.0110
3955.00,0.0110
3954.00,0.0109
3953.00,0.0109
3952.00,0.0109
3951.00,0.0109
3950.00,0.0110
3949.00,0.0110
3948.00,0.0110
3947.00,0.0110
3946.00,0.0109
3945.00,0.0109
3944.00,0.0109
3943.00,0.0109
3942.00,0.0109
3941.00,0.0109
3940.00,0.0109
3939.00,0.0109
3938.00,0.0109
3937.00,0.0109
3936.00,0.0109
3935.00,0.0109
3934.00,0.0109
3933.00,0.0109
3932.00,0.0109
3931.00,0.0109
3930.00,0.0109
3929.00,0.0109
3928.00,0.0108
3927.00,0.0108
3926.00,0.0108
3925.00,0.0109
3924.00,0.0109
3923.00,0.0109
3922.00,0.0109
3921.00,0.0109
3920.00,0.0109
3919.00,0.0109
3918.00,0.0109
3917.00,0.0109
3916.00,0.0109
3915.00,0.0109
3914.00,0.0108
3913.00,0.0108
3912.00,0.0108
3911.00,0.0108
3910.00,0.0108
3909.00,0.0108
3908.00,0.0108
3907.00,0.0108
3906.00,0.0108
3905.00,0.0108
3904.00,0.0108
3903.00,0.0108
3902.00,0.0108
3901.00,0.0108
3900.00,0.0108
3899.00,0.0107
3898.00,0.0108
3897.00,0.0108
3896.00,0.0108
3895.00,0.0108
3894.00,0.0108
3893.00,0.0108
3892.00,0.0108
3891.00,0.0108
3890.00,0.0108
3889.00,0.0107
3888.00,0.0107
3887.00,0.0107
3886.00,0.0107
3885.00,0.0107
3884.00,0.0107
3883.00,0.0107
3882.00,0.0107
3881.00,0.0107
3880.00,0.0107
3879.00,0.0107
3878.00,0.0107
3877.00,0.0107
3876.00,0.0107
3875.00,0.0107
3874.00,0.0107
3873.00,0.0107
3872.00,0.0107
3871.00,0.0107
3870.00,0.0107
3869.00,0.0107
3868.00,0.0107
3867.00,0.0106
3866.00,0.0106
3865.00,0.0106
3864.00,0.0106
3863.00,0.0106
3862.00,0.0106
3861.00,0.0106
3860.00,0.0107
3859.00,0.0107
3858.00,0.0107
3857.00,0.0107
3856.00,0.0106
3855.00,0.0106
3854.00,0.0106
3853.00,0.0106
3852.00,0.0105
3851.00,0.0105
3850.00,0.0105
3849.00,0.0106
3848.00,0.0106
3847.00,0.0106
3846.00,0.0106
3845.00,0.0106
3844.00,0.0106
3843.00,0.0106
3842.00,0.0106
3841.00,0.0106
3840.00,0.0106
3839.00,0.0106
3838.00,0.0106
3837.00,0.0106
3836.00,0.0106
3835.00,0.0105
3834.00,0.0106
3833.00,0.0106
3832.00,0.0106
3831.00,0.0106
3830.00,0.0106
3829.00,0.0106
3828.00,0.0106
3827.00,0.0106
3826.00,0.0106
3825.00,0.0106
3824.00,0.0105
3823.00,0.0105
3822.00,0.0105
3821.00,0.0105
3820.00,0.0105
3819.00,0.0105
3818.00,0.0105
3817.00,0.0104
3816.00,0.0104
3815.00,0.0105
3814.00,0.0105
3813.00,0.0105
3812.00,0.0105
3811.00,0.0105
3810.00,0.0105
3809.00,0.0105
3808.00,0.0105
3807.00,0.0105
3806.00,0.0105
3805.00,0.0105
3804.00,0.0104
3803.00,0.0104
3802.00,0.0104
3801.00,0.0104
3800.00,0.0104
3799.00,0.0104
3798.00,0.0104
3797.00,0.0104
3796.00,0.0104
3795.00,0.0104
3794.00,0.0104
3793.00,0.0104
3792.00,0.0104
3791.00,0.0104
3790.00,0.0104
3789.00,0.0104
3788.00,0.0104
3787.00,0.0104
3786.00,0.0104
3785.00,0.0104
3784.00,0.0104
3783.00,0.0104
3782.00,0.0104
3781.00,0.0104
3780.00,0.0104
3779.00,0.0104
3778.00,0.0104
3777.00,0.0104
3776.00,0.0104
3775.00,0.0104
3774.00,0.0104
3773.00,0.0104
3772.00,0.0104
3771.00,0.0103
3770.00,0.0103
3769.00,0.0103
3768.00,0.0103
3767.00,0.0103
3766.00,0.0103
3765.00,0.0103
3764.00,0.0103
3763.00,0.0103
3762.00,0.0103
3761.00,0.0103
3760.00,0.0103
3759.00,0.0103
3758.00,0.0103
3757.00,0.0103
3756.00,0.0102
3755.00,0.0102
3754.00,0.0102
3753.00,0.0102
3752.00,0.0102
3751.00,0.0102
3750.00,0.0102
3749.00,0.0102
3748.00,0.0101
3747.00,0.0101
3746.00,0.0101
3745.00,0.0101
3744.00,0.0102
3743.00,0.0102
3742.00,0.0102
3741.00,0.0102
3740.00,0.0102
3739.00,0.0102
3738.00,0.0102
3737.00,0.0101
3736.00,0.0101
3735.00,0.0101
3734.00,0.0101
3733.00,0.0101
3732.00,0.0101
3731.00,0.0101
3730.00,0.0101
3729.00,0.0101
3728.00,0.0101
3727.00,0.0101
3726.00,0.0101
3725.00,0.0100
3724.00,0.0100
3723.00,0.0100
3722.00,0.0100
3721.00,0.0100
3720.00,0.0100
3719.00,0.0100
3718.00,0.0100
3717.00,0.0100
3716.00,0.0100
3715.00,0.0100
3714.00,0.0099
3713.00,0.0099
3712.00,0.0099
3711.00,0.0099
3710.00,0.0099
3709.00,0.0099
3708.00,0.0099
3707.00,0.0099
3706.00,0.0099
3705.00,0.0099
3704.00,0.0099
3703.00,0.0099
3702.00,0.0098
3701.00,0.0098
3700.00,0.0098
3699.00,0.0098
3698.00,0.0098
3697.00,0.0098
3696.00,0.0098
3695.00,0.0098
3694.00,0.0098
3693.00,0.0098
3692.00,0.0098
3691.00,0.0098
3690.00,0.0098
3689.00,0.0098
3688.00,0.0098
3687.00,0.0098
3686.00,0.0098
3685.00,0.0098
3684.00,0.0098
3683.00,0.0098
3682.00,0.0098
3681.00,0.0098
3680.00,0.0098
3679.00,0.0098
3678.00,0.0098
3677.00,0.0098
3676.00,0.0098
3675.00,0.0098
3674.00,0.0098
3673.00,0.0098
3672.00,0.0097
3671.00,0.0097
3670.00,0.0098
3669.00,0.0098
3668.00,0.0098
3667.00,0.0098
3666.00,0.0099
3665.00,0.0099
3664.00,0.0099
3663.00,0.0099
3662.00,0.0099
3661.00,0.0099
3660.00,0.0099
3659.00,0.0099
3658.00,0.0099
3657.00,0.0100
3656.00,0.0100
3655.00,0.0100
3654.00,0.0100
3653.00,0.0100
3652.00,0.0100
3651.00,0.0100
3650.00,0.0100
3649.00,0.0100
3648.00,0.0100
3647.00,0.0100
3646.00,0.0100
3645.00,0.0101
3644.00,0.0101
3643.00,0.0102
3642.00,0.0102
3641.00,0.0102
3640.00,0.0103
3639.00,0.0103
3638.00,0.0103
3637.00,0.0103
3636.00,0.0103
3635.00,0.0103
3634.00,0.0103
3633.00,0.0104
3632.00,0.0104
3631.00,0.0104
3630.00,0.0104
3629.00,0.0104
3628.00,0.0104
3627.00,0.0104
3626.00,0.0104
3625.00,0.0105
3624.00,0.0105
3623.00,0.0106
3622.00,0.0106
3621.00,0.0106
3620.00,0.0106
3619.00,0.0106
3618.00,0.0106
3617.00,0.0107
3616.00,0.0107
3615.00,0.0107
3614.00,0.0108
3613.00,0.0108
3612.00,0.0108
3611.00,0.0108
3610.00,0.0109
3609.00,0.0109
3608.00,0.0109
3607.00,0.0110
3606.00,0.0110
3605.00,0.0111
3604.00,0.0111
3603.00,0.0111
3602.00,0.0112
3601.00,0.0112
3600.00,0.0112
3599.00,0.0112
3598.00,0.0113
3597.00,0.0113
3596.00,0.0113
3595.00,0.0113
3594.00,0.0113
3593.00,0.0114
3592.00,0.0114
3591.00,0.0114
3590.00,0.0115
3589.00,0.0115
3588.00,0.0115
3587.00,0.0115
3586.00,0.0116
3585.00,0.0116
3584.00,0.0117
3583.00,0.0117
3582.00,0.0117
3581.00,0.0118
3580.00,0.0118
3579.00,0.0118
3578.00,0.0119
3577.00,0.0119
3576.00,0.0120
3575.00,0.0120
3574.00,0.0120
3573.00,0.0121
3572.00,0.0121
3571.00,0.0121
3570.00,0.0121
3569.00,0.0122
3568.00,0.0122
3567.00,0.0123
3566.00,0.0123
3565.00,0.0123
3564.00,0.0124
3563.00,0.0124
3562.00,0.0125
3561.00,0.0125
3560.00,0.0126
3559.00,0.0126
3558.00,0.0127
3557.00,0.0127
3556.00,0.0128
3555.00,0.0128
3554.00,0.0129
3553.00,0.0129
3552.00,0.0130
3551.00,0.0130
3550.00,0.0130
3549.00,0.0131
3548.00,0.0132
3547.00,0.0132
3546.00,0.0133
3545.00,0.0133
3544.00,0.0133
3543.00,0.0134
3542.00,0.0134
3541.00,0.0134
3540.00,0.0135
3539.00,0.0135
3538.00,0.0136
3537.00,0.0136
3536.00,0.0136
3535.00,0.0137
3534.00,0.0137
3533.00,0.0137
3532.00,0.0138
3531.00,0.0138
3530.00,0.0139
3529.00,0.0139
3528.00,0.0140
3527.00,0.0140
3526.00,0.0141
3525.00,0.0141
3524.00,0.0142
3523.00,0.0142
3522.00,0.0142
3521.00,0.0143
3520.00,0.0143
3519.00,0.0144
3518.00,0.0144
3517.00,0.0145
3516.00,0.0145
3515.00,0.0145
3514.00,0.0146
3513.00,0.0146
3512.00,0.0147
3511.00,0.0147
3510.00,0.0147
3509.00,0.0148
3508.00,0.0148
3507.00,0.0149
3506.00,0.0150
3505.00,0.0150
3504.00,0.0151
3503.00,0.0151
3502.00,0.0152
3501.00,0.0152
3500.00,0.0152
3499.00,0.0153
3498.00,0.0153
3497.00,0.0154
3496.00,0.0154
3495.00,0.0154
3494.00,0.0155
3493.00,0.0155
3492.00,0.0156
3491.00,0.0156
3490.00,0.0157
3489.00,0.0158
3488.00,0.0158
3487.00,0.0158
3486.00,0.0159
3485.00,0.0159
3484.00,0.0160
3483.00,0.0160
3482.00,0.0161
3481.00,0.0162
3480.00,0.0162
3479.00,0.0162
3478.00,0.0163
3477.00,0.0163
3476.00,0.0164
3475.00,0.0164
3474.00,0.0165
3473.00,0.0165
3472.00,0.0166
3471.00,0.0166
3470.00,0.0167
3469.00,0.0167
3468.00,0.0168
3467.00,0.0168
3466.00,0.0168
3465.00,0.0169
3464.00,0.0169
3463.00,0.0170
3462.00,0.0170
3461.00,0.0171
3460.00,0.0171
3459.00,0.0172
3458.00,0.0172
3457.00,0.0173
3456.00,0.0173
3455.00,0.0173
3454.00,0.0174
3453.00,0.0174
3452.00,0.0175
3451.00,0.0175
3450.00,0.0176
3449.00,0.0177
3448.00,0.0177
3447.00,0.0177
3446.00,0.0178
3445.00,0.0178
3444.00,0.0179
3443.00,0.0179
3442.00,0.0180
3441.00,0.0180
3440.00,0.0181
3439.00,0.0182
3438.00,0.0182
3437.00,0.0183
3436.00,0.0183
3435.00,0.0184
3434.00,0.0184
3433.00,0.0185
3432.00,0.0185
3431.00,0.0185
3430.00,0.0186
3429.00,0.0186
3428.00,0.0187
3427.00,0.0187
3426.00,0.0188
3425.00,0.0188
3424.00,0.0189
3423.00,0.0189
3422.00,0.0190
3421.00,0.0190
3420.00,0.0191
3419.00,0.0191
3418.00,0.0192
3417.00,0.0192
3416.00,0.0193
3415.00,0.0194
3414.00,0.0194
3413.00,0.0195
3412.00,0.0195
3411.00,0.0196
3410.00,0.0196
3409.00,0.0196
3408.00,0.0197
3407.00,0.0197
3406.00,0.0198
3405.00,0.0198
3404.00,0.0199
3403.00,0.0200
3402.00,0.0200
3401.00,0.0201
3400.00,0.0201
3399.00,0.0201
3398.00,0.0202
3397.00,0.0202
3396.00,0.0203
3395.00,0.0203
3394.00,0.0204
3393.00,0.0204
3392.00,0.0204
3391.00,0.0205
3390.00,0.0205
3389.00,0.0206
3388.00,0.0206
3387.00,0.0207
3386.00,0.0207
3385.00,0.0208
3384.00,0.0208
3383.00,0.0209
3382.00,0.0209
3381.00,0.0210
3380.00,0.0210
3379.00,0.0211
3378.00,0.0211
3377.00,0.0212
3376.00,0.0213
3375.00,0.0213
3374.00,0.0214
3373.00,0.0215
3372.00,0.0215
3371.00,0.0216
3370.00,0.0217
3369.00,0.0217
3368.00,0.0218
3367.00,0.0219
3366.00,0.0219
3365.00,0.0220
3364.00,0.0220
3363.00,0.0221
3362.00,0.0222
3361.00,0.0222
3360.00,0.0223
3359.00,0.0224
3358.00,0.0225
3357.00,0.0226
3356.00,0.0227
3355.00,0.0227
3354.00,0.0228
3353.00,0.0229
3352.00,0.0230
3351.00,0.0231
3350.00,0.0231
3349.00,0.0232
3348.00,0.0233
3347.00,0.0234
3346.00,0.0235
3345.00,0.0236
3344.00,0.0237
3343.00,0.0238
3342.00,0.0239
3341.00,0.0240
3340.00,0.0241
3339.00,0.0242
3338.00,0.0244
3337.00,0.0245
3336.00,0.0246
3335.00,0.0247
3334.00,0.0248
3333.00,0.0250
3332.00,0.0251
3331.00,0.0252
3330.00,0.0253
3329.00,0.0255
3328.00,0.0256
3327.00,0.0257
3326.00,0.0259
3325.00,0.0260
3324.00,0.0262
3323.00,0.0263
3322.00,0.0265
3321.00,0.0266
3320.00,0.0268
3319.00,0.0270
3318.00,0.0271
3317.00,0.0273
3316.00,0.0275
3315.00,0.0277
3314.00,0.0278
3313.00,0.0280
3312.00,0.0282
3311.00,0.0284
3310.00,0.0285
3309.00,0.0287
3308.00,0.0289
3307.00,0.0291
3306.00,0.0293
3305.00,0.0295
3304.00,0.0297
3303.00,0.0300
3302.00,0.0302
3301.00,0.0304
3300.00,0.0306
3299.00,0.0308
3298.00,0.0310
3297.00,0.0312
3296.00,0.0314
3295.00,0.0316
3294.00,0.0318
3293.00,0.0320
3292.00,0.0322
3291.00,0.0324
3290.00,0.0326
3289.00,0.0328
3288.00,0.0330
3287.00,0.0332
3286.00,0.0334
3285.00,0.0335
3284.00,0.0337
3283.00,0.0338
3282.00,0.0339
3281.00,0.0341
3280.00,0.0342
3279.00,0.0343
3278.00,0.0344
3277.00,0.0344
3276.00,0.0345
3275.00,0.0345
3274.00,0.0345
3273.00,0.0345
3272.00,0.0345
3271.00,0.0345
3270.00,0.0345
3269.00,0.0345
3268.00,0.0344
3267.00,0.0344
3266.00,0.0343
3265.00,0.0342
3264.00,0.0341
3263.00,0.0340
3262.00,0.0339
3261.00,0.0337
3260.00,0.0336
3259.00,0.0334
3258.00,0.0333
3257.00,0.0331
3256.00,0.0329
3255.00,0.0328
3254.00,0.0326
3253.00,0.0325
3252.00,0.0323
3251.00,0.0322
3250.00,0.0320
3249.00,0.0318
3248.00,0.0317
3247.00,0.0315
3246.00,0.0314
3245.00,0.0312
3244.00,0.0311
3243.00,0.0310
3242.00,0.0308
3241.00,0.0307
3240.00,0.0305
3239.00,0.0304
3238.00,0.0302
3237.00,0.0301
3236.00,0.0299
3235.00,0.0298
3234.00,0.0296
3233.00,0.0295
3232.00,0.0294
3231.00,0.0294
3230.00,0.0293
3229.00,0.0292
3228.00,0.0291
3227.00,0.0289
3226.00,0.0288
3225.00,0.0287
3224.00,0.0286
3223.00,0.0285
3222.00,0.0284
3221.00,0.0283
3220.00,0.0282
3219.00,0.0281
3218.00,0.0280
3217.00,0.0279
3216.00,0.0278
3215.00,0.0277
3214.00,0.0276
3213.00,0.0276
3212.00,0.0275
3211.00,0.0274
3210.00,0.0273
3209.00,0.0273
3208.00,0.0272
3207.00,0.0271
3206.00,0.0270
3205.00,0.0269
3204.00,0.0268
3203.00,0.0267
3202.00,0.0267
3201.00,0.0266
3200.00,0.0265
3199.00,0.0264
3198.00,0.0264
3197.00,0.0263
3196.00,0.0262
3195.00,0.0261
3194.00,0.0260
3193.00,0.0259
3192.00,0.0259
3191.00,0.0258
3190.00,0.0257
3189.00,0.0256
3188.00,0.0255
3187.00,0.0254
3186.00,0.0254
3185.00,0.0253
3184.00,0.0252
3183.00,0.0251
3182.00,0.0250
3181.00,0.0249
3180.00,0.0248
3179.00,0.0248
3178.00,0.0247
3177.00,0.0246
3176.00,0.0245
3175.00,0.0244
3174.00,0.0243
3173.00,0.0242
3172.00,0.0242
3171.00,0.0241
3170.00,0.0240
3169.00,0.0239
3168.00,0.0238
3167.00,0.0237
3166.00,0.0236
3165.00,0.0235
3164.00,0.0234
3163.00,0.0233
3162.00,0.0233
3161.00,0.0232
3160.00,0.0231
3159.00,0.0230
3158.00,0.0230
3157.00,0.0229
3156.00,0.0228
3155.00,0.0227
3154.00,0.0227
3153.00,0.0226
3152.00,0.0225
3151.00,0.0224
3150.00,0.0223
3149.00,0.0223
3148.00,0.0222
3147.00,0.0221
3146.00,0.0221
3145.00,0.0220
3144.00,0.0219
3143.00,0.0219
3142.00,0.0218
3141.00,0.0217
3140.00,0.0217
3139.00,0.0216
3138.00,0.0215
3137.00,0.0215
3136.00,0.0214
3135.00,0.0214
3134.00,0.0213
3133.00,0.0213
3132.00,0.0212
3131.00,0.0212
3130.00,0.0211
3129.00,0.0211
3128.00,0.0210
3127.00,0.0210
3126.00,0.0209
3125.00,0.0209
3124.00,0.0209
3123.00,0.0208
3122.00,0.0208
3121.00,0.0207
3120.00,0.0207
3119.00,0.0207
3118.00,0.0206
3117.00,0.0206
3116.00,0.0206
3115.00,0.0206
3114.00,0.0206
3113.00,0.0206
3112.00,0.0205
3111.00,0.0205
3110.00,0.0205
3109.00,0.0205
3108.00,0.0205
3107.00,0.0205
3106.00,0.0205
3105.00,0.0205
3104.00,0.0205
3103.00,0.0205
3102.00,0.0205
3101.00,0.0205
3100.00,0.0205
3099.00,0.0205
3098.00,0.0206
3097.00,0.0206
3096.00,0.0206
3095.00,0.0206
3094.00,0.0206
3093.00,0.0206
3092.00,0.0206
3091.00,0.0206
3090.00,0.0206
3089.00,0.0207
3088.00,0.0207
3087.00,0.0207
3086.00,0.0207
3085.00,0.0207
3084.00,0.0207
3083.00,0.0207
3082.00,0.0207
3081.00,0.0207
3080.00,0.0207
3079.00,0.0207
3078.00,0.0207
3077.00,0.0208
3076.00,0.0208
3075.00,0.0208
3074.00,0.0208
3073.00,0.0208
3072.00,0.0208
3071.00,0.0208
3070.00,0.0208
3069.00,0.0208
3068.00,0.0207
3067.00,0.0207
3066.00,0.0207
3065.00,0.0207
3064.00,0.0207
3063.00,0.0207
3062.00,0.0207
3061.00,0.0207
3060.00,0.0206
3059.00,0.0206
3058.00,0.0206
3057.00,0.0205
3056.00,0.0205
3055.00,0.0204
3054.00,0.0203
3053.00,0.0203
3052.00,0.0202
3051.00,0.0201
3050.00,0.0201
3049.00,0.0200
3048.00,0.0200
3047.00,0.0199
3046.00,0.0199
3045.00,0.0198
3044.00,0.0197
3043.00,0.0197
3042.00,0.0196
3041.00,0.0196
3040.00,0.0196
3039.00,0.0195
3038.00,0.0195
3037.00,0.0194
3036.00,0.0193
3035.00,0.0193
3034.00,0.0192
3033.00,0.0191
3032.00,0.0191
3031.00,0.0191
3030.00,0.0191
3029.00,0.0190
3028.00,0.0190
3027.00,0.0189
3026.00,0.0189
3025.00,0.0188
3024.00,0.0187
3023.00,0.0187
3022.00,0.0186
3021.00,0.0185
3020.00,0.0185
3019.00,0.0184
3018.00,0.0183
3017.00,0.0183
3016.00,0.0182
3015.00,0.0182
3014.00,0.0181
3013.00,0.0181
3012.00,0.0181
3011.00,0.0181
3010.00,0.0180
3009.00,0.0180
3008.00,0.0180
3007.00,0.0180
3006.00,0.0179
3005.00,0.0179
3004.00,0.0179
3003.00,0.0179
3002.00,0.0179
3001.00,0.0179
3000.00,0.0179
2999.00,0.0179
2998.00,0.0179
2997.00,0.0179
2996.00,0.0179
2995.00,0.0179
2994.00,0.0179
2993.00,0.0180
2992.00,0.0180
2991.00,0.0181
2990.00,0.0181
2989.00,0.0182
2988.00,0.0182
2987.00,0.0183
2986.00,0.0183
2985.00,0.0184
2984.00,0.0185
2983.00,0.0185
2982.00,0.0186
2981.00,0.0187
2980.00,0.0187
2979.00,0.0188
2978.00,0.0189
2977.00,0.0189
2976.00,0.0190
2975.00,0.0191
2974.00,0.0191
2973.00,0.0192
2972.00,0.0192
2971.00,0.0192
2970.00,0.0193
2969.00,0.0193
2968.00,0.0193
2967.00,0.0193
2966.00,0.0193
2965.00,0.0193
2964.00,0.0193
2963.00,0.0193
2962.00,0.0193
2961.00,0.0192
2960.00,0.0192
2959.00,0.0191
2958.00,0.0191
2957.00,0.0190
2956.00,0.0190
2955.00,0.0190
2954.00,0.0190
2953.00,0.0190
2952.00,0.0190
2951.00,0.0190
2950.00,0.0190
2949.00,0.0190
2948.00,0.0190
2947.00,0.0190
2946.00,0.0190
2945.00,0.0190
2944.00,0.0191
2943.00,0.0191
2942.00,0.0191
2941.00,0.0191
2940.00,0.0192
2939.00,0.0192
2938.00,0.0192
2937.00,0.0191
2936.00,0.0191
2935.00,0.0191
2934.00,0.0190
2933.00,0.0189
2932.00,0.0188
2931.00,0.0186
2930.00,0.0184
2929.00,0.0182
2928.00,0.0180
2927.00,0.0177
2926.00,0.0174
2925.00,0.0170
2924.00,0.0166
2923.00,0.0162
2922.00,0.0157
2921.00,0.0152
2920.00,0.0147
2919.00,0.0141
2918.00,0.0137
2917.00,0.0134
2916.00,0.0134
2915.00,0.0137
2914.00,0.0141
2913.00,0.0147
2912.00,0.0153
2911.00,0.0158
2910.00,0.0162
2909.00,0.0165
2908.00,0.0167
2907.00,0.0168
2906.00,0.0169
2905.00,0.0169
2904.00,0.0170
2903.00,0.0170
2902.00,0.0170
2901.00,0.0170
2900.00,0.0170
2899.00,0.0170
2898.00,0.0171
2897.00,0.0171
2896.00,0.0171
2895.00,0.0171
2894.00,0.0171
2893.00,0.0172
2892.00,0.0172
2891.00,0.0172
2890.00,0.0172
2889.00,0.0173
2888.00,0.0173
2887.00,0.0174
2886.00,0.0174
2885.00,0.0175
2884.00,0.0175
2883.00,0.0176
2882.00,0.0177
2881.00,0.0177
2880.00,0.0178
2879.00,0.0179
2878.00,0.0179
2877.00,0.0179
2876.00,0.0180
2875.00,0.0180
2874.00,0.0179
2873.00,0.0179
2872.00,0.0179
2871.00,0.0179
2870.00,0.0178
2869.00,0.0178
2868.00,0.0177
2867.00,0.0176
2866.00,0.0175
2865.00,0.0174
2864.00,0.0172
2863.00,0.0171
2862.00,0.0170
2861.00,0.0168
2860.00,0.0167
2859.00,0.0165
2858.00,0.0164
2857.00,0.0162
2856.00,0.0159
2855.00,0.0156
2854.00,0.0152
2853.00,0.0147
2852.00,0.0142
2851.00,0.0136
2850.00,0.0132
2849.00,0.0131
2848.00,0.0132
2847.00,0.0136
2846.00,0.0142
2845.00,0.0147
2844.00,0.0152
2843.00,0.0155
2842.00,0.0157
2841.00,0.0159
2840.00,0.0160
2839.00,0.0160
2838.00,0.0160
2837.00,0.0161
2836.00,0.0161
2835.00,0.0161
2834.00,0.0161
2833.00,0.0161
2832.00,0.0161
2831.00,0.0161
2830.00,0.0161
2829.00,0.0161
2828.00,0.0160
2827.00,0.0160
2826.00,0.0160
2825.00,0.0160
2824.00,0.0160
2823.00,0.0160
2822.00,0.0160
2821.00,0.0159
2820.00,0.0159
2819.00,0.0159
2818.00,0.0159
2817.00,0.0159
2816.00,0.0159
2815.00,0.0159
2814.00,0.0159
2813.00,0.0158
2812.00,0.0158
2811.00,0.0158
2810.00,0.0158
2809.00,0.0158
2808.00,0.0158
2807.00,0.0158
2806.00,0.0158
2805.00,0.0157
2804.00,0.0157
2803.00,0.0157
2802.00,0.0157
2801.00,0.0157
2800.00,0.0157
2799.00,0.0156
2798.00,0.0156
2797.00,0.0156
2796.00,0.0156
2795.00,0.0156
2794.00,0.0156
2793.00,0.0156
2792.00,0.0156
2791.00,0.0156
2790.00,0.0156
2789.00,0.0155
2788.00,0.0155
2787.00,0.0155
2786.00,0.0155
2785.00,0.0154
2784.00,0.0154
2783.00,0.0154
2782.00,0.0154
2781.00,0.0154
2780.00,0.0154
2779.00,0.0154
2778.00,0.0154
2777.00,0.0153
2776.00,0.0153
2775.00,0.0153
2774.00,0.0153
2773.00,0.0153
2772.00,0.0153
2771.00,0.0152
2770.00,0.0152
2769.00,0.0152
2768.00,0.0152
2767.00,0.0152
2766.00,0.0152
2765.00,0.0151
2764.00,0.0151
2763.00,0.0151
2762.00,0.0151
2761.00,0.0151
2760.00,0.0151
2759.00,0.0150
2758.00,0.0150
2757.00,0.0150
