Created as New Dataset,Sample 328 By YargerLab Date Monday, August 19 2024
cm-1,A
4000.00,0.0087
3999.00,0.0087
3998.00,0.0087
3997.00,0.0087
3996.00,0.0087
3995.00,0.0087
3994.00,0.0087
3993.00,0.0087
3992.00,0.0087
3991.00,0.0087
3990.00,0.0087
3989.00,0.0087
3988.00,0.0087
3987.00,0.0087
3986.00,0.0087
3985.00,0.0087
3984.00,0.0087
3983.00,0.0087
3982.00,0.0087
3981.00,0.0087
3980.00,0.0086
3979.00,0.0086
3978.00,0.0086
3977.00,0.0086
3976.00,0.0086
3975.00,0.0087
3974.00,0.0087
3973.00,0.0087
3972.00,0.0087
3971.00,0.0087
3970.00,0.0086
3969.00,0.0086
3968.00,0.0086
3967.00,0.0086
3966.00,0.0086
3965.00,0.0087
3964.00,0.0087
3963.00,0.0087
3962.00,0.0087
3961.00,0.0086
3960.00,0.0086
3959.00,0.0086
3958.00,0.0086
3957.00,0.0086
3956.00,0.0086
3955.00,0.0086
3954.00,0.0086
3953.00,0.0086
3952.00,0.0086
3951.00,0.0086
3950.00,0.0086
3949.00,0.0086
3948.00,0.0086
3947.00,0.0086
3946.00,0.0086
3945.00,0.0086
3944.00,0.0086
3943.00,0.0086
3942.00,0.0086
3941.00,0.0086
3940.00,0.0086
3939.00,0.0086
3938.00,0.0086
3937.00,0.0086
3936.00,0.0086
3935.00,0.0086
3934.00,0.0086
3933.00,0.0086
3932.00,0.0086
3931.00,0.0086
3930.00,0.0086
3929.00,0.0086
3928.00,0.0086
3927.00,0.0086
3926.00,0.0086
3925.00,0.0086
3924.00,0.0086
3923.00,0.0086
3922.00,0.0086
3921.00,0.0086
3920.00,0.0086
3919.00,0.0086
3918.00,0.0086
3917.00,0.0086
3916.00,0.0085
3915.00,0.0085
3914.00,0.0085
3913.00,0.0085
3912.00,0.0085
3911.00,0.0085
3910.00,0.0085
3909.00,0.0085
3908.00,0.0085
3907.00,0.0085
3906.00,0.0085
3905.00,0.0085
3904.00,0.0085
3903.00,0.0085
3902.00,0.0084
3901.00,0.0084
3900.00,0.0084
3899.00,0.0084
3898.00,0.0084
3897.00,0.0085
3896.00,0.0085
3895.00,0.0085
3894.00,0.0085
3893.00,0.0085
3892.00,0.0085
3891.00,0.0084
3890.00,0.0084
3889.00,0.0084
3888.00,0.0084
3887.00,0.0084
3886.00,0.0084
3885.00,0.0084
3884.00,0.0084
3883.00,0.0084
3882.00,0.0084
3881.00,0.0085
3880.00,0.0084
3879.00,0.0084
3878.00,0.0084
3877.00,0.0084
3876.00,0.0084
3875.00,0.0084
3874.00,0.0084
3873.00,0.0084
3872.00,0.0084
3871.00,0.0083
3870.00,0.0083
3869.00,0.0083
3868.00,0.0083
3867.00,0.0083
3866.00,0.0083
3865.00,0.0083
3864.00,0.0083
3863.00,0.0083
3862.00,0.0083
3861.00,0.0083
3860.00,0.0083
3859.00,0.0083
3858.00,0.0083
3857.00,0.0082
3856.00,0.0082
3855.00,0.0082
3854.00,0.0081
3853.00,0.0081
3852.00,0.0081
3851.00,0.0082
3850.00,0.0082
3849.00,0.0083
3848.00,0.0083
3847.00,0.0083
3846.00,0.0083
3845.00,0.0083
3844.00,0.0083
3843.00,0.0083
3842.00,0.0082
3841.00,0.0082
3840.00,0.0082
3839.00,0.0082
3838.00,0.0082
3837.00,0.0082
3836.00,0.0082
3835.00,0.0082
3834.00,0.0082
3833.00,0.0082
3832.00,0.0083
3831.00,0.0083
3830.00,0.0083
3829.00,0.0083
3828.00,0.0083
3827.00,0.0083
3826.00,0.0083
3825.00,0.0083
3824.00,0.0082
3823.00,0.0082
3822.00,0.0082
3821.00,0.0082
3820.00,0.0081
3819.00,0.0081
3818.00,0.0081
3817.00,0.0081
3816.00,0.0081
3815.00,0.0082
3814.00,0.0082
3813.00,0.0082
3812.00,0.0082
3811.00,0.0082
3810.00,0.0082
3809.00,0.0082
3808.00,0.0082
3807.00,0.0082
3806.00,0.0081
3805.00,0.0081
3804.00,0.0081
3803.00,0.0081
3802.00,0.0081
3801.00,0.0081
3800.00,0.0081
3799.00,0.0081
3798.00,0.0082
3797.00,0.0082
3796.00,0.0082
3795.00,0.0082
3794.00,0.0082
3793.00,0.0082
3792.00,0.0083
3791.00,0.0082
3790.00,0.0082
3789.00,0.0082
3788.00,0.0082
3787.00,0.0082
3786.00,0.0082
3785.00,0.0082
3784.00,0.0082
3783.00,0.0082
3782.00,0.0082
3781.00,0.0082
3780.00,0.0082
3779.00,0.0082
3778.00,0.0082
3777.00,0.0082
3776.00,0.0082
3775.00,0.0082
3774.00,0.0082
3773.00,0.0082
3772.00,0.0082
3771.00,0.0081
3770.00,0.0081
3769.00,0.0081
3768.00,0.0081
3767.00,0.0081
3766.00,0.0081
3765.00,0.0081
3764.00,0.0081
3763.00,0.0081
3762.00,0.0081
3761.00,0.0081
3760.00,0.0081
3759.00,0.0081
3758.00,0.0081
3757.00,0.0080
3756.00,0.0080
3755.00,0.0080
3754.00,0.0079
3753.00,0.0079
3752.00,0.0079
3751.00,0.0078
3750.00,0.0078
3749.00,0.0078
3748.00,0.0078
3747.00,0.0078
3746.00,0.0078
3745.00,0.0078
3744.00,0.0078
3743.00,0.0078
3742.00,0.0079
3741.00,0.0079
3740.00,0.0079
3739.00,0.0079
3738.00,0.0079
3737.00,0.0079
3736.00,0.0078
3735.00,0.0078
3734.00,0.0078
3733.00,0.0078
3732.00,0.0078
3731.00,0.0078
3730.00,0.0078
3729.00,0.0079
3728.00,0.0079
3727.00,0.0079
3726.00,0.0079
3725.00,0.0079
3724.00,0.0079
3723.00,0.0079
3722.00,0.0079
3721.00,0.0078
3720.00,0.0078
3719.00,0.0078
3718.00,0.0078
3717.00,0.0078
3716.00,0.0078
3715.00,0.0078
3714.00,0.0078
3713.00,0.0078
3712.00,0.0077
3711.00,0.0077
3710.00,0.0077
3709.00,0.0077
3708.00,0.0077
3707.00,0.0077
3706.00,0.0078
3705.00,0.0078
3704.00,0.0078
3703.00,0.0078
3702.00,0.0078
3701.00,0.0078
3700.00,0.0078
3699.00,0.0078
3698.00,0.0078
3697.00,0.0078
3696.00,0.0078
3695.00,0.0078
3694.00,0.0078
3693.00,0.0077
3692.00,0.0077
3691.00,0.0077
3690.00,0.0076
3689.00,0.0076
3688.00,0.0076
3687.00,0.0076
3686.00,0.0077
3685.00,0.0077
3684.00,0.0077
3683.00,0.0077
3682.00,0.0077
3681.00,0.0077
3680.00,0.0077
3679.00,0.0077
3678.00,0.0076
3677.00,0.0076
3676.00,0.0076
3675.00,0.0076
3674.00,0.0076
3673.00,0.0076
3672.00,0.0076
3671.00,0.0076
3670.00,0.0077
3669.00,0.0077
3668.00,0.0077
3667.00,0.0078
3666.00,0.0078
3665.00,0.0079
3664.00,0.0079
3663.00,0.0079
3662.00,0.0079
3661.00,0.0079
3660.00,0.0079
3659.00,0.0079
3658.00,0.0079
3657.00,0.0079
3656.00,0.0079
3655.00,0.0079
3654.00,0.0079
3653.00,0.0079
3652.00,0.0079
3651.00,0.0079
3650.00,0.0079
3649.00,0.0080
3648.00,0.0080
3647.00,0.0080
3646.00,0.0080
3645.00,0.0081
3644.00,0.0081
3643.00,0.0081
3642.00,0.0082
3641.00,0.0082
3640.00,0.0082
3639.00,0.0082
3638.00,0.0083
3637.00,0.0083
3636.00,0.0083
3635.00,0.0083
3634.00,0.0083
3633.00,0.0083
3632.00,0.0083
3631.00,0.0083
3630.00,0.0083
3629.00,0.0083
3628.00,0.0083
3627.00,0.0083
3626.00,0.0084
3625.00,0.0084
3624.00,0.0085
3623.00,0.0085
3622.00,0.0086
3621.00,0.0086
3620.00,0.0086
3619.00,0.0086
3618.00,0.0086
3617.00,0.0086
3616.00,0.0087
3615.00,0.0087
3614.00,0.0088
3613.00,0.0088
3612.00,0.0088
3611.00,0.0089
3610.00,0.0089
3609.00,0.0089
3608.00,0.0089
3607.00,0.0090
3606.00,0.0090
3605.00,0.0091
3604.00,0.0091
3603.00,0.0091
3602.00,0.0091
3601.00,0.0092
3600.00,0.0092
3599.00,0.0092
3598.00,0.0092
3597.00,0.0093
3596.00,0.0093
3595.00,0.0093
3594.00,0.0094
3593.00,0.0094
3592.00,0.0094
3591.00,0.0094
3590.00,0.0095
3589.00,0.0095
3588.00,0.0095
3587.00,0.0096
3586.00,0.0096
3585.00,0.0096
3584.00,0.0097
3583.00,0.0097
3582.00,0.0098
3581.00,0.0098
3580.00,0.0098
3579.00,0.0099
3578.00,0.0099
3577.00,0.0099
3576.00,0.0100
3575.00,0.0100
3574.00,0.0100
3573.00,0.0101
3572.00,0.0101
3571.00,0.0101
3570.00,0.0102
3569.00,0.0102
3568.00,0.0103
3567.00,0.0103
3566.00,0.0103
3565.00,0.0104
3564.00,0.0104
3563.00,0.0105
3562.00,0.0105
3561.00,0.0106
3560.00,0.0106
3559.00,0.0107
3558.00,0.0107
3557.00,0.0107
3556.00,0.0108
3555.00,0.0108
3554.00,0.0108
3553.00,0.0109
3552.00,0.0109
3551.00,0.0109
3550.00,0.0110
3549.00,0.0110
3548.00,0.0111
3547.00,0.0112
3546.00,0.0112
3545.00,0.0113
3544.00,0.0113
3543.00,0.0113
3542.00,0.0114
3541.00,0.0114
3540.00,0.0114
3539.00,0.0114
3538.00,0.0115
3537.00,0.0115
3536.00,0.0116
3535.00,0.0116
3534.00,0.0117
3533.00,0.0117
3532.00,0.0117
3531.00,0.0118
3530.00,0.0118
3529.00,0.0119
3528.00,0.0119
3527.00,0.0119
3526.00,0.0120
3525.00,0.0120
3524.00,0.0121
3523.00,0.0121
3522.00,0.0121
3521.00,0.0122
3520.00,0.0122
3519.00,0.0123
3518.00,0.0123
3517.00,0.0123
3516.00,0.0124
3515.00,0.0124
3514.00,0.0125
3513.00,0.0125
3512.00,0.0125
3511.00,0.0126
3510.00,0.0126
3509.00,0.0126
3508.00,0.0127
3507.00,0.0127
3506.00,0.0128
3505.00,0.0128
3504.00,0.0129
3503.00,0.0129
3502.00,0.0130
3501.00,0.0130
3500.00,0.0130
3499.00,0.0131
3498.00,0.0131
3497.00,0.0132
3496.00,0.0132
3495.00,0.0132
3494.00,0.0133
3493.00,0.0133
3492.00,0.0134
3491.00,0.0134
3490.00,0.0135
3489.00,0.0135
3488.00,0.0136
3487.00,0.0136
3486.00,0.0137
3485.00,0.0137
3484.00,0.0137
3483.00,0.0138
3482.00,0.0138
3481.00,0.0139
3480.00,0.0139
3479.00,0.0140
3478.00,0.0140
3477.00,0.0140
3476.00,0.0141
3475.00,0.0141
3474.00,0.0142
3473.00,0.0142
3472.00,0.0143
3471.00,0.0143
3470.00,0.0144
3469.00,0.0144
3468.00,0.0145
3467.00,0.0145
3466.00,0.0145
3465.00,0.0145
3464.00,0.0146
3463.00,0.0146
3462.00,0.0147
3461.00,0.0147
3460.00,0.0148
3459.00,0.0148
3458.00,0.0149
3457.00,0.0149
3456.00,0.0149
3455.00,0.0150
3454.00,0.0150
3453.00,0.0150
3452.00,0.0151
3451.00,0.0151
3450.00,0.0152
3449.00,0.0152
3448.00,0.0153
3447.00,0.0153
3446.00,0.0153
3445.00,0.0154
3444.00,0.0154
3443.00,0.0154
3442.00,0.0155
3441.00,0.0156
3440.00,0.0156
3439.00,0.0157
3438.00,0.0157
3437.00,0.0158
3436.00,0.0158
3435.00,0.0158
3434.00,0.0159
3433.00,0.0159
3432.00,0.0160
3431.00,0.0160
3430.00,0.0161
3429.00,0.0161
3428.00,0.0161
3427.00,0.0162
3426.00,0.0162
3425.00,0.0162
3424.00,0.0163
3423.00,0.0164
3422.00,0.0164
3421.00,0.0165
3420.00,0.0165
3419.00,0.0166
3418.00,0.0166
3417.00,0.0166
3416.00,0.0167
3415.00,0.0167
3414.00,0.0168
3413.00,0.0168
3412.00,0.0169
3411.00,0.0169
3410.00,0.0169
3409.00,0.0170
3408.00,0.0170
3407.00,0.0170
3406.00,0.0171
3405.00,0.0171
3404.00,0.0172
3403.00,0.0173
3402.00,0.0173
3401.00,0.0173
3400.00,0.0174
3399.00,0.0174
3398.00,0.0174
3397.00,0.0175
3396.00,0.0175
3395.00,0.0176
3394.00,0.0176
3393.00,0.0176
3392.00,0.0177
3391.00,0.0177
3390.00,0.0178
3389.00,0.0178
3388.00,0.0179
3387.00,0.0179
3386.00,0.0180
3385.00,0.0180
3384.00,0.0180
3383.00,0.0181
3382.00,0.0181
3381.00,0.0182
3380.00,0.0182
3379.00,0.0182
3378.00,0.0183
3377.00,0.0184
3376.00,0.0184
3375.00,0.0185
3374.00,0.0185
3373.00,0.0185
3372.00,0.0186
3371.00,0.0187
3370.00,0.0187
3369.00,0.0188
3368.00,0.0188
3367.00,0.0189
3366.00,0.0189
3365.00,0.0190
3364.00,0.0191
3363.00,0.0191
3362.00,0.0192
3361.00,0.0193
3360.00,0.0193
3359.00,0.0194
3358.00,0.0195
3357.00,0.0195
3356.00,0.0196
3355.00,0.0197
3354.00,0.0197
3353.00,0.0198
3352.00,0.0199
3351.00,0.0199
3350.00,0.0200
3349.00,0.0201
3348.00,0.0202
3347.00,0.0203
3346.00,0.0203
3345.00,0.0204
3344.00,0.0205
3343.00,0.0205
3342.00,0.0206
3341.00,0.0207
3340.00,0.0208
3339.00,0.0209
3338.00,0.0210
3337.00,0.0211
3336.00,0.0212
3335.00,0.0213
3334.00,0.0214
3333.00,0.0215
3332.00,0.0216
3331.00,0.0217
3330.00,0.0218
3329.00,0.0219
3328.00,0.0220
3327.00,0.0221
3326.00,0.0222
3325.00,0.0223
3324.00,0.0224
3323.00,0.0225
3322.00,0.0226
3321.00,0.0228
3320.00,0.0229
3319.00,0.0230
3318.00,0.0232
3317.00,0.0233
3316.00,0.0234
3315.00,0.0236
3314.00,0.0237
3313.00,0.0238
3312.00,0.0239
3311.00,0.0241
3310.00,0.0242
3309.00,0.0243
3308.00,0.0244
3307.00,0.0246
3306.00,0.0247
3305.00,0.0249
3304.00,0.0251
3303.00,0.0253
3302.00,0.0254
3301.00,0.0256
3300.00,0.0257
3299.00,0.0259
3298.00,0.0260
3297.00,0.0261
3296.00,0.0263
3295.00,0.0264
3294.00,0.0266
3293.00,0.0267
3292.00,0.0269
3291.00,0.0270
3290.00,0.0272
3289.00,0.0273
3288.00,0.0274
3287.00,0.0276
3286.00,0.0277
3285.00,0.0278
3284.00,0.0279
3283.00,0.0280
3282.00,0.0281
3281.00,0.0282
3280.00,0.0282
3279.00,0.0283
3278.00,0.0284
3277.00,0.0284
3276.00,0.0284
3275.00,0.0284
3274.00,0.0284
3273.00,0.0284
3272.00,0.0284
3271.00,0.0284
3270.00,0.0284
3269.00,0.0283
3268.00,0.0283
3267.00,0.0283
3266.00,0.0282
3265.00,0.0281
3264.00,0.0281
3263.00,0.0280
3262.00,0.0279
3261.00,0.0278
3260.00,0.0277
3259.00,0.0275
3258.00,0.0274
3257.00,0.0272
3256.00,0.0271
3255.00,0.0270
3254.00,0.0269
3253.00,0.0268
3252.00,0.0267
3251.00,0.0266
3250.00,0.0264
3249.00,0.0263
3248.00,0.0262
3247.00,0.0261
3246.00,0.0260
3245.00,0.0259
3244.00,0.0258
3243.00,0.0257
3242.00,0.0256
3241.00,0.0254
3240.00,0.0253
3239.00,0.0252
3238.00,0.0251
3237.00,0.0250
3236.00,0.0249
3235.00,0.0248
3234.00,0.0246
3233.00,0.0246
3232.00,0.0245
3231.00,0.0245
3230.00,0.0244
3229.00,0.0243
3228.00,0.0243
3227.00,0.0242
3226.00,0.0241
3225.00,0.0240
3224.00,0.0239
3223.00,0.0239
3222.00,0.0238
3221.00,0.0237
3220.00,0.0236
3219.00,0.0236
3218.00,0.0235
3217.00,0.0234
3216.00,0.0234
3215.00,0.0233
3214.00,0.0232
3213.00,0.0232
3212.00,0.0231
3211.00,0.0231
3210.00,0.0230
3209.00,0.0229
3208.00,0.0229
3207.00,0.0228
3206.00,0.0227
3205.00,0.0227
3204.00,0.0226
3203.00,0.0225
3202.00,0.0225
3201.00,0.0224
3200.00,0.0224
3199.00,0.0223
3198.00,0.0223
3197.00,0.0222
3196.00,0.0221
3195.00,0.0220
3194.00,0.0220
3193.00,0.0219
3192.00,0.0218
3191.00,0.0218
3190.00,0.0217
3189.00,0.0216
3188.00,0.0216
3187.00,0.0215
3186.00,0.0214
3185.00,0.0214
3184.00,0.0213
3183.00,0.0212
3182.00,0.0212
3181.00,0.0211
3180.00,0.0210
3179.00,0.0209
3178.00,0.0209
3177.00,0.0208
3176.00,0.0208
3175.00,0.0207
3174.00,0.0206
3173.00,0.0205
3172.00,0.0205
3171.00,0.0204
3170.00,0.0203
3169.00,0.0202
3168.00,0.0202
3167.00,0.0201
3166.00,0.0200
3165.00,0.0200
3164.00,0.0199
3163.00,0.0198
3162.00,0.0198
3161.00,0.0197
3160.00,0.0196
3159.00,0.0196
3158.00,0.0195
3157.00,0.0194
3156.00,0.0194
3155.00,0.0193
3154.00,0.0192
3153.00,0.0192
3152.00,0.0191
3151.00,0.0190
3150.00,0.0190
3149.00,0.0189
3148.00,0.0189
3147.00,0.0188
3146.00,0.0188
3145.00,0.0187
3144.00,0.0187
3143.00,0.0186
3142.00,0.0186
3141.00,0.0185
3140.00,0.0184
3139.00,0.0183
3138.00,0.0183
3137.00,0.0183
3136.00,0.0182
3135.00,0.0182
3134.00,0.0181
3133.00,0.0181
3132.00,0.0181
3131.00,0.0180
3130.00,0.0180
3129.00,0.0179
3128.00,0.0179
3127.00,0.0179
3126.00,0.0178
3125.00,0.0178
3124.00,0.0178
3123.00,0.0177
3122.00,0.0177
3121.00,0.0176
3120.00,0.0176
3119.00,0.0176
3118.00,0.0175
3117.00,0.0175
3116.00,0.0175
3115.00,0.0175
3114.00,0.0175
3113.00,0.0175
3112.00,0.0175
3111.00,0.0175
3110.00,0.0175
3109.00,0.0175
3108.00,0.0175
3107.00,0.0175
3106.00,0.0175
3105.00,0.0175
3104.00,0.0175
3103.00,0.0175
3102.00,0.0175
3101.00,0.0175
3100.00,0.0175
3099.00,0.0175
3098.00,0.0175
3097.00,0.0175
3096.00,0.0176
3095.00,0.0176
3094.00,0.0176
3093.00,0.0175
3092.00,0.0175
3091.00,0.0176
3090.00,0.0176
3089.00,0.0176
3088.00,0.0176
3087.00,0.0176
3086.00,0.0176
3085.00,0.0176
3084.00,0.0176
3083.00,0.0176
3082.00,0.0176
3081.00,0.0176
3080.00,0.0176
3079.00,0.0176
3078.00,0.0177
3077.00,0.0177
3076.00,0.0177
3075.00,0.0178
3074.00,0.0178
3073.00,0.0178
3072.00,0.0177
3071.00,0.0177
3070.00,0.0177
3069.00,0.0177
3068.00,0.0177
3067.00,0.0176
3066.00,0.0176
3065.00,0.0177
3064.00,0.0177
3063.00,0.0176
3062.00,0.0176
3061.00,0.0176
3060.00,0.0176
3059.00,0.0175
3058.00,0.0175
3057.00,0.0175
3056.00,0.0174
3055.00,0.0174
3054.00,0.0173
3053.00,0.0173
3052.00,0.0172
3051.00,0.0172
3050.00,0.0171
3049.00,0.0171
3048.00,0.0171
3047.00,0.0170
3046.00,0.0170
3045.00,0.0169
3044.00,0.0168
3043.00,0.0168
3042.00,0.0167
3041.00,0.0167
3040.00,0.0167
3039.00,0.0167
3038.00,0.0166
3037.00,0.0166
3036.00,0.0165
3035.00,0.0164
3034.00,0.0164
3033.00,0.0163
3032.00,0.0163
3031.00,0.0163
3030.00,0.0163
3029.00,0.0162
3028.00,0.0162
3027.00,0.0161
3026.00,0.0161
3025.00,0.0160
3024.00,0.0160
3023.00,0.0159
3022.00,0.0159
3021.00,0.0158
3020.00,0.0157
3019.00,0.0157
3018.00,0.0156
3017.00,0.0156
3016.00,0.0155
3015.00,0.0155
3014.00,0.0154
3013.00,0.0154
3012.00,0.0154
3011.00,0.0154
3010.00,0.0154
3009.00,0.0154
3008.00,0.0153
3007.00,0.0153
3006.00,0.0153
3005.00,0.0153
3004.00,0.0153
3003.00,0.0153
3002.00,0.0153
3001.00,0.0152
3000.00,0.0152
2999.00,0.0152
2998.00,0.0152
2997.00,0.0152
2996.00,0.0152
2995.00,0.0152
2994.00,0.0153
2993.00,0.0153
2992.00,0.0153
2991.00,0.0154
2990.00,0.0154
2989.00,0.0155
2988.00,0.0155
2987.00,0.0156
2986.00,0.0156
2985.00,0.0157
2984.00,0.0157
2983.00,0.0158
2982.00,0.0159
2981.00,0.0159
2980.00,0.0160
2979.00,0.0161
2978.00,0.0161
2977.00,0.0162
2976.00,0.0163
2975.00,0.0163
2974.00,0.0164
2973.00,0.0164
2972.00,0.0165
2971.00,0.0165
2970.00,0.0166
2969.00,0.0166
2968.00,0.0166
2967.00,0.0167
2966.00,0.0167
2965.00,0.0166
2964.00,0.0166
2963.00,0.0166
2962.00,0.0166
2961.00,0.0166
2960.00,0.0165
2959.00,0.0165
2958.00,0.0165
2957.00,0.0164
2956.00,0.0164
2955.00,0.0164
2954.00,0.0164
2953.00,0.0164
2952.00,0.0164
2951.00,0.0164
2950.00,0.0164
2949.00,0.0164
2948.00,0.0164
2947.00,0.0164
2946.00,0.0164
2945.00,0.0165
2944.00,0.0165
2943.00,0.0166
2942.00,0.0166
2941.00,0.0166
2940.00,0.0166
2939.00,0.0166
2938.00,0.0166
2937.00,0.0166
2936.00,0.0166
2935.00,0.0166
2934.00,0.0165
2933.00,0.0164
2932.00,0.0163
2931.00,0.0162
2930.00,0.0160
2929.00,0.0158
2928.00,0.0156
2927.00,0.0154
2926.00,0.0151
2925.00,0.0147
2924.00,0.0143
2923.00,0.0139
2922.00,0.0134
2921.00,0.0129
2920.00,0.0124
2919.00,0.0118
2918.00,0.0114
2917.00,0.0111
2916.00,0.0110
2915.00,0.0113
2914.00,0.0117
2913.00,0.0123
2912.00,0.0129
2911.00,0.0134
2910.00,0.0138
2909.00,0.0141
2908.00,0.0143
2907.00,0.0144
2906.00,0.0145
2905.00,0.0145
2904.00,0.0146
2903.00,0.0146
2902.00,0.0146
2901.00,0.0146
2900.00,0.0146
2899.00,0.0146
2898.00,0.0146
2897.00,0.0146
2896.00,0.0146
2895.00,0.0146
2894.00,0.0146
2893.00,0.0147
2892.00,0.0147
2891.00,0.0147
2890.00,0.0147
2889.00,0.0148
2888.00,0.0148
2887.00,0.0148
2886.00,0.0149
2885.00,0.0149
2884.00,0.0150
2883.00,0.0151
2882.00,0.0151
2881.00,0.0152
2880.00,0.0152
2879.00,0.0153
2878.00,0.0153
2877.00,0.0154
2876.00,0.0154
2875.00,0.0154
2874.00,0.0154
2873.00,0.0154
2872.00,0.0153
2871.00,0.0153
2870.00,0.0153
2869.00,0.0152
2868.00,0.0151
2867.00,0.0151
2866.00,0.0150
2865.00,0.0149
2864.00,0.0148
2863.00,0.0147
2862.00,0.0146
2861.00,0.0144
2860.00,0.0143
2859.00,0.0142
2858.00,0.0141
2857.00,0.0139
2856.00,0.0136
2855.00,0.0133
2854.00,0.0130
2853.00,0.0125
2852.00,0.0119
2851.00,0.0114
2850.00,0.0110
2849.00,0.0108
2848.00,0.0109
2847.00,0.0113
2846.00,0.0118
2845.00,0.0124
2844.00,0.0128
2843.00,0.0131
2842.00,0.0133
2841.00,0.0135
2840.00,0.0136
2839.00,0.0136
2838.00,0.0137
2837.00,0.0137
2836.00,0.0137
2835.00,0.0137
2834.00,0.0137
2833.00,0.0137
2832.00,0.0137
2831.00,0.0137
2830.00,0.0137
2829.00,0.0137
2828.00,0.0136
2827.00,0.0136
2826.00,0.0136
2825.00,0.0136
2824.00,0.0136
2823.00,0.0136
2822.00,0.0136
2821.00,0.0135
2820.00,0.0135
2819.00,0.0135
2818.00,0.0135
2817.00,0.0135
2816.00,0.0135
2815.00,0.0135
2814.00,0.0134
2813.00,0.0134
2812.00,0.0134
2811.00,0.0134
2810.00,0.0134
2809.00,0.0134
2808.00,0.0134
2807.00,0.0134
2806.00,0.0133
2805.00,0.0133
2804.00,0.0133
2803.00,0.0133
2802.00,0.0133
2801.00,0.0133
2800.00,0.0133
2799.00,0.0132
2798.00,0.0132
2797.00,0.0132
2796.00,0.0132
2795.00,0.0132
2794.00,0.0132
2793.00,0.0132
2792.00,0.0132
2791.00,0.0132
2790.00,0.0131
2789.00,0.0131
2788.00,0.0131
2787.00,0.0131
2786.00,0.0131
2785.00,0.0131
2784.00,0.0130
2783.00,0.0130
2782.00,0.0130
2781.00,0.0130
2780.00,0.0130
2779.00,0.0130
2778.00,0.0130
2777.00,0.0130
2776.00,0.0129
2775.00,0.0129
2774.00,0.0129
2773.00,0.0129
2772.00,0.0129
2771.00,0.0129
2770.00,0.0128
2769.00,0.0128
2768.00,0.0128
2767.00,0.0128
2766.00,0.0128
2765.00,0.0128
2764.00,0.0128
2763.00,0.0127
2762.00,0.0127
2761.00,0.0127
2760.00,0.0127
2759.00,0.0127
2758.00,0.0127
2757.00,0.0127
