Created as New Dataset,Sample 333 By YargerLab Date Monday, August 19 2024
cm-1,A
4000.00,0.0088
3999.00,0.0088
3998.00,0.0088
3997.00,0.0088
3996.00,0.0088
3995.00,0.0088
3994.00,0.0088
3993.00,0.0088
3992.00,0.0088
3991.00,0.0088
3990.00,0.0088
3989.00,0.0088
3988.00,0.0088
3987.00,0.0088
3986.00,0.0088
3985.00,0.0088
3984.00,0.0088
3983.00,0.0088
3982.00,0.0088
3981.00,0.0088
3980.00,0.0088
3979.00,0.0088
3978.00,0.0088
3977.00,0.0088
3976.00,0.0088
3975.00,0.0088
3974.00,0.0088
3973.00,0.0088
3972.00,0.0088
3971.00,0.0087
3970.00,0.0087
3969.00,0.0087
3968.00,0.0088
3967.00,0.0088
3966.00,0.0088
3965.00,0.0088
3964.00,0.0088
3963.00,0.0088
3962.00,0.0088
3961.00,0.0088
3960.00,0.0088
3959.00,0.0088
3958.00,0.0088
3957.00,0.0088
3956.00,0.0088
3955.00,0.0088
3954.00,0.0088
3953.00,0.0087
3952.00,0.0087
3951.00,0.0087
3950.00,0.0087
3949.00,0.0087
3948.00,0.0087
3947.00,0.0087
3946.00,0.0087
3945.00,0.0087
3944.00,0.0087
3943.00,0.0087
3942.00,0.0087
3941.00,0.0087
3940.00,0.0087
3939.00,0.0087
3938.00,0.0087
3937.00,0.0087
3936.00,0.0087
3935.00,0.0087
3934.00,0.0087
3933.00,0.0087
3932.00,0.0087
3931.00,0.0087
3930.00,0.0086
3929.00,0.0086
3928.00,0.0086
3927.00,0.0086
3926.00,0.0086
3925.00,0.0086
3924.00,0.0087
3923.00,0.0086
3922.00,0.0086
3921.00,0.0086
3920.00,0.0086
3919.00,0.0086
3918.00,0.0086
3917.00,0.0086
3916.00,0.0086
3915.00,0.0086
3914.00,0.0086
3913.00,0.0086
3912.00,0.0086
3911.00,0.0086
3910.00,0.0086
3909.00,0.0086
3908.00,0.0086
3907.00,0.0086
3906.00,0.0085
3905.00,0.0085
3904.00,0.0085
3903.00,0.0085
3902.00,0.0084
3901.00,0.0084
3900.00,0.0084
3899.00,0.0084
3898.00,0.0085
3897.00,0.0085
3896.00,0.0085
3895.00,0.0085
3894.00,0.0085
3893.00,0.0085
3892.00,0.0085
3891.00,0.0085
3890.00,0.0085
3889.00,0.0085
3888.00,0.0085
3887.00,0.0084
3886.00,0.0085
3885.00,0.0085
3884.00,0.0085
3883.00,0.0084
3882.00,0.0084
3881.00,0.0084
3880.00,0.0085
3879.00,0.0085
3878.00,0.0085
3877.00,0.0085
3876.00,0.0085
3875.00,0.0085
3874.00,0.0085
3873.00,0.0084
3872.00,0.0084
3871.00,0.0083
3870.00,0.0084
3869.00,0.0084
3868.00,0.0084
3867.00,0.0083
3866.00,0.0083
3865.00,0.0083
3864.00,0.0083
3863.00,0.0083
3862.00,0.0084
3861.00,0.0084
3860.00,0.0084
3859.00,0.0084
3858.00,0.0084
3857.00,0.0084
3856.00,0.0083
3855.00,0.0083
3854.00,0.0083
3853.00,0.0083
3852.00,0.0082
3851.00,0.0082
3850.00,0.0082
3849.00,0.0083
3848.00,0.0083
3847.00,0.0084
3846.00,0.0084
3845.00,0.0084
3844.00,0.0084
3843.00,0.0084
3842.00,0.0084
3841.00,0.0083
3840.00,0.0083
3839.00,0.0083
3838.00,0.0083
3837.00,0.0083
3836.00,0.0082
3835.00,0.0082
3834.00,0.0082
3833.00,0.0083
3832.00,0.0083
3831.00,0.0083
3830.00,0.0084
3829.00,0.0084
3828.00,0.0084
3827.00,0.0084
3826.00,0.0084
3825.00,0.0084
3824.00,0.0083
3823.00,0.0083
3822.00,0.0083
3821.00,0.0083
3820.00,0.0083
3819.00,0.0082
3818.00,0.0082
3817.00,0.0082
3816.00,0.0082
3815.00,0.0083
3814.00,0.0083
3813.00,0.0083
3812.00,0.0083
3811.00,0.0083
3810.00,0.0083
3809.00,0.0083
3808.00,0.0083
3807.00,0.0083
3806.00,0.0083
3805.00,0.0082
3804.00,0.0082
3803.00,0.0082
3802.00,0.0082
3801.00,0.0082
3800.00,0.0082
3799.00,0.0082
3798.00,0.0081
3797.00,0.0082
3796.00,0.0082
3795.00,0.0083
3794.00,0.0083
3793.00,0.0083
3792.00,0.0083
3791.00,0.0083
3790.00,0.0083
3789.00,0.0083
3788.00,0.0083
3787.00,0.0083
3786.00,0.0083
3785.00,0.0083
3784.00,0.0083
3783.00,0.0082
3782.00,0.0082
3781.00,0.0082
3780.00,0.0082
3779.00,0.0083
3778.00,0.0083
3777.00,0.0083
3776.00,0.0083
3775.00,0.0083
3774.00,0.0083
3773.00,0.0083
3772.00,0.0082
3771.00,0.0082
3770.00,0.0082
3769.00,0.0082
3768.00,0.0082
3767.00,0.0081
3766.00,0.0081
3765.00,0.0082
3764.00,0.0082
3763.00,0.0082
3762.00,0.0082
3761.00,0.0082
3760.00,0.0082
3759.00,0.0082
3758.00,0.0082
3757.00,0.0081
3756.00,0.0081
3755.00,0.0081
3754.00,0.0081
3753.00,0.0080
3752.00,0.0080
3751.00,0.0080
3750.00,0.0080
3749.00,0.0079
3748.00,0.0079
3747.00,0.0078
3746.00,0.0078
3745.00,0.0079
3744.00,0.0080
3743.00,0.0080
3742.00,0.0080
3741.00,0.0079
3740.00,0.0079
3739.00,0.0079
3738.00,0.0079
3737.00,0.0079
3736.00,0.0079
3735.00,0.0078
3734.00,0.0078
3733.00,0.0078
3732.00,0.0078
3731.00,0.0079
3730.00,0.0079
3729.00,0.0079
3728.00,0.0079
3727.00,0.0079
3726.00,0.0079
3725.00,0.0079
3724.00,0.0079
3723.00,0.0079
3722.00,0.0079
3721.00,0.0079
3720.00,0.0079
3719.00,0.0079
3718.00,0.0080
3717.00,0.0080
3716.00,0.0080
3715.00,0.0079
3714.00,0.0079
3713.00,0.0079
3712.00,0.0078
3711.00,0.0078
3710.00,0.0078
3709.00,0.0078
3708.00,0.0078
3707.00,0.0078
3706.00,0.0078
3705.00,0.0079
3704.00,0.0079
3703.00,0.0079
3702.00,0.0079
3701.00,0.0079
3700.00,0.0079
3699.00,0.0079
3698.00,0.0079
3697.00,0.0079
3696.00,0.0080
3695.00,0.0080
3694.00,0.0079
3693.00,0.0079
3692.00,0.0079
3691.00,0.0078
3690.00,0.0078
3689.00,0.0078
3688.00,0.0078
3687.00,0.0079
3686.00,0.0079
3685.00,0.0079
3684.00,0.0079
3683.00,0.0079
3682.00,0.0080
3681.00,0.0080
3680.00,0.0080
3679.00,0.0080
3678.00,0.0079
3677.00,0.0079
3676.00,0.0080
3675.00,0.0080
3674.00,0.0080
3673.00,0.0079
3672.00,0.0079
3671.00,0.0079
3670.00,0.0079
3669.00,0.0080
3668.00,0.0080
3667.00,0.0081
3666.00,0.0081
3665.00,0.0082
3664.00,0.0083
3663.00,0.0083
3662.00,0.0084
3661.00,0.0084
3660.00,0.0084
3659.00,0.0084
3658.00,0.0084
3657.00,0.0084
3656.00,0.0085
3655.00,0.0085
3654.00,0.0084
3653.00,0.0084
3652.00,0.0084
3651.00,0.0084
3650.00,0.0084
3649.00,0.0084
3648.00,0.0084
3647.00,0.0084
3646.00,0.0085
3645.00,0.0086
3644.00,0.0087
3643.00,0.0088
3642.00,0.0089
3641.00,0.0090
3640.00,0.0090
3639.00,0.0091
3638.00,0.0091
3637.00,0.0091
3636.00,0.0092
3635.00,0.0092
3634.00,0.0092
3633.00,0.0093
3632.00,0.0093
3631.00,0.0092
3630.00,0.0092
3629.00,0.0093
3628.00,0.0093
3627.00,0.0093
3626.00,0.0094
3625.00,0.0095
3624.00,0.0096
3623.00,0.0097
3622.00,0.0098
3621.00,0.0098
3620.00,0.0098
3619.00,0.0098
3618.00,0.0098
3617.00,0.0098
3616.00,0.0099
3615.00,0.0100
3614.00,0.0100
3613.00,0.0101
3612.00,0.0102
3611.00,0.0102
3610.00,0.0103
3609.00,0.0103
3608.00,0.0104
3607.00,0.0104
3606.00,0.0105
3605.00,0.0106
3604.00,0.0107
3603.00,0.0108
3602.00,0.0108
3601.00,0.0109
3600.00,0.0109
3599.00,0.0110
3598.00,0.0110
3597.00,0.0111
3596.00,0.0111
3595.00,0.0112
3594.00,0.0112
3593.00,0.0113
3592.00,0.0113
3591.00,0.0114
3590.00,0.0114
3589.00,0.0115
3588.00,0.0115
3587.00,0.0115
3586.00,0.0116
3585.00,0.0117
3584.00,0.0118
3583.00,0.0119
3582.00,0.0120
3581.00,0.0121
3580.00,0.0121
3579.00,0.0122
3578.00,0.0122
3577.00,0.0123
3576.00,0.0124
3575.00,0.0124
3574.00,0.0125
3573.00,0.0126
3572.00,0.0127
3571.00,0.0127
3570.00,0.0128
3569.00,0.0128
3568.00,0.0128
3567.00,0.0128
3566.00,0.0129
3565.00,0.0129
3564.00,0.0130
3563.00,0.0131
3562.00,0.0132
3561.00,0.0134
3560.00,0.0134
3559.00,0.0135
3558.00,0.0136
3557.00,0.0137
3556.00,0.0137
3555.00,0.0138
3554.00,0.0139
3553.00,0.0139
3552.00,0.0140
3551.00,0.0141
3550.00,0.0141
3549.00,0.0142
3548.00,0.0143
3547.00,0.0144
3546.00,0.0144
3545.00,0.0145
3544.00,0.0145
3543.00,0.0146
3542.00,0.0147
3541.00,0.0148
3540.00,0.0149
3539.00,0.0149
3538.00,0.0150
3537.00,0.0151
3536.00,0.0152
3535.00,0.0152
3534.00,0.0153
3533.00,0.0154
3532.00,0.0154
3531.00,0.0155
3530.00,0.0156
3529.00,0.0156
3528.00,0.0157
3527.00,0.0157
3526.00,0.0158
3525.00,0.0159
3524.00,0.0159
3523.00,0.0160
3522.00,0.0161
3521.00,0.0162
3520.00,0.0162
3519.00,0.0163
3518.00,0.0164
3517.00,0.0165
3516.00,0.0166
3515.00,0.0166
3514.00,0.0167
3513.00,0.0168
3512.00,0.0168
3511.00,0.0169
3510.00,0.0169
3509.00,0.0170
3508.00,0.0170
3507.00,0.0171
3506.00,0.0172
3505.00,0.0173
3504.00,0.0174
3503.00,0.0175
3502.00,0.0175
3501.00,0.0176
3500.00,0.0176
3499.00,0.0177
3498.00,0.0178
3497.00,0.0179
3496.00,0.0179
3495.00,0.0180
3494.00,0.0181
3493.00,0.0182
3492.00,0.0182
3491.00,0.0183
3490.00,0.0184
3489.00,0.0185
3488.00,0.0185
3487.00,0.0186
3486.00,0.0187
3485.00,0.0187
3484.00,0.0188
3483.00,0.0189
3482.00,0.0190
3481.00,0.0190
3480.00,0.0191
3479.00,0.0192
3478.00,0.0192
3477.00,0.0193
3476.00,0.0194
3475.00,0.0195
3474.00,0.0196
3473.00,0.0196
3472.00,0.0197
3471.00,0.0198
3470.00,0.0199
3469.00,0.0200
3468.00,0.0200
3467.00,0.0201
3466.00,0.0201
3465.00,0.0202
3464.00,0.0202
3463.00,0.0203
3462.00,0.0204
3461.00,0.0204
3460.00,0.0205
3459.00,0.0206
3458.00,0.0207
3457.00,0.0207
3456.00,0.0208
3455.00,0.0209
3454.00,0.0209
3453.00,0.0210
3452.00,0.0211
3451.00,0.0211
3450.00,0.0212
3449.00,0.0213
3448.00,0.0213
3447.00,0.0214
3446.00,0.0214
3445.00,0.0215
3444.00,0.0216
3443.00,0.0216
3442.00,0.0217
3441.00,0.0218
3440.00,0.0219
3439.00,0.0220
3438.00,0.0221
3437.00,0.0222
3436.00,0.0223
3435.00,0.0223
3434.00,0.0224
3433.00,0.0224
3432.00,0.0225
3431.00,0.0226
3430.00,0.0226
3429.00,0.0227
3428.00,0.0227
3427.00,0.0228
3426.00,0.0229
3425.00,0.0229
3424.00,0.0230
3423.00,0.0231
3422.00,0.0232
3421.00,0.0232
3420.00,0.0233
3419.00,0.0234
3418.00,0.0234
3417.00,0.0235
3416.00,0.0236
3415.00,0.0237
3414.00,0.0237
3413.00,0.0238
3412.00,0.0239
3411.00,0.0240
3410.00,0.0240
3409.00,0.0241
3408.00,0.0241
3407.00,0.0242
3406.00,0.0242
3405.00,0.0243
3404.00,0.0244
3403.00,0.0245
3402.00,0.0246
3401.00,0.0246
3400.00,0.0247
3399.00,0.0247
3398.00,0.0248
3397.00,0.0248
3396.00,0.0249
3395.00,0.0250
3394.00,0.0250
3393.00,0.0251
3392.00,0.0252
3391.00,0.0252
3390.00,0.0253
3389.00,0.0253
3388.00,0.0254
3387.00,0.0255
3386.00,0.0255
3385.00,0.0256
3384.00,0.0257
3383.00,0.0257
3382.00,0.0258
3381.00,0.0259
3380.00,0.0259
3379.00,0.0260
3378.00,0.0261
3377.00,0.0262
3376.00,0.0262
3375.00,0.0263
3374.00,0.0264
3373.00,0.0265
3372.00,0.0265
3371.00,0.0266
3370.00,0.0267
3369.00,0.0268
3368.00,0.0269
3367.00,0.0270
3366.00,0.0271
3365.00,0.0271
3364.00,0.0272
3363.00,0.0273
3362.00,0.0274
3361.00,0.0275
3360.00,0.0275
3359.00,0.0276
3358.00,0.0277
3357.00,0.0278
3356.00,0.0279
3355.00,0.0280
3354.00,0.0281
3353.00,0.0282
3352.00,0.0283
3351.00,0.0284
3350.00,0.0285
3349.00,0.0286
3348.00,0.0287
3347.00,0.0288
3346.00,0.0289
3345.00,0.0290
3344.00,0.0291
3343.00,0.0292
3342.00,0.0293
3341.00,0.0294
3340.00,0.0295
3339.00,0.0296
3338.00,0.0297
3337.00,0.0298
3336.00,0.0299
3335.00,0.0300
3334.00,0.0302
3333.00,0.0303
3332.00,0.0304
3331.00,0.0306
3330.00,0.0307
3329.00,0.0308
3328.00,0.0309
3327.00,0.0310
3326.00,0.0312
3325.00,0.0313
3324.00,0.0314
3323.00,0.0316
3322.00,0.0317
3321.00,0.0319
3320.00,0.0320
3319.00,0.0322
3318.00,0.0323
3317.00,0.0325
3316.00,0.0326
3315.00,0.0328
3314.00,0.0329
3313.00,0.0331
3312.00,0.0332
3311.00,0.0334
3310.00,0.0335
3309.00,0.0337
3308.00,0.0338
3307.00,0.0340
3306.00,0.0341
3305.00,0.0343
3304.00,0.0345
3303.00,0.0347
3302.00,0.0349
3301.00,0.0350
3300.00,0.0352
3299.00,0.0354
3298.00,0.0355
3297.00,0.0356
3296.00,0.0358
3295.00,0.0359
3294.00,0.0361
3293.00,0.0362
3292.00,0.0364
3291.00,0.0365
3290.00,0.0367
3289.00,0.0368
3288.00,0.0369
3287.00,0.0371
3286.00,0.0372
3285.00,0.0373
3284.00,0.0374
3283.00,0.0375
3282.00,0.0376
3281.00,0.0376
3280.00,0.0377
3279.00,0.0378
3278.00,0.0378
3277.00,0.0378
3276.00,0.0379
3275.00,0.0379
3274.00,0.0378
3273.00,0.0378
3272.00,0.0377
3271.00,0.0377
3270.00,0.0377
3269.00,0.0377
3268.00,0.0376
3267.00,0.0376
3266.00,0.0375
3265.00,0.0374
3264.00,0.0373
3263.00,0.0372
3262.00,0.0371
3261.00,0.0370
3260.00,0.0368
3259.00,0.0367
3258.00,0.0365
3257.00,0.0364
3256.00,0.0363
3255.00,0.0362
3254.00,0.0360
3253.00,0.0359
3252.00,0.0358
3251.00,0.0356
3250.00,0.0355
3249.00,0.0353
3248.00,0.0352
3247.00,0.0351
3246.00,0.0350
3245.00,0.0349
3244.00,0.0347
3243.00,0.0346
3242.00,0.0345
3241.00,0.0344
3240.00,0.0342
3239.00,0.0341
3238.00,0.0340
3237.00,0.0339
3236.00,0.0338
3235.00,0.0337
3234.00,0.0336
3233.00,0.0335
3232.00,0.0334
3231.00,0.0333
3230.00,0.0332
3229.00,0.0331
3228.00,0.0330
3227.00,0.0329
3226.00,0.0328
3225.00,0.0328
3224.00,0.0327
3223.00,0.0326
3222.00,0.0325
3221.00,0.0324
3220.00,0.0324
3219.00,0.0323
3218.00,0.0322
3217.00,0.0321
3216.00,0.0321
3215.00,0.0320
3214.00,0.0319
3213.00,0.0318
3212.00,0.0318
3211.00,0.0317
3210.00,0.0316
3209.00,0.0315
3208.00,0.0314
3207.00,0.0314
3206.00,0.0313
3205.00,0.0312
3204.00,0.0312
3203.00,0.0311
3202.00,0.0311
3201.00,0.0310
3200.00,0.0309
3199.00,0.0308
3198.00,0.0307
3197.00,0.0307
3196.00,0.0306
3195.00,0.0305
3194.00,0.0304
3193.00,0.0303
3192.00,0.0302
3191.00,0.0301
3190.00,0.0301
3189.00,0.0300
3188.00,0.0299
3187.00,0.0298
3186.00,0.0297
3185.00,0.0296
3184.00,0.0295
3183.00,0.0294
3182.00,0.0293
3181.00,0.0292
3180.00,0.0291
3179.00,0.0291
3178.00,0.0290
3177.00,0.0289
3176.00,0.0288
3175.00,0.0287
3174.00,0.0286
3173.00,0.0285
3172.00,0.0284
3171.00,0.0283
3170.00,0.0282
3169.00,0.0281
3168.00,0.0280
3167.00,0.0279
3166.00,0.0278
3165.00,0.0277
3164.00,0.0276
3163.00,0.0275
3162.00,0.0274
3161.00,0.0273
3160.00,0.0272
3159.00,0.0271
3158.00,0.0270
3157.00,0.0270
3156.00,0.0269
3155.00,0.0268
3154.00,0.0267
3153.00,0.0266
3152.00,0.0265
3151.00,0.0264
3150.00,0.0263
3149.00,0.0262
3148.00,0.0262
3147.00,0.0261
3146.00,0.0260
3145.00,0.0259
3144.00,0.0259
3143.00,0.0258
3142.00,0.0257
3141.00,0.0256
3140.00,0.0255
3139.00,0.0254
3138.00,0.0254
3137.00,0.0253
3136.00,0.0252
3135.00,0.0252
3134.00,0.0251
3133.00,0.0250
3132.00,0.0249
3131.00,0.0249
3130.00,0.0248
3129.00,0.0248
3128.00,0.0247
3127.00,0.0247
3126.00,0.0246
3125.00,0.0246
3124.00,0.0245
3123.00,0.0245
3122.00,0.0244
3121.00,0.0243
3120.00,0.0243
3119.00,0.0243
3118.00,0.0242
3117.00,0.0242
3116.00,0.0241
3115.00,0.0241
3114.00,0.0241
3113.00,0.0241
3112.00,0.0241
3111.00,0.0240
3110.00,0.0240
3109.00,0.0240
3108.00,0.0240
3107.00,0.0240
3106.00,0.0240
3105.00,0.0240
3104.00,0.0240
3103.00,0.0240
3102.00,0.0240
3101.00,0.0240
3100.00,0.0240
3099.00,0.0240
3098.00,0.0240
3097.00,0.0240
3096.00,0.0240
3095.00,0.0240
3094.00,0.0240
3093.00,0.0240
3092.00,0.0240
3091.00,0.0240
3090.00,0.0241
3089.00,0.0241
3088.00,0.0241
3087.00,0.0241
3086.00,0.0241
3085.00,0.0241
3084.00,0.0241
3083.00,0.0241
3082.00,0.0241
3081.00,0.0241
3080.00,0.0241
3079.00,0.0241
3078.00,0.0241
3077.00,0.0241
3076.00,0.0241
3075.00,0.0241
3074.00,0.0241
3073.00,0.0241
3072.00,0.0241
3071.00,0.0241
3070.00,0.0241
3069.00,0.0241
3068.00,0.0241
3067.00,0.0241
3066.00,0.0240
3065.00,0.0240
3064.00,0.0240
3063.00,0.0240
3062.00,0.0239
3061.00,0.0239
3060.00,0.0239
3059.00,0.0238
3058.00,0.0238
3057.00,0.0237
3056.00,0.0237
3055.00,0.0236
3054.00,0.0235
3053.00,0.0235
3052.00,0.0234
3051.00,0.0233
3050.00,0.0233
3049.00,0.0232
3048.00,0.0232
3047.00,0.0231
3046.00,0.0230
3045.00,0.0229
3044.00,0.0228
3043.00,0.0228
3042.00,0.0227
3041.00,0.0227
3040.00,0.0226
3039.00,0.0226
3038.00,0.0225
3037.00,0.0224
3036.00,0.0223
3035.00,0.0223
3034.00,0.0222
3033.00,0.0221
3032.00,0.0221
3031.00,0.0221
3030.00,0.0220
3029.00,0.0220
3028.00,0.0219
3027.00,0.0218
3026.00,0.0217
3025.00,0.0217
3024.00,0.0216
3023.00,0.0215
3022.00,0.0214
3021.00,0.0214
3020.00,0.0213
3019.00,0.0212
3018.00,0.0211
3017.00,0.0211
3016.00,0.0210
3015.00,0.0210
3014.00,0.0209
3013.00,0.0209
3012.00,0.0208
3011.00,0.0208
3010.00,0.0208
3009.00,0.0207
3008.00,0.0207
3007.00,0.0207
3006.00,0.0207
3005.00,0.0206
3004.00,0.0206
3003.00,0.0206
3002.00,0.0206
3001.00,0.0206
3000.00,0.0206
2999.00,0.0205
2998.00,0.0205
2997.00,0.0206
2996.00,0.0206
2995.00,0.0206
2994.00,0.0206
2993.00,0.0206
2992.00,0.0206
2991.00,0.0207
2990.00,0.0208
2989.00,0.0208
2988.00,0.0209
2987.00,0.0210
2986.00,0.0211
2985.00,0.0212
2984.00,0.0213
2983.00,0.0214
2982.00,0.0215
2981.00,0.0216
2980.00,0.0217
2979.00,0.0218
2978.00,0.0220
2977.00,0.0221
2976.00,0.0222
2975.00,0.0223
2974.00,0.0225
2973.00,0.0226
2972.00,0.0227
2971.00,0.0228
2970.00,0.0230
2969.00,0.0231
2968.00,0.0232
2967.00,0.0233
2966.00,0.0233
2965.00,0.0234
2964.00,0.0235
2963.00,0.0235
2962.00,0.0236
2961.00,0.0236
2960.00,0.0236
2959.00,0.0236
2958.00,0.0236
2957.00,0.0236
2956.00,0.0236
2955.00,0.0235
2954.00,0.0235
2953.00,0.0235
2952.00,0.0235
2951.00,0.0235
2950.00,0.0235
2949.00,0.0236
2948.00,0.0236
2947.00,0.0236
2946.00,0.0237
2945.00,0.0238
2944.00,0.0239
2943.00,0.0240
2942.00,0.0241
2941.00,0.0243
2940.00,0.0244
2939.00,0.0245
2938.00,0.0246
2937.00,0.0248
2936.00,0.0249
2935.00,0.0250
2934.00,0.0251
2933.00,0.0251
2932.00,0.0252
2931.00,0.0252
2930.00,0.0251
2929.00,0.0251
2928.00,0.0249
2927.00,0.0247
2926.00,0.0245
2925.00,0.0242
2924.00,0.0238
2923.00,0.0234
2922.00,0.0229
2921.00,0.0223
2920.00,0.0217
2919.00,0.0211
2918.00,0.0205
2917.00,0.0201
2916.00,0.0199
2915.00,0.0200
2914.00,0.0202
2913.00,0.0206
2912.00,0.0210
2911.00,0.0214
2910.00,0.0216
2909.00,0.0218
2908.00,0.0218
2907.00,0.0218
2906.00,0.0218
2905.00,0.0218
2904.00,0.0217
2903.00,0.0217
2902.00,0.0216
2901.00,0.0215
2900.00,0.0215
2899.00,0.0214
2898.00,0.0214
2897.00,0.0213
2896.00,0.0213
2895.00,0.0212
2894.00,0.0212
2893.00,0.0211
2892.00,0.0211
2891.00,0.0211
2890.00,0.0210
2889.00,0.0210
2888.00,0.0210
2887.00,0.0210
2886.00,0.0210
2885.00,0.0211
2884.00,0.0211
2883.00,0.0211
2882.00,0.0212
2881.00,0.0213
2880.00,0.0213
2879.00,0.0214
2878.00,0.0214
2877.00,0.0215
2876.00,0.0215
2875.00,0.0215
2874.00,0.0215
2873.00,0.0215
2872.00,0.0215
2871.00,0.0215
2870.00,0.0214
2869.00,0.0213
2868.00,0.0213
2867.00,0.0212
2866.00,0.0211
2865.00,0.0210
2864.00,0.0209
2863.00,0.0209
2862.00,0.0208
2861.00,0.0208
2860.00,0.0207
2859.00,0.0207
2858.00,0.0206
2857.00,0.0205
2856.00,0.0204
2855.00,0.0201
2854.00,0.0198
2853.00,0.0193
2852.00,0.0187
2851.00,0.0181
2850.00,0.0176
2849.00,0.0173
2848.00,0.0173
2847.00,0.0175
2846.00,0.0178
2845.00,0.0182
2844.00,0.0184
2843.00,0.0186
2842.00,0.0187
2841.00,0.0187
2840.00,0.0187
2839.00,0.0186
2838.00,0.0186
2837.00,0.0185
2836.00,0.0185
2835.00,0.0184
2834.00,0.0184
2833.00,0.0183
2832.00,0.0183
2831.00,0.0182
2830.00,0.0182
2829.00,0.0182
2828.00,0.0181
2827.00,0.0181
2826.00,0.0180
2825.00,0.0180
2824.00,0.0179
2823.00,0.0179
2822.00,0.0179
2821.00,0.0178
2820.00,0.0178
2819.00,0.0178
2818.00,0.0177
2817.00,0.0177
2816.00,0.0177
2815.00,0.0176
2814.00,0.0176
2813.00,0.0176
2812.00,0.0176
2811.00,0.0175
2810.00,0.0175
2809.00,0.0175
2808.00,0.0174
2807.00,0.0174
2806.00,0.0174
2805.00,0.0174
2804.00,0.0173
2803.00,0.0173
2802.00,0.0173
2801.00,0.0172
2800.00,0.0172
2799.00,0.0172
2798.00,0.0171
2797.00,0.0171
2796.00,0.0171
2795.00,0.0171
2794.00,0.0170
2793.00,0.0170
2792.00,0.0170
2791.00,0.0169
2790.00,0.0169
2789.00,0.0169
2788.00,0.0169
2787.00,0.0168
2786.00,0.0168
2785.00,0.0168
2784.00,0.0167
2783.00,0.0167
2782.00,0.0167
2781.00,0.0167
2780.00,0.0167
2779.00,0.0166
2778.00,0.0166
2777.00,0.0166
2776.00,0.0165
2775.00,0.0165
2774.00,0.0165
2773.00,0.0165
2772.00,0.0164
2771.00,0.0164
2770.00,0.0164
2769.00,0.0164
2768.00,0.0163
2767.00,0.0163
2766.00,0.0163
2765.00,0.0163
2764.00,0.0162
2763.00,0.0162
2762.00,0.0162
2761.00,0.0162
2760.00,0.0161
2759.00,0.0161
2758.00,0.0161
2757.00,0.0161
