Created as New Dataset,Sample 338 By YargerLab Date Monday, August 19 2024
cm-1,A
4000.00,0.0110
3999.00,0.0110
3998.00,0.0110
3997.00,0.0110
3996.00,0.0110
3995.00,0.0110
3994.00,0.0110
3993.00,0.0110
3992.00,0.0110
3991.00,0.0110
3990.00,0.0110
3989.00,0.0109
3988.00,0.0109
3987.00,0.0109
3986.00,0.0109
3985.00,0.0109
3984.00,0.0109
3983.00,0.0109
3982.00,0.0109
3981.00,0.0109
3980.00,0.0110
3979.00,0.0110
3978.00,0.0110
3977.00,0.0110
3976.00,0.0110
3975.00,0.0110
3974.00,0.0110
3973.00,0.0110
3972.00,0.0110
3971.00,0.0109
3970.00,0.0109
3969.00,0.0109
3968.00,0.0109
3967.00,0.0110
3966.00,0.0110
3965.00,0.0110
3964.00,0.0110
3963.00,0.0110
3962.00,0.0110
3961.00,0.0110
3960.00,0.0110
3959.00,0.0110
3958.00,0.0110
3957.00,0.0110
3956.00,0.0110
3955.00,0.0110
3954.00,0.0110
3953.00,0.0110
3952.00,0.0110
3951.00,0.0110
3950.00,0.0110
3949.00,0.0110
3948.00,0.0110
3947.00,0.0110
3946.00,0.0110
3945.00,0.0110
3944.00,0.0110
3943.00,0.0109
3942.00,0.0109
3941.00,0.0109
3940.00,0.0109
3939.00,0.0109
3938.00,0.0109
3937.00,0.0109
3936.00,0.0109
3935.00,0.0109
3934.00,0.0110
3933.00,0.0110
3932.00,0.0110
3931.00,0.0109
3930.00,0.0109
3929.00,0.0109
3928.00,0.0109
3927.00,0.0109
3926.00,0.0109
3925.00,0.0109
3924.00,0.0109
3923.00,0.0109
3922.00,0.0109
3921.00,0.0109
3920.00,0.0109
3919.00,0.0109
3918.00,0.0109
3917.00,0.0109
3916.00,0.0109
3915.00,0.0109
3914.00,0.0109
3913.00,0.0109
3912.00,0.0109
3911.00,0.0109
3910.00,0.0109
3909.00,0.0109
3908.00,0.0109
3907.00,0.0109
3906.00,0.0109
3905.00,0.0109
3904.00,0.0109
3903.00,0.0110
3902.00,0.0110
3901.00,0.0109
3900.00,0.0109
3899.00,0.0109
3898.00,0.0108
3897.00,0.0108
3896.00,0.0108
3895.00,0.0109
3894.00,0.0109
3893.00,0.0108
3892.00,0.0108
3891.00,0.0108
3890.00,0.0108
3889.00,0.0109
3888.00,0.0109
3887.00,0.0109
3886.00,0.0109
3885.00,0.0109
3884.00,0.0109
3883.00,0.0109
3882.00,0.0108
3881.00,0.0108
3880.00,0.0108
3879.00,0.0108
3878.00,0.0108
3877.00,0.0108
3876.00,0.0109
3875.00,0.0108
3874.00,0.0108
3873.00,0.0108
3872.00,0.0108
3871.00,0.0108
3870.00,0.0108
3869.00,0.0108
3868.00,0.0108
3867.00,0.0108
3866.00,0.0108
3865.00,0.0108
3864.00,0.0108
3863.00,0.0108
3862.00,0.0108
3861.00,0.0108
3860.00,0.0108
3859.00,0.0108
3858.00,0.0108
3857.00,0.0108
3856.00,0.0108
3855.00,0.0108
3854.00,0.0108
3853.00,0.0107
3852.00,0.0107
3851.00,0.0107
3850.00,0.0107
3849.00,0.0107
3848.00,0.0107
3847.00,0.0108
3846.00,0.0108
3845.00,0.0108
3844.00,0.0108
3843.00,0.0108
3842.00,0.0108
3841.00,0.0108
3840.00,0.0108
3839.00,0.0108
3838.00,0.0108
3837.00,0.0108
3836.00,0.0107
3835.00,0.0107
3834.00,0.0107
3833.00,0.0107
3832.00,0.0107
3831.00,0.0107
3830.00,0.0107
3829.00,0.0107
3828.00,0.0107
3827.00,0.0107
3826.00,0.0107
3825.00,0.0107
3824.00,0.0107
3823.00,0.0108
3822.00,0.0107
3821.00,0.0107
3820.00,0.0107
3819.00,0.0107
3818.00,0.0107
3817.00,0.0107
3816.00,0.0106
3815.00,0.0106
3814.00,0.0106
3813.00,0.0106
3812.00,0.0106
3811.00,0.0106
3810.00,0.0106
3809.00,0.0107
3808.00,0.0107
3807.00,0.0106
3806.00,0.0107
3805.00,0.0107
3804.00,0.0107
3803.00,0.0107
3802.00,0.0107
3801.00,0.0106
3800.00,0.0106
3799.00,0.0106
3798.00,0.0106
3797.00,0.0106
3796.00,0.0106
3795.00,0.0106
3794.00,0.0106
3793.00,0.0106
3792.00,0.0106
3791.00,0.0106
3790.00,0.0106
3789.00,0.0106
3788.00,0.0106
3787.00,0.0106
3786.00,0.0106
3785.00,0.0105
3784.00,0.0105
3783.00,0.0105
3782.00,0.0105
3781.00,0.0105
3780.00,0.0105
3779.00,0.0105
3778.00,0.0105
3777.00,0.0105
3776.00,0.0105
3775.00,0.0105
3774.00,0.0105
3773.00,0.0105
3772.00,0.0105
3771.00,0.0106
3770.00,0.0106
3769.00,0.0106
3768.00,0.0106
3767.00,0.0106
3766.00,0.0105
3765.00,0.0106
3764.00,0.0106
3763.00,0.0106
3762.00,0.0106
3761.00,0.0106
3760.00,0.0106
3759.00,0.0106
3758.00,0.0105
3757.00,0.0105
3756.00,0.0106
3755.00,0.0106
3754.00,0.0106
3753.00,0.0106
3752.00,0.0107
3751.00,0.0107
3750.00,0.0107
3749.00,0.0107
3748.00,0.0107
3747.00,0.0106
3746.00,0.0106
3745.00,0.0105
3744.00,0.0105
3743.00,0.0106
3742.00,0.0106
3741.00,0.0106
3740.00,0.0106
3739.00,0.0106
3738.00,0.0106
3737.00,0.0106
3736.00,0.0106
3735.00,0.0105
3734.00,0.0105
3733.00,0.0104
3732.00,0.0104
3731.00,0.0104
3730.00,0.0104
3729.00,0.0104
3728.00,0.0104
3727.00,0.0104
3726.00,0.0104
3725.00,0.0104
3724.00,0.0104
3723.00,0.0104
3722.00,0.0104
3721.00,0.0103
3720.00,0.0103
3719.00,0.0103
3718.00,0.0103
3717.00,0.0103
3716.00,0.0103
3715.00,0.0104
3714.00,0.0104
3713.00,0.0103
3712.00,0.0103
3711.00,0.0103
3710.00,0.0102
3709.00,0.0102
3708.00,0.0102
3707.00,0.0103
3706.00,0.0103
3705.00,0.0103
3704.00,0.0103
3703.00,0.0103
3702.00,0.0102
3701.00,0.0102
3700.00,0.0102
3699.00,0.0102
3698.00,0.0102
3697.00,0.0103
3696.00,0.0103
3695.00,0.0103
3694.00,0.0103
3693.00,0.0103
3692.00,0.0103
3691.00,0.0103
3690.00,0.0103
3689.00,0.0103
3688.00,0.0104
3687.00,0.0104
3686.00,0.0104
3685.00,0.0104
3684.00,0.0104
3683.00,0.0104
3682.00,0.0104
3681.00,0.0104
3680.00,0.0105
3679.00,0.0105
3678.00,0.0105
3677.00,0.0106
3676.00,0.0106
3675.00,0.0106
3674.00,0.0107
3673.00,0.0107
3672.00,0.0107
3671.00,0.0107
3670.00,0.0107
3669.00,0.0107
3668.00,0.0107
3667.00,0.0107
3666.00,0.0107
3665.00,0.0108
3664.00,0.0108
3663.00,0.0108
3662.00,0.0109
3661.00,0.0109
3660.00,0.0110
3659.00,0.0110
3658.00,0.0110
3657.00,0.0111
3656.00,0.0111
3655.00,0.0112
3654.00,0.0112
3653.00,0.0113
3652.00,0.0113
3651.00,0.0114
3650.00,0.0115
3649.00,0.0116
3648.00,0.0116
3647.00,0.0117
3646.00,0.0117
3645.00,0.0117
3644.00,0.0117
3643.00,0.0118
3642.00,0.0118
3641.00,0.0118
3640.00,0.0119
3639.00,0.0119
3638.00,0.0120
3637.00,0.0121
3636.00,0.0121
3635.00,0.0122
3634.00,0.0123
3633.00,0.0123
3632.00,0.0124
3631.00,0.0125
3630.00,0.0125
3629.00,0.0126
3628.00,0.0127
3627.00,0.0128
3626.00,0.0129
3625.00,0.0129
3624.00,0.0130
3623.00,0.0130
3622.00,0.0131
3621.00,0.0131
3620.00,0.0132
3619.00,0.0133
3618.00,0.0134
3617.00,0.0135
3616.00,0.0136
3615.00,0.0137
3614.00,0.0137
3613.00,0.0138
3612.00,0.0139
3611.00,0.0140
3610.00,0.0140
3609.00,0.0141
3608.00,0.0142
3607.00,0.0142
3606.00,0.0143
3605.00,0.0143
3604.00,0.0144
3603.00,0.0145
3602.00,0.0145
3601.00,0.0146
3600.00,0.0147
3599.00,0.0148
3598.00,0.0148
3597.00,0.0149
3596.00,0.0150
3595.00,0.0151
3594.00,0.0151
3593.00,0.0152
3592.00,0.0153
3591.00,0.0153
3590.00,0.0154
3589.00,0.0155
3588.00,0.0156
3587.00,0.0157
3586.00,0.0158
3585.00,0.0159
3584.00,0.0160
3583.00,0.0160
3582.00,0.0161
3581.00,0.0162
3580.00,0.0162
3579.00,0.0163
3578.00,0.0164
3577.00,0.0165
3576.00,0.0166
3575.00,0.0166
3574.00,0.0167
3573.00,0.0168
3572.00,0.0169
3571.00,0.0169
3570.00,0.0170
3569.00,0.0171
3568.00,0.0173
3567.00,0.0174
3566.00,0.0175
3565.00,0.0176
3564.00,0.0177
3563.00,0.0178
3562.00,0.0178
3561.00,0.0179
3560.00,0.0180
3559.00,0.0180
3558.00,0.0181
3557.00,0.0182
3556.00,0.0183
3555.00,0.0183
3554.00,0.0184
3553.00,0.0185
3552.00,0.0186
3551.00,0.0187
3550.00,0.0188
3549.00,0.0189
3548.00,0.0190
3547.00,0.0191
3546.00,0.0193
3545.00,0.0194
3544.00,0.0194
3543.00,0.0195
3542.00,0.0196
3541.00,0.0196
3540.00,0.0197
3539.00,0.0198
3538.00,0.0198
3537.00,0.0199
3536.00,0.0200
3535.00,0.0201
3534.00,0.0202
3533.00,0.0203
3532.00,0.0204
3531.00,0.0205
3530.00,0.0205
3529.00,0.0207
3528.00,0.0208
3527.00,0.0209
3526.00,0.0210
3525.00,0.0211
3524.00,0.0212
3523.00,0.0212
3522.00,0.0213
3521.00,0.0214
3520.00,0.0215
3519.00,0.0215
3518.00,0.0216
3517.00,0.0217
3516.00,0.0218
3515.00,0.0218
3514.00,0.0219
3513.00,0.0220
3512.00,0.0221
3511.00,0.0222
3510.00,0.0223
3509.00,0.0224
3508.00,0.0225
3507.00,0.0225
3506.00,0.0226
3505.00,0.0227
3504.00,0.0229
3503.00,0.0230
3502.00,0.0231
3501.00,0.0232
3500.00,0.0233
3499.00,0.0233
3498.00,0.0234
3497.00,0.0235
3496.00,0.0236
3495.00,0.0237
3494.00,0.0238
3493.00,0.0239
3492.00,0.0240
3491.00,0.0241
3490.00,0.0242
3489.00,0.0243
3488.00,0.0245
3487.00,0.0246
3486.00,0.0247
3485.00,0.0248
3484.00,0.0249
3483.00,0.0250
3482.00,0.0251
3481.00,0.0253
3480.00,0.0254
3479.00,0.0255
3478.00,0.0256
3477.00,0.0257
3476.00,0.0258
3475.00,0.0259
3474.00,0.0260
3473.00,0.0262
3472.00,0.0263
3471.00,0.0264
3470.00,0.0265
3469.00,0.0267
3468.00,0.0268
3467.00,0.0269
3466.00,0.0270
3465.00,0.0271
3464.00,0.0272
3463.00,0.0274
3462.00,0.0275
3461.00,0.0276
3460.00,0.0277
3459.00,0.0279
3458.00,0.0280
3457.00,0.0281
3456.00,0.0282
3455.00,0.0283
3454.00,0.0284
3453.00,0.0285
3452.00,0.0286
3451.00,0.0288
3450.00,0.0289
3449.00,0.0290
3448.00,0.0291
3447.00,0.0292
3446.00,0.0294
3445.00,0.0295
3444.00,0.0296
3443.00,0.0297
3442.00,0.0299
3441.00,0.0300
3440.00,0.0301
3439.00,0.0302
3438.00,0.0303
3437.00,0.0304
3436.00,0.0305
3435.00,0.0306
3434.00,0.0307
3433.00,0.0308
3432.00,0.0309
3431.00,0.0310
3430.00,0.0311
3429.00,0.0312
3428.00,0.0313
3427.00,0.0314
3426.00,0.0315
3425.00,0.0316
3424.00,0.0317
3423.00,0.0318
3422.00,0.0319
3421.00,0.0320
3420.00,0.0321
3419.00,0.0322
3418.00,0.0323
3417.00,0.0324
3416.00,0.0324
3415.00,0.0325
3414.00,0.0326
3413.00,0.0327
3412.00,0.0328
3411.00,0.0329
3410.00,0.0330
3409.00,0.0330
3408.00,0.0331
3407.00,0.0332
3406.00,0.0333
3405.00,0.0334
3404.00,0.0334
3403.00,0.0335
3402.00,0.0336
3401.00,0.0337
3400.00,0.0338
3399.00,0.0339
3398.00,0.0339
3397.00,0.0340
3396.00,0.0341
3395.00,0.0342
3394.00,0.0343
3393.00,0.0343
3392.00,0.0344
3391.00,0.0345
3390.00,0.0346
3389.00,0.0347
3388.00,0.0348
3387.00,0.0349
3386.00,0.0350
3385.00,0.0351
3384.00,0.0352
3383.00,0.0353
3382.00,0.0353
3381.00,0.0354
3380.00,0.0355
3379.00,0.0356
3378.00,0.0357
3377.00,0.0358
3376.00,0.0359
3375.00,0.0360
3374.00,0.0361
3373.00,0.0362
3372.00,0.0363
3371.00,0.0364
3370.00,0.0366
3369.00,0.0367
3368.00,0.0368
3367.00,0.0370
3366.00,0.0371
3365.00,0.0373
3364.00,0.0374
3363.00,0.0375
3362.00,0.0376
3361.00,0.0378
3360.00,0.0379
3359.00,0.0380
3358.00,0.0382
3357.00,0.0383
3356.00,0.0384
3355.00,0.0385
3354.00,0.0387
3353.00,0.0388
3352.00,0.0389
3351.00,0.0390
3350.00,0.0392
3349.00,0.0393
3348.00,0.0395
3347.00,0.0397
3346.00,0.0398
3345.00,0.0399
3344.00,0.0401
3343.00,0.0402
3342.00,0.0403
3341.00,0.0405
3340.00,0.0406
3339.00,0.0408
3338.00,0.0410
3337.00,0.0412
3336.00,0.0414
3335.00,0.0416
3334.00,0.0417
3333.00,0.0419
3332.00,0.0421
3331.00,0.0423
3330.00,0.0425
3329.00,0.0426
3328.00,0.0428
3327.00,0.0430
3326.00,0.0432
3325.00,0.0435
3324.00,0.0437
3323.00,0.0439
3322.00,0.0442
3321.00,0.0444
3320.00,0.0446
3319.00,0.0449
3318.00,0.0451
3317.00,0.0454
3316.00,0.0456
3315.00,0.0459
3314.00,0.0461
3313.00,0.0463
3312.00,0.0466
3311.00,0.0468
3310.00,0.0470
3309.00,0.0473
3308.00,0.0475
3307.00,0.0478
3306.00,0.0481
3305.00,0.0484
3304.00,0.0488
3303.00,0.0491
3302.00,0.0494
3301.00,0.0497
3300.00,0.0500
3299.00,0.0503
3298.00,0.0506
3297.00,0.0508
3296.00,0.0511
3295.00,0.0514
3294.00,0.0516
3293.00,0.0519
3292.00,0.0523
3291.00,0.0526
3290.00,0.0529
3289.00,0.0532
3288.00,0.0535
3287.00,0.0537
3286.00,0.0539
3285.00,0.0542
3284.00,0.0544
3283.00,0.0546
3282.00,0.0547
3281.00,0.0549
3280.00,0.0550
3279.00,0.0552
3278.00,0.0552
3277.00,0.0553
3276.00,0.0553
3275.00,0.0554
3274.00,0.0554
3273.00,0.0553
3272.00,0.0553
3271.00,0.0552
3270.00,0.0551
3269.00,0.0551
3268.00,0.0550
3267.00,0.0549
3266.00,0.0547
3265.00,0.0546
3264.00,0.0544
3263.00,0.0542
3262.00,0.0540
3261.00,0.0537
3260.00,0.0535
3259.00,0.0532
3258.00,0.0530
3257.00,0.0527
3256.00,0.0525
3255.00,0.0523
3254.00,0.0521
3253.00,0.0519
3252.00,0.0517
3251.00,0.0514
3250.00,0.0511
3249.00,0.0509
3248.00,0.0507
3247.00,0.0505
3246.00,0.0503
3245.00,0.0501
3244.00,0.0500
3243.00,0.0498
3242.00,0.0496
3241.00,0.0495
3240.00,0.0493
3239.00,0.0491
3238.00,0.0489
3237.00,0.0487
3236.00,0.0485
3235.00,0.0483
3234.00,0.0482
3233.00,0.0481
3232.00,0.0480
3231.00,0.0479
3230.00,0.0479
3229.00,0.0478
3228.00,0.0477
3227.00,0.0476
3226.00,0.0475
3225.00,0.0474
3224.00,0.0473
3223.00,0.0472
3222.00,0.0471
3221.00,0.0470
3220.00,0.0469
3219.00,0.0469
3218.00,0.0468
3217.00,0.0467
3216.00,0.0467
3215.00,0.0466
3214.00,0.0465
3213.00,0.0464
3212.00,0.0464
3211.00,0.0463
3210.00,0.0463
3209.00,0.0462
3208.00,0.0461
3207.00,0.0461
3206.00,0.0460
3205.00,0.0459
3204.00,0.0459
3203.00,0.0458
3202.00,0.0458
3201.00,0.0457
3200.00,0.0457
3199.00,0.0456
3198.00,0.0456
3197.00,0.0455
3196.00,0.0454
3195.00,0.0453
3194.00,0.0453
3193.00,0.0452
3192.00,0.0451
3191.00,0.0450
3190.00,0.0449
3189.00,0.0449
3188.00,0.0448
3187.00,0.0447
3186.00,0.0446
3185.00,0.0445
3184.00,0.0445
3183.00,0.0444
3182.00,0.0443
3181.00,0.0442
3180.00,0.0441
3179.00,0.0440
3178.00,0.0439
3177.00,0.0438
3176.00,0.0437
3175.00,0.0436
3174.00,0.0435
3173.00,0.0434
3172.00,0.0433
3171.00,0.0432
3170.00,0.0431
3169.00,0.0430
3168.00,0.0429
3167.00,0.0427
3166.00,0.0426
3165.00,0.0425
3164.00,0.0424
3163.00,0.0423
3162.00,0.0422
3161.00,0.0421
3160.00,0.0420
3159.00,0.0419
3158.00,0.0418
3157.00,0.0417
3156.00,0.0416
3155.00,0.0414
3154.00,0.0413
3153.00,0.0412
3152.00,0.0411
3151.00,0.0411
3150.00,0.0410
3149.00,0.0409
3148.00,0.0408
3147.00,0.0407
3146.00,0.0406
3145.00,0.0406
3144.00,0.0405
3143.00,0.0404
3142.00,0.0403
3141.00,0.0402
3140.00,0.0401
3139.00,0.0400
3138.00,0.0399
3137.00,0.0399
3136.00,0.0398
3135.00,0.0397
3134.00,0.0397
3133.00,0.0396
3132.00,0.0395
3131.00,0.0394
3130.00,0.0394
3129.00,0.0393
3128.00,0.0393
3127.00,0.0392
3126.00,0.0392
3125.00,0.0391
3124.00,0.0391
3123.00,0.0390
3122.00,0.0389
3121.00,0.0389
3120.00,0.0388
3119.00,0.0388
3118.00,0.0388
3117.00,0.0388
3116.00,0.0388
3115.00,0.0388
3114.00,0.0388
3113.00,0.0388
3112.00,0.0388
3111.00,0.0388
3110.00,0.0388
3109.00,0.0388
3108.00,0.0388
3107.00,0.0389
3106.00,0.0389
3105.00,0.0390
3104.00,0.0390
3103.00,0.0390
3102.00,0.0390
3101.00,0.0390
3100.00,0.0391
3099.00,0.0391
3098.00,0.0392
3097.00,0.0392
3096.00,0.0393
3095.00,0.0393
3094.00,0.0393
3093.00,0.0394
3092.00,0.0394
3091.00,0.0394
3090.00,0.0395
3089.00,0.0395
3088.00,0.0396
3087.00,0.0396
3086.00,0.0396
3085.00,0.0396
3084.00,0.0396
3083.00,0.0397
3082.00,0.0397
3081.00,0.0397
3080.00,0.0397
3079.00,0.0398
3078.00,0.0399
3077.00,0.0399
3076.00,0.0400
3075.00,0.0400
3074.00,0.0400
3073.00,0.0400
3072.00,0.0400
3071.00,0.0400
3070.00,0.0400
3069.00,0.0399
3068.00,0.0399
3067.00,0.0399
3066.00,0.0399
3065.00,0.0399
3064.00,0.0399
3063.00,0.0399
3062.00,0.0399
3061.00,0.0398
3060.00,0.0398
3059.00,0.0397
3058.00,0.0396
3057.00,0.0395
3056.00,0.0394
3055.00,0.0393
3054.00,0.0392
3053.00,0.0391
3052.00,0.0390
3051.00,0.0389
3050.00,0.0388
3049.00,0.0388
3048.00,0.0387
3047.00,0.0386
3046.00,0.0384
3045.00,0.0383
3044.00,0.0382
3043.00,0.0381
3042.00,0.0380
3041.00,0.0379
3040.00,0.0379
3039.00,0.0378
3038.00,0.0377
3037.00,0.0376
3036.00,0.0374
3035.00,0.0373
3034.00,0.0372
3033.00,0.0371
3032.00,0.0371
3031.00,0.0370
3030.00,0.0369
3029.00,0.0368
3028.00,0.0367
3027.00,0.0366
3026.00,0.0365
3025.00,0.0363
3024.00,0.0362
3023.00,0.0361
3022.00,0.0360
3021.00,0.0359
3020.00,0.0358
3019.00,0.0357
3018.00,0.0356
3017.00,0.0354
3016.00,0.0353
3015.00,0.0352
3014.00,0.0352
3013.00,0.0351
3012.00,0.0351
3011.00,0.0350
3010.00,0.0350
3009.00,0.0350
3008.00,0.0350
3007.00,0.0349
3006.00,0.0349
3005.00,0.0348
3004.00,0.0348
3003.00,0.0348
3002.00,0.0348
3001.00,0.0348
3000.00,0.0347
2999.00,0.0347
2998.00,0.0347
2997.00,0.0348
2996.00,0.0348
2995.00,0.0348
2994.00,0.0349
2993.00,0.0350
2992.00,0.0350
2991.00,0.0351
2990.00,0.0353
2989.00,0.0354
2988.00,0.0355
2987.00,0.0356
2986.00,0.0357
2985.00,0.0358
2984.00,0.0359
2983.00,0.0361
2982.00,0.0362
2981.00,0.0363
2980.00,0.0365
2979.00,0.0366
2978.00,0.0368
2977.00,0.0369
2976.00,0.0371
2975.00,0.0372
2974.00,0.0374
2973.00,0.0375
2972.00,0.0377
2971.00,0.0378
2970.00,0.0379
2969.00,0.0381
2968.00,0.0382
2967.00,0.0382
2966.00,0.0383
2965.00,0.0383
2964.00,0.0384
2963.00,0.0384
2962.00,0.0384
2961.00,0.0384
2960.00,0.0384
2959.00,0.0384
2958.00,0.0383
2957.00,0.0383
2956.00,0.0382
2955.00,0.0382
2954.00,0.0382
2953.00,0.0382
2952.00,0.0382
2951.00,0.0381
2950.00,0.0381
2949.00,0.0381
2948.00,0.0381
2947.00,0.0382
2946.00,0.0382
2945.00,0.0383
2944.00,0.0384
2943.00,0.0386
2942.00,0.0387
2941.00,0.0388
2940.00,0.0390
2939.00,0.0391
2938.00,0.0392
2937.00,0.0394
2936.00,0.0395
2935.00,0.0396
2934.00,0.0396
2933.00,0.0397
2932.00,0.0397
2931.00,0.0397
2930.00,0.0396
2929.00,0.0395
2928.00,0.0394
2927.00,0.0392
2926.00,0.0390
2925.00,0.0387
2924.00,0.0384
2923.00,0.0380
2922.00,0.0376
2921.00,0.0370
2920.00,0.0365
2919.00,0.0359
2918.00,0.0353
2917.00,0.0349
2916.00,0.0346
2915.00,0.0345
2914.00,0.0347
2913.00,0.0349
2912.00,0.0352
2911.00,0.0355
2910.00,0.0356
2909.00,0.0357
2908.00,0.0357
2907.00,0.0356
2906.00,0.0356
2905.00,0.0355
2904.00,0.0354
2903.00,0.0353
2902.00,0.0352
2901.00,0.0351
2900.00,0.0350
2899.00,0.0349
2898.00,0.0348
2897.00,0.0347
2896.00,0.0346
2895.00,0.0346
2894.00,0.0345
2893.00,0.0344
2892.00,0.0344
2891.00,0.0343
2890.00,0.0342
2889.00,0.0342
2888.00,0.0342
2887.00,0.0342
2886.00,0.0341
2885.00,0.0341
2884.00,0.0342
2883.00,0.0342
2882.00,0.0342
2881.00,0.0343
2880.00,0.0343
2879.00,0.0344
2878.00,0.0344
2877.00,0.0344
2876.00,0.0344
2875.00,0.0344
2874.00,0.0344
2873.00,0.0343
2872.00,0.0343
2871.00,0.0342
2870.00,0.0341
2869.00,0.0340
2868.00,0.0339
2867.00,0.0337
2866.00,0.0336
2865.00,0.0335
2864.00,0.0333
2863.00,0.0332
2862.00,0.0331
2861.00,0.0330
2860.00,0.0330
2859.00,0.0329
2858.00,0.0328
2857.00,0.0327
2856.00,0.0326
2855.00,0.0324
2854.00,0.0322
2853.00,0.0318
2852.00,0.0313
2851.00,0.0308
2850.00,0.0303
2849.00,0.0300
2848.00,0.0299
2847.00,0.0300
2846.00,0.0302
2845.00,0.0305
2844.00,0.0306
2843.00,0.0307
2842.00,0.0307
2841.00,0.0307
2840.00,0.0306
2839.00,0.0305
2838.00,0.0305
2837.00,0.0304
2836.00,0.0303
2835.00,0.0303
2834.00,0.0302
2833.00,0.0301
2832.00,0.0300
2831.00,0.0300
2830.00,0.0299
2829.00,0.0298
2828.00,0.0298
2827.00,0.0297
2826.00,0.0296
2825.00,0.0296
2824.00,0.0295
2823.00,0.0294
2822.00,0.0294
2821.00,0.0293
2820.00,0.0292
2819.00,0.0292
2818.00,0.0291
2817.00,0.0291
2816.00,0.0290
2815.00,0.0290
2814.00,0.0289
2813.00,0.0288
2812.00,0.0288
2811.00,0.0287
2810.00,0.0286
2809.00,0.0286
2808.00,0.0285
2807.00,0.0285
2806.00,0.0284
2805.00,0.0284
2804.00,0.0283
2803.00,0.0283
2802.00,0.0282
2801.00,0.0281
2800.00,0.0281
2799.00,0.0280
2798.00,0.0280
2797.00,0.0279
2796.00,0.0279
2795.00,0.0279
2794.00,0.0278
2793.00,0.0278
2792.00,0.0277
2791.00,0.0277
2790.00,0.0276
2789.00,0.0276
2788.00,0.0275
2787.00,0.0275
2786.00,0.0275
2785.00,0.0274
2784.00,0.0274
2783.00,0.0274
2782.00,0.0273
2781.00,0.0273
2780.00,0.0272
2779.00,0.0272
2778.00,0.0271
2777.00,0.0271
2776.00,0.0271
2775.00,0.0270
2774.00,0.0270
2773.00,0.0270
2772.00,0.0270
2771.00,0.0269
2770.00,0.0269
2769.00,0.0269
2768.00,0.0268
2767.00,0.0268
2766.00,0.0268
2765.00,0.0267
2764.00,0.0267
2763.00,0.0266
2762.00,0.0266
2761.00,0.0266
2760.00,0.0265
2759.00,0.0265
2758.00,0.0265
2757.00,0.0264
