Created as New Dataset,Sample 343 By YargerLab Date Monday, August 19 2024
cm-1,A
4000.00,0.0014
3999.00,0.0015
3998.00,0.0015
3997.00,0.0015
3996.00,0.0015
3995.00,0.0015
3994.00,0.0014
3993.00,0.0014
3992.00,0.0014
3991.00,0.0014
3990.00,0.0014
3989.00,0.0014
3988.00,0.0014
3987.00,0.0014
3986.00,0.0014
3985.00,0.0014
3984.00,0.0014
3983.00,0.0014
3982.00,0.0014
3981.00,0.0014
3980.00,0.0014
3979.00,0.0014
3978.00,0.0014
3977.00,0.0014
3976.00,0.0014
3975.00,0.0014
3974.00,0.0015
3973.00,0.0014
3972.00,0.0014
3971.00,0.0014
3970.00,0.0014
3969.00,0.0014
3968.00,0.0014
3967.00,0.0014
3966.00,0.0014
3965.00,0.0014
3964.00,0.0014
3963.00,0.0015
3962.00,0.0015
3961.00,0.0015
3960.00,0.0015
3959.00,0.0015
3958.00,0.0014
3957.00,0.0014
3956.00,0.0015
3955.00,0.0015
3954.00,0.0014
3953.00,0.0014
3952.00,0.0014
3951.00,0.0014
3950.00,0.0015
3949.00,0.0015
3948.00,0.0015
3947.00,0.0015
3946.00,0.0015
3945.00,0.0015
3944.00,0.0014
3943.00,0.0014
3942.00,0.0014
3941.00,0.0014
3940.00,0.0014
3939.00,0.0014
3938.00,0.0014
3937.00,0.0015
3936.00,0.0015
3935.00,0.0015
3934.00,0.0015
3933.00,0.0015
3932.00,0.0015
3931.00,0.0014
3930.00,0.0014
3929.00,0.0014
3928.00,0.0014
3927.00,0.0014
3926.00,0.0014
3925.00,0.0014
3924.00,0.0014
3923.00,0.0015
3922.00,0.0015
3921.00,0.0015
3920.00,0.0015
3919.00,0.0015
3918.00,0.0015
3917.00,0.0015
3916.00,0.0015
3915.00,0.0014
3914.00,0.0014
3913.00,0.0014
3912.00,0.0014
3911.00,0.0014
3910.00,0.0014
3909.00,0.0014
3908.00,0.0014
3907.00,0.0014
3906.00,0.0014
3905.00,0.0015
3904.00,0.0015
3903.00,0.0015
3902.00,0.0015
3901.00,0.0014
3900.00,0.0014
3899.00,0.0014
3898.00,0.0014
3897.00,0.0014
3896.00,0.0014
3895.00,0.0014
3894.00,0.0014
3893.00,0.0014
3892.00,0.0014
3891.00,0.0014
3890.00,0.0014
3889.00,0.0014
3888.00,0.0014
3887.00,0.0015
3886.00,0.0015
3885.00,0.0015
3884.00,0.0015
3883.00,0.0014
3882.00,0.0014
3881.00,0.0014
3880.00,0.0014
3879.00,0.0014
3878.00,0.0014
3877.00,0.0014
3876.00,0.0014
3875.00,0.0014
3874.00,0.0014
3873.00,0.0014
3872.00,0.0014
3871.00,0.0014
3870.00,0.0014
3869.00,0.0014
3868.00,0.0014
3867.00,0.0014
3866.00,0.0014
3865.00,0.0014
3864.00,0.0014
3863.00,0.0014
3862.00,0.0014
3861.00,0.0014
3860.00,0.0014
3859.00,0.0014
3858.00,0.0014
3857.00,0.0014
3856.00,0.0014
3855.00,0.0014
3854.00,0.0014
3853.00,0.0013
3852.00,0.0013
3851.00,0.0013
3850.00,0.0013
3849.00,0.0013
3848.00,0.0014
3847.00,0.0014
3846.00,0.0014
3845.00,0.0014
3844.00,0.0014
3843.00,0.0014
3842.00,0.0014
3841.00,0.0014
3840.00,0.0014
3839.00,0.0014
3838.00,0.0014
3837.00,0.0014
3836.00,0.0013
3835.00,0.0013
3834.00,0.0013
3833.00,0.0014
3832.00,0.0014
3831.00,0.0014
3830.00,0.0014
3829.00,0.0014
3828.00,0.0014
3827.00,0.0014
3826.00,0.0014
3825.00,0.0014
3824.00,0.0014
3823.00,0.0014
3822.00,0.0014
3821.00,0.0014
3820.00,0.0014
3819.00,0.0014
3818.00,0.0013
3817.00,0.0013
3816.00,0.0013
3815.00,0.0013
3814.00,0.0014
3813.00,0.0014
3812.00,0.0014
3811.00,0.0014
3810.00,0.0014
3809.00,0.0014
3808.00,0.0014
3807.00,0.0014
3806.00,0.0014
3805.00,0.0014
3804.00,0.0014
3803.00,0.0014
3802.00,0.0014
3801.00,0.0014
3800.00,0.0014
3799.00,0.0014
3798.00,0.0014
3797.00,0.0014
3796.00,0.0014
3795.00,0.0014
3794.00,0.0014
3793.00,0.0014
3792.00,0.0014
3791.00,0.0014
3790.00,0.0014
3789.00,0.0014
3788.00,0.0014
3787.00,0.0014
3786.00,0.0014
3785.00,0.0014
3784.00,0.0014
3783.00,0.0014
3782.00,0.0014
3781.00,0.0014
3780.00,0.0014
3779.00,0.0014
3778.00,0.0014
3777.00,0.0014
3776.00,0.0014
3775.00,0.0014
3774.00,0.0014
3773.00,0.0014
3772.00,0.0014
3771.00,0.0014
3770.00,0.0014
3769.00,0.0015
3768.00,0.0015
3767.00,0.0014
3766.00,0.0014
3765.00,0.0014
3764.00,0.0014
3763.00,0.0014
3762.00,0.0014
3761.00,0.0014
3760.00,0.0014
3759.00,0.0015
3758.00,0.0015
3757.00,0.0015
3756.00,0.0015
3755.00,0.0014
3754.00,0.0014
3753.00,0.0014
3752.00,0.0014
3751.00,0.0015
3750.00,0.0015
3749.00,0.0015
3748.00,0.0014
3747.00,0.0014
3746.00,0.0014
3745.00,0.0014
3744.00,0.0014
3743.00,0.0014
3742.00,0.0014
3741.00,0.0014
3740.00,0.0015
3739.00,0.0015
3738.00,0.0015
3737.00,0.0015
3736.00,0.0015
3735.00,0.0014
3734.00,0.0014
3733.00,0.0014
3732.00,0.0014
3731.00,0.0014
3730.00,0.0014
3729.00,0.0014
3728.00,0.0014
3727.00,0.0014
3726.00,0.0014
3725.00,0.0014
3724.00,0.0014
3723.00,0.0014
3722.00,0.0014
3721.00,0.0014
3720.00,0.0014
3719.00,0.0014
3718.00,0.0014
3717.00,0.0014
3716.00,0.0014
3715.00,0.0014
3714.00,0.0014
3713.00,0.0014
3712.00,0.0013
3711.00,0.0013
3710.00,0.0013
3709.00,0.0013
3708.00,0.0013
3707.00,0.0013
3706.00,0.0013
3705.00,0.0013
3704.00,0.0013
3703.00,0.0013
3702.00,0.0013
3701.00,0.0013
3700.00,0.0013
3699.00,0.0013
3698.00,0.0013
3697.00,0.0013
3696.00,0.0014
3695.00,0.0014
3694.00,0.0014
3693.00,0.0014
3692.00,0.0014
3691.00,0.0013
3690.00,0.0013
3689.00,0.0013
3688.00,0.0013
3687.00,0.0013
3686.00,0.0013
3685.00,0.0013
3684.00,0.0013
3683.00,0.0013
3682.00,0.0013
3681.00,0.0014
3680.00,0.0014
3679.00,0.0014
3678.00,0.0014
3677.00,0.0014
3676.00,0.0014
3675.00,0.0014
3674.00,0.0014
3673.00,0.0014
3672.00,0.0014
3671.00,0.0014
3670.00,0.0014
3669.00,0.0014
3668.00,0.0014
3667.00,0.0014
3666.00,0.0014
3665.00,0.0014
3664.00,0.0014
3663.00,0.0014
3662.00,0.0015
3661.00,0.0015
3660.00,0.0015
3659.00,0.0015
3658.00,0.0015
3657.00,0.0015
3656.00,0.0015
3655.00,0.0016
3654.00,0.0016
3653.00,0.0016
3652.00,0.0016
3651.00,0.0016
3650.00,0.0016
3649.00,0.0016
3648.00,0.0016
3647.00,0.0016
3646.00,0.0016
3645.00,0.0016
3644.00,0.0016
3643.00,0.0016
3642.00,0.0016
3641.00,0.0017
3640.00,0.0017
3639.00,0.0017
3638.00,0.0017
3637.00,0.0017
3636.00,0.0017
3635.00,0.0018
3634.00,0.0018
3633.00,0.0018
3632.00,0.0018
3631.00,0.0018
3630.00,0.0018
3629.00,0.0018
3628.00,0.0019
3627.00,0.0019
3626.00,0.0019
3625.00,0.0019
3624.00,0.0019
3623.00,0.0019
3622.00,0.0020
3621.00,0.0020
3620.00,0.0020
3619.00,0.0020
3618.00,0.0020
3617.00,0.0020
3616.00,0.0021
3615.00,0.0021
3614.00,0.0021
3613.00,0.0022
3612.00,0.0022
3611.00,0.0022
3610.00,0.0022
3609.00,0.0022
3608.00,0.0022
3607.00,0.0022
3606.00,0.0023
3605.00,0.0023
3604.00,0.0023
3603.00,0.0023
3602.00,0.0023
3601.00,0.0023
3600.00,0.0024
3599.00,0.0024
3598.00,0.0024
3597.00,0.0024
3596.00,0.0024
3595.00,0.0025
3594.00,0.0025
3593.00,0.0025
3592.00,0.0025
3591.00,0.0026
3590.00,0.0026
3589.00,0.0026
3588.00,0.0026
3587.00,0.0026
3586.00,0.0026
3585.00,0.0027
3584.00,0.0027
3583.00,0.0027
3582.00,0.0027
3581.00,0.0028
3580.00,0.0028
3579.00,0.0028
3578.00,0.0028
3577.00,0.0028
3576.00,0.0028
3575.00,0.0029
3574.00,0.0029
3573.00,0.0029
3572.00,0.0029
3571.00,0.0030
3570.00,0.0030
3569.00,0.0030
3568.00,0.0031
3567.00,0.0031
3566.00,0.0031
3565.00,0.0032
3564.00,0.0032
3563.00,0.0032
3562.00,0.0032
3561.00,0.0033
3560.00,0.0033
3559.00,0.0033
3558.00,0.0033
3557.00,0.0033
3556.00,0.0034
3555.00,0.0034
3554.00,0.0034
3553.00,0.0034
3552.00,0.0035
3551.00,0.0035
3550.00,0.0035
3549.00,0.0036
3548.00,0.0036
3547.00,0.0036
3546.00,0.0037
3545.00,0.0037
3544.00,0.0037
3543.00,0.0037
3542.00,0.0037
3541.00,0.0037
3540.00,0.0038
3539.00,0.0038
3538.00,0.0038
3537.00,0.0038
3536.00,0.0038
3535.00,0.0039
3534.00,0.0039
3533.00,0.0039
3532.00,0.0039
3531.00,0.0040
3530.00,0.0040
3529.00,0.0040
3528.00,0.0041
3527.00,0.0041
3526.00,0.0042
3525.00,0.0042
3524.00,0.0042
3523.00,0.0042
3522.00,0.0042
3521.00,0.0042
3520.00,0.0043
3519.00,0.0043
3518.00,0.0043
3517.00,0.0043
3516.00,0.0044
3515.00,0.0044
3514.00,0.0044
3513.00,0.0044
3512.00,0.0045
3511.00,0.0045
3510.00,0.0045
3509.00,0.0045
3508.00,0.0046
3507.00,0.0046
3506.00,0.0046
3505.00,0.0047
3504.00,0.0047
3503.00,0.0047
3502.00,0.0047
3501.00,0.0048
3500.00,0.0048
3499.00,0.0048
3498.00,0.0048
3497.00,0.0048
3496.00,0.0048
3495.00,0.0049
3494.00,0.0049
3493.00,0.0049
3492.00,0.0050
3491.00,0.0050
3490.00,0.0050
3489.00,0.0051
3488.00,0.0051
3487.00,0.0051
3486.00,0.0051
3485.00,0.0051
3484.00,0.0052
3483.00,0.0052
3482.00,0.0052
3481.00,0.0053
3480.00,0.0053
3479.00,0.0053
3478.00,0.0053
3477.00,0.0053
3476.00,0.0053
3475.00,0.0054
3474.00,0.0054
3473.00,0.0054
3472.00,0.0054
3471.00,0.0055
3470.00,0.0055
3469.00,0.0055
3468.00,0.0055
3467.00,0.0055
3466.00,0.0056
3465.00,0.0056
3464.00,0.0056
3463.00,0.0056
3462.00,0.0057
3461.00,0.0057
3460.00,0.0057
3459.00,0.0057
3458.00,0.0058
3457.00,0.0058
3456.00,0.0058
3455.00,0.0058
3454.00,0.0058
3453.00,0.0058
3452.00,0.0059
3451.00,0.0059
3450.00,0.0059
3449.00,0.0060
3448.00,0.0060
3447.00,0.0060
3446.00,0.0060
3445.00,0.0060
3444.00,0.0060
3443.00,0.0060
3442.00,0.0061
3441.00,0.0061
3440.00,0.0061
3439.00,0.0062
3438.00,0.0062
3437.00,0.0062
3436.00,0.0062
3435.00,0.0062
3434.00,0.0063
3433.00,0.0063
3432.00,0.0063
3431.00,0.0063
3430.00,0.0063
3429.00,0.0064
3428.00,0.0064
3427.00,0.0064
3426.00,0.0064
3425.00,0.0064
3424.00,0.0064
3423.00,0.0064
3422.00,0.0065
3421.00,0.0065
3420.00,0.0065
3419.00,0.0065
3418.00,0.0065
3417.00,0.0065
3416.00,0.0066
3415.00,0.0066
3414.00,0.0066
3413.00,0.0066
3412.00,0.0066
3411.00,0.0067
3410.00,0.0067
3409.00,0.0067
3408.00,0.0067
3407.00,0.0067
3406.00,0.0067
3405.00,0.0067
3404.00,0.0068
3403.00,0.0068
3402.00,0.0068
3401.00,0.0068
3400.00,0.0068
3399.00,0.0068
3398.00,0.0068
3397.00,0.0068
3396.00,0.0069
3395.00,0.0069
3394.00,0.0069
3393.00,0.0069
3392.00,0.0069
3391.00,0.0069
3390.00,0.0069
3389.00,0.0069
3388.00,0.0069
3387.00,0.0069
3386.00,0.0069
3385.00,0.0070
3384.00,0.0070
3383.00,0.0070
3382.00,0.0070
3381.00,0.0070
3380.00,0.0070
3379.00,0.0070
3378.00,0.0071
3377.00,0.0071
3376.00,0.0071
3375.00,0.0071
3374.00,0.0071
3373.00,0.0071
3372.00,0.0071
3371.00,0.0071
3370.00,0.0072
3369.00,0.0072
3368.00,0.0072
3367.00,0.0072
3366.00,0.0072
3365.00,0.0072
3364.00,0.0072
3363.00,0.0072
3362.00,0.0072
3361.00,0.0073
3360.00,0.0073
3359.00,0.0073
3358.00,0.0073
3357.00,0.0073
3356.00,0.0073
3355.00,0.0073
3354.00,0.0073
3353.00,0.0073
3352.00,0.0074
3351.00,0.0074
3350.00,0.0074
3349.00,0.0074
3348.00,0.0074
3347.00,0.0074
3346.00,0.0074
3345.00,0.0074
3344.00,0.0074
3343.00,0.0075
3342.00,0.0075
3341.00,0.0075
3340.00,0.0075
3339.00,0.0075
3338.00,0.0075
3337.00,0.0076
3336.00,0.0076
3335.00,0.0076
3334.00,0.0076
3333.00,0.0076
3332.00,0.0076
3331.00,0.0076
3330.00,0.0077
3329.00,0.0077
3328.00,0.0077
3327.00,0.0077
3326.00,0.0077
3325.00,0.0077
3324.00,0.0077
3323.00,0.0078
3322.00,0.0078
3321.00,0.0078
3320.00,0.0078
3319.00,0.0079
3318.00,0.0079
3317.00,0.0079
3316.00,0.0079
3315.00,0.0080
3314.00,0.0080
3313.00,0.0080
3312.00,0.0080
3311.00,0.0080
3310.00,0.0081
3309.00,0.0081
3308.00,0.0081
3307.00,0.0081
3306.00,0.0082
3305.00,0.0082
3304.00,0.0082
3303.00,0.0082
3302.00,0.0083
3301.00,0.0083
3300.00,0.0083
3299.00,0.0083
3298.00,0.0084
3297.00,0.0084
3296.00,0.0084
3295.00,0.0085
3294.00,0.0085
3293.00,0.0085
3292.00,0.0085
3291.00,0.0086
3290.00,0.0086
3289.00,0.0086
3288.00,0.0086
3287.00,0.0087
3286.00,0.0087
3285.00,0.0087
3284.00,0.0087
3283.00,0.0087
3282.00,0.0088
3281.00,0.0088
3280.00,0.0088
3279.00,0.0088
3278.00,0.0088
3277.00,0.0088
3276.00,0.0088
3275.00,0.0089
3274.00,0.0088
3273.00,0.0088
3272.00,0.0088
3271.00,0.0088
3270.00,0.0088
3269.00,0.0088
3268.00,0.0088
3267.00,0.0088
3266.00,0.0088
3265.00,0.0088
3264.00,0.0088
3263.00,0.0088
3262.00,0.0087
3261.00,0.0087
3260.00,0.0087
3259.00,0.0086
3258.00,0.0086
3257.00,0.0086
3256.00,0.0086
3255.00,0.0086
3254.00,0.0085
3253.00,0.0085
3252.00,0.0085
3251.00,0.0085
3250.00,0.0084
3249.00,0.0084
3248.00,0.0084
3247.00,0.0084
3246.00,0.0083
3245.00,0.0083
3244.00,0.0083
3243.00,0.0082
3242.00,0.0082
3241.00,0.0082
3240.00,0.0081
3239.00,0.0081
3238.00,0.0081
3237.00,0.0081
3236.00,0.0081
3235.00,0.0080
3234.00,0.0080
3233.00,0.0080
3232.00,0.0080
3231.00,0.0080
3230.00,0.0080
3229.00,0.0079
3228.00,0.0079
3227.00,0.0079
3226.00,0.0079
3225.00,0.0079
3224.00,0.0078
3223.00,0.0078
3222.00,0.0078
3221.00,0.0078
3220.00,0.0078
3219.00,0.0077
3218.00,0.0077
3217.00,0.0077
3216.00,0.0077
3215.00,0.0077
3214.00,0.0076
3213.00,0.0076
3212.00,0.0076
3211.00,0.0076
3210.00,0.0076
3209.00,0.0076
3208.00,0.0075
3207.00,0.0075
3206.00,0.0075
3205.00,0.0074
3204.00,0.0074
3203.00,0.0074
3202.00,0.0074
3201.00,0.0074
3200.00,0.0074
3199.00,0.0074
3198.00,0.0074
3197.00,0.0073
3196.00,0.0073
3195.00,0.0073
3194.00,0.0073
3193.00,0.0073
3192.00,0.0072
3191.00,0.0072
3190.00,0.0072
3189.00,0.0072
3188.00,0.0071
3187.00,0.0071
3186.00,0.0071
3185.00,0.0071
3184.00,0.0071
3183.00,0.0070
3182.00,0.0070
3181.00,0.0070
3180.00,0.0070
3179.00,0.0070
3178.00,0.0070
3177.00,0.0070
3176.00,0.0069
3175.00,0.0069
3174.00,0.0069
3173.00,0.0068
3172.00,0.0068
3171.00,0.0068
3170.00,0.0068
3169.00,0.0068
3168.00,0.0067
3167.00,0.0067
3166.00,0.0067
3165.00,0.0067
3164.00,0.0067
3163.00,0.0066
3162.00,0.0066
3161.00,0.0066
3160.00,0.0066
3159.00,0.0066
3158.00,0.0065
3157.00,0.0065
3156.00,0.0065
3155.00,0.0065
3154.00,0.0065
3153.00,0.0064
3152.00,0.0064
3151.00,0.0064
3150.00,0.0064
3149.00,0.0063
3148.00,0.0063
3147.00,0.0063
3146.00,0.0063
3145.00,0.0063
3144.00,0.0063
3143.00,0.0063
3142.00,0.0062
3141.00,0.0062
3140.00,0.0062
3139.00,0.0062
3138.00,0.0061
3137.00,0.0061
3136.00,0.0061
3135.00,0.0061
3134.00,0.0061
3133.00,0.0061
3132.00,0.0060
3131.00,0.0060
3130.00,0.0060
3129.00,0.0060
3128.00,0.0060
3127.00,0.0060
3126.00,0.0060
3125.00,0.0059
3124.00,0.0059
3123.00,0.0059
3122.00,0.0059
3121.00,0.0059
3120.00,0.0059
3119.00,0.0058
3118.00,0.0058
3117.00,0.0058
3116.00,0.0058
3115.00,0.0058
3114.00,0.0058
3113.00,0.0058
3112.00,0.0058
3111.00,0.0058
3110.00,0.0058
3109.00,0.0058
3108.00,0.0057
3107.00,0.0057
3106.00,0.0057
3105.00,0.0057
3104.00,0.0057
3103.00,0.0057
3102.00,0.0057
3101.00,0.0057
3100.00,0.0057
3099.00,0.0057
3098.00,0.0057
3097.00,0.0057
3096.00,0.0057
3095.00,0.0057
3094.00,0.0057
3093.00,0.0056
3092.00,0.0056
3091.00,0.0057
3090.00,0.0057
3089.00,0.0057
3088.00,0.0057
3087.00,0.0057
3086.00,0.0057
3085.00,0.0056
3084.00,0.0056
3083.00,0.0056
3082.00,0.0056
3081.00,0.0056
3080.00,0.0056
3079.00,0.0056
3078.00,0.0056
3077.00,0.0056
3076.00,0.0056
3075.00,0.0056
3074.00,0.0056
3073.00,0.0056
3072.00,0.0056
3071.00,0.0056
3070.00,0.0056
3069.00,0.0056
3068.00,0.0055
3067.00,0.0055
3066.00,0.0055
3065.00,0.0055
3064.00,0.0055
3063.00,0.0055
3062.00,0.0055
3061.00,0.0055
3060.00,0.0055
3059.00,0.0055
3058.00,0.0055
3057.00,0.0055
3056.00,0.0054
3055.00,0.0054
3054.00,0.0054
3053.00,0.0054
3052.00,0.0054
3051.00,0.0053
3050.00,0.0053
3049.00,0.0053
3048.00,0.0053
3047.00,0.0053
3046.00,0.0053
3045.00,0.0052
3044.00,0.0052
3043.00,0.0052
3042.00,0.0052
3041.00,0.0052
3040.00,0.0052
3039.00,0.0052
3038.00,0.0051
3037.00,0.0051
3036.00,0.0051
3035.00,0.0051
3034.00,0.0051
3033.00,0.0051
3032.00,0.0050
3031.00,0.0050
3030.00,0.0050
3029.00,0.0050
3028.00,0.0050
3027.00,0.0050
3026.00,0.0050
3025.00,0.0050
3024.00,0.0049
3023.00,0.0049
3022.00,0.0049
3021.00,0.0049
3020.00,0.0049
3019.00,0.0049
3018.00,0.0048
3017.00,0.0048
3016.00,0.0048
3015.00,0.0048
3014.00,0.0048
3013.00,0.0048
3012.00,0.0047
3011.00,0.0047
3010.00,0.0047
3009.00,0.0047
3008.00,0.0047
3007.00,0.0047
3006.00,0.0047
3005.00,0.0047
3004.00,0.0047
3003.00,0.0047
3002.00,0.0047
3001.00,0.0047
3000.00,0.0047
2999.00,0.0047
2998.00,0.0046
2997.00,0.0046
2996.00,0.0046
2995.00,0.0046
2994.00,0.0046
2993.00,0.0046
2992.00,0.0046
2991.00,0.0046
2990.00,0.0046
2989.00,0.0046
2988.00,0.0046
2987.00,0.0046
2986.00,0.0046
2985.00,0.0046
2984.00,0.0046
2983.00,0.0046
2982.00,0.0047
2981.00,0.0047
2980.00,0.0047
2979.00,0.0047
2978.00,0.0047
2977.00,0.0047
2976.00,0.0047
2975.00,0.0047
2974.00,0.0047
2973.00,0.0047
2972.00,0.0047
2971.00,0.0047
2970.00,0.0047
2969.00,0.0046
2968.00,0.0046
2967.00,0.0046
2966.00,0.0046
2965.00,0.0046
2964.00,0.0045
2963.00,0.0045
2962.00,0.0044
2961.00,0.0044
2960.00,0.0044
2959.00,0.0043
2958.00,0.0043
2957.00,0.0043
2956.00,0.0043
2955.00,0.0043
2954.00,0.0043
2953.00,0.0044
2952.00,0.0044
2951.00,0.0044
2950.00,0.0045
2949.00,0.0045
2948.00,0.0045
2947.00,0.0045
2946.00,0.0045
2945.00,0.0045
2944.00,0.0045
2943.00,0.0046
2942.00,0.0046
2941.00,0.0046
2940.00,0.0045
2939.00,0.0045
2938.00,0.0044
2937.00,0.0044
2936.00,0.0043
2935.00,0.0043
2934.00,0.0042
2933.00,0.0041
2932.00,0.0040
2931.00,0.0039
2930.00,0.0038
2929.00,0.0036
2928.00,0.0034
2927.00,0.0032
2926.00,0.0029
2925.00,0.0027
2924.00,0.0023
2923.00,0.0020
2922.00,0.0015
2921.00,0.0011
2920.00,0.0006
2919.00,0.0001
2918.00,-0.0002
2917.00,-0.0005
2916.00,-0.0004
2915.00,-0.0002
2914.00,0.0003
2913.00,0.0010
2912.00,0.0016
2911.00,0.0021
2910.00,0.0026
2909.00,0.0029
2908.00,0.0031
2907.00,0.0032
2906.00,0.0033
2905.00,0.0034
2904.00,0.0035
2903.00,0.0035
2902.00,0.0036
2901.00,0.0036
2900.00,0.0036
2899.00,0.0036
2898.00,0.0037
2897.00,0.0037
2896.00,0.0037
2895.00,0.0037
2894.00,0.0037
2893.00,0.0038
2892.00,0.0038
2891.00,0.0038
2890.00,0.0038
2889.00,0.0038
2888.00,0.0039
2887.00,0.0039
2886.00,0.0039
2885.00,0.0040
2884.00,0.0040
2883.00,0.0040
2882.00,0.0041
2881.00,0.0041
2880.00,0.0041
2879.00,0.0041
2878.00,0.0041
2877.00,0.0041
2876.00,0.0042
2875.00,0.0042
2874.00,0.0041
2873.00,0.0041
2872.00,0.0041
2871.00,0.0041
2870.00,0.0041
2869.00,0.0041
2868.00,0.0041
2867.00,0.0041
2866.00,0.0040
2865.00,0.0040
2864.00,0.0040
2863.00,0.0039
2862.00,0.0038
2861.00,0.0038
2860.00,0.0037
2859.00,0.0036
2858.00,0.0035
2857.00,0.0033
2856.00,0.0031
2855.00,0.0029
2854.00,0.0025
2853.00,0.0021
2852.00,0.0016
2851.00,0.0011
2850.00,0.0007
2849.00,0.0006
2848.00,0.0008
2847.00,0.0012
2846.00,0.0017
2845.00,0.0023
2844.00,0.0028
2843.00,0.0031
2842.00,0.0033
2841.00,0.0035
2840.00,0.0036
2839.00,0.0037
2838.00,0.0038
2837.00,0.0038
2836.00,0.0038
2835.00,0.0039
2834.00,0.0039
2833.00,0.0039
2832.00,0.0039
2831.00,0.0039
2830.00,0.0039
2829.00,0.0039
2828.00,0.0039
2827.00,0.0039
2826.00,0.0039
2825.00,0.0039
2824.00,0.0039
2823.00,0.0039
2822.00,0.0039
2821.00,0.0039
2820.00,0.0039
2819.00,0.0039
2818.00,0.0039
2817.00,0.0039
2816.00,0.0039
2815.00,0.0039
2814.00,0.0039
2813.00,0.0039
2812.00,0.0039
2811.00,0.0039
2810.00,0.0039
2809.00,0.0038
2808.00,0.0038
2807.00,0.0038
2806.00,0.0038
2805.00,0.0038
2804.00,0.0038
2803.00,0.0038
2802.00,0.0038
2801.00,0.0038
2800.00,0.0038
2799.00,0.0038
2798.00,0.0038
2797.00,0.0038
2796.00,0.0038
2795.00,0.0038
2794.00,0.0038
2793.00,0.0038
2792.00,0.0038
2791.00,0.0038
2790.00,0.0038
2789.00,0.0037
2788.00,0.0037
2787.00,0.0037
2786.00,0.0037
2785.00,0.0037
2784.00,0.0037
2783.00,0.0037
2782.00,0.0037
2781.00,0.0037
2780.00,0.0037
2779.00,0.0037
2778.00,0.0037
2777.00,0.0037
2776.00,0.0037
2775.00,0.0037
2774.00,0.0037
2773.00,0.0036
2772.00,0.0036
2771.00,0.0036
2770.00,0.0036
2769.00,0.0036
2768.00,0.0036
2767.00,0.0036
2766.00,0.0036
2765.00,0.0036
2764.00,0.0036
2763.00,0.0036
2762.00,0.0036
2761.00,0.0036
2760.00,0.0036
2759.00,0.0036
2758.00,0.0036
2757.00,0.0036
