Created as New Dataset,Sample 345 By YargerLab Date Monday, August 19 2024
cm-1,A
4000.00,0.0097
3999.00,0.0097
3998.00,0.0097
3997.00,0.0097
3996.00,0.0097
3995.00,0.0097
3994.00,0.0097
3993.00,0.0097
3992.00,0.0097
3991.00,0.0097
3990.00,0.0097
3989.00,0.0097
3988.00,0.0097
3987.00,0.0097
3986.00,0.0097
3985.00,0.0097
3984.00,0.0097
3983.00,0.0097
3982.00,0.0097
3981.00,0.0097
3980.00,0.0097
3979.00,0.0097
3978.00,0.0097
3977.00,0.0097
3976.00,0.0097
3975.00,0.0097
3974.00,0.0097
3973.00,0.0097
3972.00,0.0097
3971.00,0.0097
3970.00,0.0097
3969.00,0.0097
3968.00,0.0097
3967.00,0.0097
3966.00,0.0097
3965.00,0.0097
3964.00,0.0098
3963.00,0.0098
3962.00,0.0098
3961.00,0.0098
3960.00,0.0097
3959.00,0.0097
3958.00,0.0097
3957.00,0.0097
3956.00,0.0097
3955.00,0.0097
3954.00,0.0097
3953.00,0.0097
3952.00,0.0098
3951.00,0.0098
3950.00,0.0098
3949.00,0.0098
3948.00,0.0098
3947.00,0.0098
3946.00,0.0098
3945.00,0.0098
3944.00,0.0097
3943.00,0.0097
3942.00,0.0097
3941.00,0.0097
3940.00,0.0097
3939.00,0.0097
3938.00,0.0097
3937.00,0.0097
3936.00,0.0097
3935.00,0.0098
3934.00,0.0098
3933.00,0.0098
3932.00,0.0098
3931.00,0.0097
3930.00,0.0097
3929.00,0.0097
3928.00,0.0097
3927.00,0.0097
3926.00,0.0097
3925.00,0.0097
3924.00,0.0097
3923.00,0.0097
3922.00,0.0097
3921.00,0.0097
3920.00,0.0097
3919.00,0.0097
3918.00,0.0097
3917.00,0.0097
3916.00,0.0097
3915.00,0.0097
3914.00,0.0096
3913.00,0.0096
3912.00,0.0096
3911.00,0.0096
3910.00,0.0096
3909.00,0.0096
3908.00,0.0097
3907.00,0.0097
3906.00,0.0097
3905.00,0.0097
3904.00,0.0097
3903.00,0.0097
3902.00,0.0097
3901.00,0.0097
3900.00,0.0097
3899.00,0.0096
3898.00,0.0096
3897.00,0.0096
3896.00,0.0096
3895.00,0.0096
3894.00,0.0096
3893.00,0.0096
3892.00,0.0096
3891.00,0.0096
3890.00,0.0096
3889.00,0.0096
3888.00,0.0096
3887.00,0.0097
3886.00,0.0097
3885.00,0.0097
3884.00,0.0096
3883.00,0.0096
3882.00,0.0096
3881.00,0.0096
3880.00,0.0096
3879.00,0.0096
3878.00,0.0096
3877.00,0.0096
3876.00,0.0096
3875.00,0.0096
3874.00,0.0096
3873.00,0.0096
3872.00,0.0096
3871.00,0.0096
3870.00,0.0096
3869.00,0.0096
3868.00,0.0095
3867.00,0.0096
3866.00,0.0096
3865.00,0.0095
3864.00,0.0095
3863.00,0.0095
3862.00,0.0095
3861.00,0.0096
3860.00,0.0096
3859.00,0.0096
3858.00,0.0095
3857.00,0.0095
3856.00,0.0095
3855.00,0.0095
3854.00,0.0095
3853.00,0.0095
3852.00,0.0094
3851.00,0.0094
3850.00,0.0094
3849.00,0.0095
3848.00,0.0095
3847.00,0.0095
3846.00,0.0095
3845.00,0.0095
3844.00,0.0095
3843.00,0.0095
3842.00,0.0095
3841.00,0.0095
3840.00,0.0095
3839.00,0.0095
3838.00,0.0095
3837.00,0.0095
3836.00,0.0095
3835.00,0.0095
3834.00,0.0094
3833.00,0.0094
3832.00,0.0095
3831.00,0.0095
3830.00,0.0095
3829.00,0.0095
3828.00,0.0095
3827.00,0.0095
3826.00,0.0095
3825.00,0.0095
3824.00,0.0095
3823.00,0.0095
3822.00,0.0095
3821.00,0.0095
3820.00,0.0094
3819.00,0.0094
3818.00,0.0094
3817.00,0.0094
3816.00,0.0093
3815.00,0.0093
3814.00,0.0093
3813.00,0.0093
3812.00,0.0093
3811.00,0.0093
3810.00,0.0093
3809.00,0.0094
3808.00,0.0094
3807.00,0.0094
3806.00,0.0093
3805.00,0.0093
3804.00,0.0094
3803.00,0.0094
3802.00,0.0094
3801.00,0.0093
3800.00,0.0093
3799.00,0.0094
3798.00,0.0094
3797.00,0.0094
3796.00,0.0094
3795.00,0.0093
3794.00,0.0093
3793.00,0.0093
3792.00,0.0093
3791.00,0.0093
3790.00,0.0093
3789.00,0.0093
3788.00,0.0093
3787.00,0.0093
3786.00,0.0093
3785.00,0.0093
3784.00,0.0093
3783.00,0.0093
3782.00,0.0093
3781.00,0.0093
3780.00,0.0093
3779.00,0.0092
3778.00,0.0093
3777.00,0.0093
3776.00,0.0093
3775.00,0.0093
3774.00,0.0093
3773.00,0.0093
3772.00,0.0093
3771.00,0.0093
3770.00,0.0093
3769.00,0.0093
3768.00,0.0093
3767.00,0.0093
3766.00,0.0093
3765.00,0.0093
3764.00,0.0093
3763.00,0.0093
3762.00,0.0093
3761.00,0.0093
3760.00,0.0093
3759.00,0.0093
3758.00,0.0093
3757.00,0.0093
3756.00,0.0093
3755.00,0.0093
3754.00,0.0093
3753.00,0.0094
3752.00,0.0094
3751.00,0.0094
3750.00,0.0094
3749.00,0.0093
3748.00,0.0093
3747.00,0.0093
3746.00,0.0093
3745.00,0.0093
3744.00,0.0092
3743.00,0.0093
3742.00,0.0093
3741.00,0.0093
3740.00,0.0094
3739.00,0.0094
3738.00,0.0094
3737.00,0.0094
3736.00,0.0094
3735.00,0.0093
3734.00,0.0093
3733.00,0.0092
3732.00,0.0092
3731.00,0.0092
3730.00,0.0092
3729.00,0.0092
3728.00,0.0092
3727.00,0.0092
3726.00,0.0092
3725.00,0.0092
3724.00,0.0092
3723.00,0.0092
3722.00,0.0091
3721.00,0.0091
3720.00,0.0091
3719.00,0.0091
3718.00,0.0091
3717.00,0.0091
3716.00,0.0091
3715.00,0.0091
3714.00,0.0091
3713.00,0.0091
3712.00,0.0091
3711.00,0.0091
3710.00,0.0090
3709.00,0.0090
3708.00,0.0090
3707.00,0.0090
3706.00,0.0090
3705.00,0.0090
3704.00,0.0090
3703.00,0.0090
3702.00,0.0090
3701.00,0.0090
3700.00,0.0090
3699.00,0.0090
3698.00,0.0090
3697.00,0.0090
3696.00,0.0090
3695.00,0.0090
3694.00,0.0091
3693.00,0.0091
3692.00,0.0090
3691.00,0.0090
3690.00,0.0090
3689.00,0.0090
3688.00,0.0090
3687.00,0.0091
3686.00,0.0091
3685.00,0.0091
3684.00,0.0091
3683.00,0.0091
3682.00,0.0091
3681.00,0.0091
3680.00,0.0092
3679.00,0.0092
3678.00,0.0092
3677.00,0.0093
3676.00,0.0093
3675.00,0.0093
3674.00,0.0094
3673.00,0.0094
3672.00,0.0094
3671.00,0.0094
3670.00,0.0094
3669.00,0.0094
3668.00,0.0094
3667.00,0.0094
3666.00,0.0095
3665.00,0.0095
3664.00,0.0095
3663.00,0.0095
3662.00,0.0096
3661.00,0.0096
3660.00,0.0096
3659.00,0.0097
3658.00,0.0097
3657.00,0.0098
3656.00,0.0098
3655.00,0.0099
3654.00,0.0099
3653.00,0.0100
3652.00,0.0100
3651.00,0.0101
3650.00,0.0102
3649.00,0.0102
3648.00,0.0103
3647.00,0.0103
3646.00,0.0103
3645.00,0.0103
3644.00,0.0104
3643.00,0.0104
3642.00,0.0104
3641.00,0.0105
3640.00,0.0105
3639.00,0.0105
3638.00,0.0106
3637.00,0.0106
3636.00,0.0107
3635.00,0.0108
3634.00,0.0108
3633.00,0.0109
3632.00,0.0110
3631.00,0.0110
3630.00,0.0111
3629.00,0.0111
3628.00,0.0112
3627.00,0.0113
3626.00,0.0113
3625.00,0.0114
3624.00,0.0115
3623.00,0.0115
3622.00,0.0116
3621.00,0.0116
3620.00,0.0117
3619.00,0.0117
3618.00,0.0118
3617.00,0.0119
3616.00,0.0120
3615.00,0.0121
3614.00,0.0121
3613.00,0.0122
3612.00,0.0123
3611.00,0.0124
3610.00,0.0125
3609.00,0.0125
3608.00,0.0126
3607.00,0.0126
3606.00,0.0127
3605.00,0.0127
3604.00,0.0128
3603.00,0.0128
3602.00,0.0129
3601.00,0.0130
3600.00,0.0130
3599.00,0.0131
3598.00,0.0132
3597.00,0.0132
3596.00,0.0133
3595.00,0.0134
3594.00,0.0135
3593.00,0.0136
3592.00,0.0137
3591.00,0.0137
3590.00,0.0138
3589.00,0.0139
3588.00,0.0139
3587.00,0.0140
3586.00,0.0142
3585.00,0.0143
3584.00,0.0143
3583.00,0.0144
3582.00,0.0145
3581.00,0.0145
3580.00,0.0146
3579.00,0.0147
3578.00,0.0147
3577.00,0.0148
3576.00,0.0149
3575.00,0.0150
3574.00,0.0151
3573.00,0.0152
3572.00,0.0153
3571.00,0.0154
3570.00,0.0155
3569.00,0.0156
3568.00,0.0157
3567.00,0.0158
3566.00,0.0159
3565.00,0.0160
3564.00,0.0161
3563.00,0.0161
3562.00,0.0162
3561.00,0.0163
3560.00,0.0164
3559.00,0.0164
3558.00,0.0165
3557.00,0.0166
3556.00,0.0167
3555.00,0.0168
3554.00,0.0169
3553.00,0.0170
3552.00,0.0171
3551.00,0.0172
3550.00,0.0173
3549.00,0.0174
3548.00,0.0176
3547.00,0.0177
3546.00,0.0178
3545.00,0.0179
3544.00,0.0179
3543.00,0.0180
3542.00,0.0181
3541.00,0.0182
3540.00,0.0182
3539.00,0.0183
3538.00,0.0184
3537.00,0.0185
3536.00,0.0186
3535.00,0.0187
3534.00,0.0187
3533.00,0.0188
3532.00,0.0189
3531.00,0.0190
3530.00,0.0191
3529.00,0.0192
3528.00,0.0193
3527.00,0.0194
3526.00,0.0196
3525.00,0.0197
3524.00,0.0197
3523.00,0.0198
3522.00,0.0199
3521.00,0.0200
3520.00,0.0200
3519.00,0.0201
3518.00,0.0202
3517.00,0.0203
3516.00,0.0204
3515.00,0.0205
3514.00,0.0206
3513.00,0.0207
3512.00,0.0207
3511.00,0.0208
3510.00,0.0209
3509.00,0.0210
3508.00,0.0211
3507.00,0.0212
3506.00,0.0213
3505.00,0.0214
3504.00,0.0216
3503.00,0.0217
3502.00,0.0218
3501.00,0.0219
3500.00,0.0219
3499.00,0.0220
3498.00,0.0221
3497.00,0.0222
3496.00,0.0223
3495.00,0.0224
3494.00,0.0225
3493.00,0.0226
3492.00,0.0226
3491.00,0.0227
3490.00,0.0228
3489.00,0.0229
3488.00,0.0230
3487.00,0.0231
3486.00,0.0232
3485.00,0.0233
3484.00,0.0234
3483.00,0.0235
3482.00,0.0237
3481.00,0.0238
3480.00,0.0239
3479.00,0.0240
3478.00,0.0241
3477.00,0.0242
3476.00,0.0243
3475.00,0.0244
3474.00,0.0245
3473.00,0.0246
3472.00,0.0247
3471.00,0.0248
3470.00,0.0249
3469.00,0.0250
3468.00,0.0251
3467.00,0.0252
3466.00,0.0252
3465.00,0.0253
3464.00,0.0254
3463.00,0.0255
3462.00,0.0256
3461.00,0.0257
3460.00,0.0258
3459.00,0.0259
3458.00,0.0260
3457.00,0.0261
3456.00,0.0261
3455.00,0.0262
3454.00,0.0263
3453.00,0.0264
3452.00,0.0265
3451.00,0.0266
3450.00,0.0267
3449.00,0.0268
3448.00,0.0269
3447.00,0.0270
3446.00,0.0271
3445.00,0.0272
3444.00,0.0273
3443.00,0.0274
3442.00,0.0275
3441.00,0.0276
3440.00,0.0277
3439.00,0.0278
3438.00,0.0279
3437.00,0.0280
3436.00,0.0281
3435.00,0.0282
3434.00,0.0283
3433.00,0.0284
3432.00,0.0285
3431.00,0.0286
3430.00,0.0287
3429.00,0.0287
3428.00,0.0288
3427.00,0.0289
3426.00,0.0290
3425.00,0.0291
3424.00,0.0292
3423.00,0.0293
3422.00,0.0294
3421.00,0.0295
3420.00,0.0296
3419.00,0.0297
3418.00,0.0298
3417.00,0.0299
3416.00,0.0299
3415.00,0.0300
3414.00,0.0301
3413.00,0.0302
3412.00,0.0303
3411.00,0.0304
3410.00,0.0305
3409.00,0.0306
3408.00,0.0306
3407.00,0.0307
3406.00,0.0308
3405.00,0.0309
3404.00,0.0310
3403.00,0.0311
3402.00,0.0312
3401.00,0.0313
3400.00,0.0314
3399.00,0.0314
3398.00,0.0315
3397.00,0.0316
3396.00,0.0317
3395.00,0.0318
3394.00,0.0318
3393.00,0.0319
3392.00,0.0320
3391.00,0.0321
3390.00,0.0322
3389.00,0.0322
3388.00,0.0323
3387.00,0.0324
3386.00,0.0325
3385.00,0.0325
3384.00,0.0326
3383.00,0.0327
3382.00,0.0328
3381.00,0.0329
3380.00,0.0330
3379.00,0.0331
3378.00,0.0332
3377.00,0.0333
3376.00,0.0334
3375.00,0.0335
3374.00,0.0336
3373.00,0.0337
3372.00,0.0338
3371.00,0.0340
3370.00,0.0341
3369.00,0.0342
3368.00,0.0343
3367.00,0.0344
3366.00,0.0345
3365.00,0.0347
3364.00,0.0348
3363.00,0.0349
3362.00,0.0350
3361.00,0.0352
3360.00,0.0353
3359.00,0.0354
3358.00,0.0355
3357.00,0.0357
3356.00,0.0358
3355.00,0.0360
3354.00,0.0361
3353.00,0.0362
3352.00,0.0364
3351.00,0.0365
3350.00,0.0367
3349.00,0.0368
3348.00,0.0370
3347.00,0.0372
3346.00,0.0373
3345.00,0.0375
3344.00,0.0377
3343.00,0.0378
3342.00,0.0380
3341.00,0.0382
3340.00,0.0383
3339.00,0.0385
3338.00,0.0387
3337.00,0.0389
3336.00,0.0390
3335.00,0.0392
3334.00,0.0394
3333.00,0.0396
3332.00,0.0398
3331.00,0.0400
3330.00,0.0403
3329.00,0.0405
3328.00,0.0407
3327.00,0.0409
3326.00,0.0412
3325.00,0.0414
3324.00,0.0416
3323.00,0.0418
3322.00,0.0420
3321.00,0.0423
3320.00,0.0425
3319.00,0.0428
3318.00,0.0430
3317.00,0.0433
3316.00,0.0435
3315.00,0.0438
3314.00,0.0440
3313.00,0.0443
3312.00,0.0446
3311.00,0.0448
3310.00,0.0451
3309.00,0.0453
3308.00,0.0456
3307.00,0.0459
3306.00,0.0461
3305.00,0.0464
3304.00,0.0467
3303.00,0.0470
3302.00,0.0473
3301.00,0.0475
3300.00,0.0478
3299.00,0.0481
3298.00,0.0484
3297.00,0.0486
3296.00,0.0489
3295.00,0.0492
3294.00,0.0494
3293.00,0.0497
3292.00,0.0499
3291.00,0.0501
3290.00,0.0504
3289.00,0.0506
3288.00,0.0508
3287.00,0.0510
3286.00,0.0512
3285.00,0.0514
3284.00,0.0516
3283.00,0.0517
3282.00,0.0518
3281.00,0.0519
3280.00,0.0520
3279.00,0.0521
3278.00,0.0521
3277.00,0.0522
3276.00,0.0522
3275.00,0.0522
3274.00,0.0522
3273.00,0.0521
3272.00,0.0520
3271.00,0.0519
3270.00,0.0518
3269.00,0.0517
3268.00,0.0516
3267.00,0.0515
3266.00,0.0513
3265.00,0.0511
3264.00,0.0509
3263.00,0.0507
3262.00,0.0505
3261.00,0.0503
3260.00,0.0500
3259.00,0.0498
3258.00,0.0495
3257.00,0.0493
3256.00,0.0490
3255.00,0.0488
3254.00,0.0486
3253.00,0.0483
3252.00,0.0481
3251.00,0.0478
3250.00,0.0476
3249.00,0.0473
3248.00,0.0471
3247.00,0.0469
3246.00,0.0467
3245.00,0.0464
3244.00,0.0462
3243.00,0.0460
3242.00,0.0458
3241.00,0.0456
3240.00,0.0453
3239.00,0.0451
3238.00,0.0449
3237.00,0.0447
3236.00,0.0445
3235.00,0.0443
3234.00,0.0441
3233.00,0.0440
3232.00,0.0438
3231.00,0.0436
3230.00,0.0435
3229.00,0.0433
3228.00,0.0432
3227.00,0.0430
3226.00,0.0429
3225.00,0.0427
3224.00,0.0426
3223.00,0.0424
3222.00,0.0423
3221.00,0.0421
3220.00,0.0420
3219.00,0.0418
3218.00,0.0417
3217.00,0.0416
3216.00,0.0414
3215.00,0.0413
3214.00,0.0412
3213.00,0.0410
3212.00,0.0409
3211.00,0.0408
3210.00,0.0406
3209.00,0.0405
3208.00,0.0404
3207.00,0.0402
3206.00,0.0401
3205.00,0.0400
3204.00,0.0398
3203.00,0.0397
3202.00,0.0396
3201.00,0.0395
3200.00,0.0393
3199.00,0.0392
3198.00,0.0391
3197.00,0.0389
3196.00,0.0388
3195.00,0.0386
3194.00,0.0385
3193.00,0.0383
3192.00,0.0382
3191.00,0.0380
3190.00,0.0379
3189.00,0.0377
3188.00,0.0376
3187.00,0.0374
3186.00,0.0372
3185.00,0.0371
3184.00,0.0369
3183.00,0.0367
3182.00,0.0366
3181.00,0.0364
3180.00,0.0363
3179.00,0.0361
3178.00,0.0359
3177.00,0.0358
3176.00,0.0356
3175.00,0.0354
3174.00,0.0353
3173.00,0.0351
3172.00,0.0349
3171.00,0.0348
3170.00,0.0346
3169.00,0.0344
3168.00,0.0343
3167.00,0.0341
3166.00,0.0339
3165.00,0.0338
3164.00,0.0336
3163.00,0.0334
3162.00,0.0333
3161.00,0.0331
3160.00,0.0329
3159.00,0.0328
3158.00,0.0326
3157.00,0.0325
3156.00,0.0324
3155.00,0.0322
3154.00,0.0321
3153.00,0.0319
3152.00,0.0318
3151.00,0.0316
3150.00,0.0315
3149.00,0.0314
3148.00,0.0312
3147.00,0.0311
3146.00,0.0310
3145.00,0.0308
3144.00,0.0307
3143.00,0.0306
3142.00,0.0305
3141.00,0.0304
3140.00,0.0302
3139.00,0.0301
3138.00,0.0300
3137.00,0.0299
3136.00,0.0298
3135.00,0.0297
3134.00,0.0296
3133.00,0.0295
3132.00,0.0294
3131.00,0.0293
3130.00,0.0292
3129.00,0.0291
3128.00,0.0291
3127.00,0.0290
3126.00,0.0289
3125.00,0.0288
3124.00,0.0287
3123.00,0.0287
3122.00,0.0286
3121.00,0.0285
3120.00,0.0285
3119.00,0.0284
3118.00,0.0284
3117.00,0.0283
3116.00,0.0283
3115.00,0.0283
3114.00,0.0283
3113.00,0.0282
3112.00,0.0282
3111.00,0.0282
3110.00,0.0282
3109.00,0.0281
3108.00,0.0281
3107.00,0.0282
3106.00,0.0282
3105.00,0.0282
3104.00,0.0282
3103.00,0.0282
3102.00,0.0282
3101.00,0.0282
3100.00,0.0282
3099.00,0.0282
3098.00,0.0282
3097.00,0.0282
3096.00,0.0283
3095.00,0.0283
3094.00,0.0283
3093.00,0.0283
3092.00,0.0283
3091.00,0.0284
3090.00,0.0284
3089.00,0.0285
3088.00,0.0285
3087.00,0.0285
3086.00,0.0285
3085.00,0.0285
3084.00,0.0285
3083.00,0.0285
3082.00,0.0285
3081.00,0.0285
3080.00,0.0285
3079.00,0.0286
3078.00,0.0286
3077.00,0.0286
3076.00,0.0286
3075.00,0.0287
3074.00,0.0287
3073.00,0.0287
3072.00,0.0287
3071.00,0.0287
3070.00,0.0286
3069.00,0.0286
3068.00,0.0286
3067.00,0.0285
3066.00,0.0285
3065.00,0.0285
3064.00,0.0285
3063.00,0.0284
3062.00,0.0284
3061.00,0.0284
3060.00,0.0283
3059.00,0.0282
3058.00,0.0281
3057.00,0.0281
3056.00,0.0280
3055.00,0.0279
3054.00,0.0278
3053.00,0.0277
3052.00,0.0276
3051.00,0.0275
3050.00,0.0274
3049.00,0.0273
3048.00,0.0272
3047.00,0.0271
3046.00,0.0270
3045.00,0.0268
3044.00,0.0267
3043.00,0.0266
3042.00,0.0265
3041.00,0.0264
3040.00,0.0264
3039.00,0.0263
3038.00,0.0262
3037.00,0.0261
3036.00,0.0260
3035.00,0.0259
3034.00,0.0258
3033.00,0.0257
3032.00,0.0256
3031.00,0.0255
3030.00,0.0254
3029.00,0.0253
3028.00,0.0252
3027.00,0.0251
3026.00,0.0250
3025.00,0.0249
3024.00,0.0248
3023.00,0.0247
3022.00,0.0246
3021.00,0.0245
3020.00,0.0243
3019.00,0.0242
3018.00,0.0241
3017.00,0.0240
3016.00,0.0240
3015.00,0.0239
3014.00,0.0238
3013.00,0.0237
3012.00,0.0237
3011.00,0.0237
3010.00,0.0236
3009.00,0.0236
3008.00,0.0236
3007.00,0.0236
3006.00,0.0235
3005.00,0.0235
3004.00,0.0235
3003.00,0.0235
3002.00,0.0235
3001.00,0.0235
3000.00,0.0235
2999.00,0.0235
2998.00,0.0236
2997.00,0.0236
2996.00,0.0237
2995.00,0.0237
2994.00,0.0238
2993.00,0.0239
2992.00,0.0240
2991.00,0.0241
2990.00,0.0242
2989.00,0.0244
2988.00,0.0245
2987.00,0.0246
2986.00,0.0248
2985.00,0.0249
2984.00,0.0250
2983.00,0.0252
2982.00,0.0253
2981.00,0.0255
2980.00,0.0256
2979.00,0.0258
2978.00,0.0259
2977.00,0.0260
2976.00,0.0262
2975.00,0.0263
2974.00,0.0264
2973.00,0.0265
2972.00,0.0266
2971.00,0.0268
2970.00,0.0268
2969.00,0.0269
2968.00,0.0270
2967.00,0.0270
2966.00,0.0270
2965.00,0.0270
2964.00,0.0271
2963.00,0.0271
2962.00,0.0270
2961.00,0.0270
2960.00,0.0270
2959.00,0.0269
2958.00,0.0269
2957.00,0.0268
2956.00,0.0268
2955.00,0.0267
2954.00,0.0267
2953.00,0.0266
2952.00,0.0266
2951.00,0.0266
2950.00,0.0266
2949.00,0.0266
2948.00,0.0266
2947.00,0.0267
2946.00,0.0267
2945.00,0.0268
2944.00,0.0269
2943.00,0.0271
2942.00,0.0272
2941.00,0.0273
2940.00,0.0274
2939.00,0.0275
2938.00,0.0276
2937.00,0.0277
2936.00,0.0277
2935.00,0.0278
2934.00,0.0278
2933.00,0.0278
2932.00,0.0277
2931.00,0.0276
2930.00,0.0275
2929.00,0.0273
2928.00,0.0271
2927.00,0.0269
2926.00,0.0266
2925.00,0.0263
2924.00,0.0259
2923.00,0.0255
2922.00,0.0250
2921.00,0.0245
2920.00,0.0239
2919.00,0.0233
2918.00,0.0228
2917.00,0.0224
2916.00,0.0222
2915.00,0.0222
2914.00,0.0225
2913.00,0.0228
2912.00,0.0232
2911.00,0.0235
2910.00,0.0237
2909.00,0.0238
2908.00,0.0239
2907.00,0.0239
2906.00,0.0239
2905.00,0.0238
2904.00,0.0238
2903.00,0.0238
2902.00,0.0237
2901.00,0.0237
2900.00,0.0236
2899.00,0.0236
2898.00,0.0235
2897.00,0.0235
2896.00,0.0235
2895.00,0.0234
2894.00,0.0234
2893.00,0.0234
2892.00,0.0234
2891.00,0.0234
2890.00,0.0234
2889.00,0.0234
2888.00,0.0235
2887.00,0.0235
2886.00,0.0235
2885.00,0.0236
2884.00,0.0237
2883.00,0.0237
2882.00,0.0238
2881.00,0.0239
2880.00,0.0240
2879.00,0.0240
2878.00,0.0241
2877.00,0.0241
2876.00,0.0242
2875.00,0.0241
2874.00,0.0241
2873.00,0.0240
2872.00,0.0240
2871.00,0.0239
2870.00,0.0237
2869.00,0.0236
2868.00,0.0234
2867.00,0.0233
2866.00,0.0231
2865.00,0.0229
2864.00,0.0228
2863.00,0.0226
2862.00,0.0225
2861.00,0.0224
2860.00,0.0223
2859.00,0.0221
2858.00,0.0220
2857.00,0.0219
2856.00,0.0217
2855.00,0.0215
2854.00,0.0211
2853.00,0.0207
2852.00,0.0203
2851.00,0.0198
2850.00,0.0193
2849.00,0.0191
2848.00,0.0190
2847.00,0.0192
2846.00,0.0196
2845.00,0.0199
2844.00,0.0201
2843.00,0.0203
2842.00,0.0204
2841.00,0.0204
2840.00,0.0204
2839.00,0.0204
2838.00,0.0204
2837.00,0.0203
2836.00,0.0203
2835.00,0.0203
2834.00,0.0202
2833.00,0.0202
2832.00,0.0201
2831.00,0.0201
2830.00,0.0201
2829.00,0.0200
2828.00,0.0200
2827.00,0.0200
2826.00,0.0199
2825.00,0.0199
2824.00,0.0199
2823.00,0.0198
2822.00,0.0198
2821.00,0.0198
2820.00,0.0197
2819.00,0.0197
2818.00,0.0197
2817.00,0.0196
2816.00,0.0196
2815.00,0.0196
2814.00,0.0195
2813.00,0.0195
2812.00,0.0195
2811.00,0.0195
2810.00,0.0194
2809.00,0.0194
2808.00,0.0194
2807.00,0.0193
2806.00,0.0193
2805.00,0.0193
2804.00,0.0192
2803.00,0.0192
2802.00,0.0192
2801.00,0.0191
2800.00,0.0191
2799.00,0.0191
2798.00,0.0190
2797.00,0.0190
2796.00,0.0190
2795.00,0.0189
2794.00,0.0189
2793.00,0.0189
2792.00,0.0189
2791.00,0.0188
2790.00,0.0188
2789.00,0.0188
2788.00,0.0187
2787.00,0.0187
2786.00,0.0187
2785.00,0.0187
2784.00,0.0186
2783.00,0.0186
2782.00,0.0186
2781.00,0.0185
2780.00,0.0185
2779.00,0.0184
2778.00,0.0184
2777.00,0.0184
2776.00,0.0184
2775.00,0.0183
2774.00,0.0183
2773.00,0.0183
2772.00,0.0183
2771.00,0.0182
2770.00,0.0182
2769.00,0.0182
2768.00,0.0182
2767.00,0.0181
2766.00,0.0181
2765.00,0.0181
2764.00,0.0180
2763.00,0.0180
2762.00,0.0180
2761.00,0.0180
2760.00,0.0179
2759.00,0.0179
2758.00,0.0179
2757.00,0.0179
