Created as New Dataset,Sample 335 By YargerLab Date Monday, August 19 2024
cm-1,A
4000.00,0.0096
3999.00,0.0096
3998.00,0.0096
3997.00,0.0096
3996.00,0.0097
3995.00,0.0097
3994.00,0.0097
3993.00,0.0097
3992.00,0.0097
3991.00,0.0096
3990.00,0.0096
3989.00,0.0096
3988.00,0.0096
3987.00,0.0096
3986.00,0.0097
3985.00,0.0097
3984.00,0.0097
3983.00,0.0097
3982.00,0.0097
3981.00,0.0097
3980.00,0.0097
3979.00,0.0097
3978.00,0.0097
3977.00,0.0097
3976.00,0.0097
3975.00,0.0097
3974.00,0.0097
3973.00,0.0097
3972.00,0.0097
3971.00,0.0096
3970.00,0.0096
3969.00,0.0096
3968.00,0.0096
3967.00,0.0097
3966.00,0.0097
3965.00,0.0097
3964.00,0.0097
3963.00,0.0097
3962.00,0.0097
3961.00,0.0097
3960.00,0.0096
3959.00,0.0096
3958.00,0.0096
3957.00,0.0097
3956.00,0.0097
3955.00,0.0097
3954.00,0.0097
3953.00,0.0097
3952.00,0.0097
3951.00,0.0097
3950.00,0.0097
3949.00,0.0097
3948.00,0.0097
3947.00,0.0097
3946.00,0.0097
3945.00,0.0097
3944.00,0.0097
3943.00,0.0097
3942.00,0.0096
3941.00,0.0096
3940.00,0.0096
3939.00,0.0096
3938.00,0.0096
3937.00,0.0096
3936.00,0.0096
3935.00,0.0096
3934.00,0.0097
3933.00,0.0097
3932.00,0.0097
3931.00,0.0097
3930.00,0.0096
3929.00,0.0096
3928.00,0.0096
3927.00,0.0096
3926.00,0.0096
3925.00,0.0096
3924.00,0.0096
3923.00,0.0096
3922.00,0.0097
3921.00,0.0097
3920.00,0.0097
3919.00,0.0097
3918.00,0.0097
3917.00,0.0096
3916.00,0.0096
3915.00,0.0096
3914.00,0.0096
3913.00,0.0096
3912.00,0.0096
3911.00,0.0096
3910.00,0.0096
3909.00,0.0096
3908.00,0.0096
3907.00,0.0096
3906.00,0.0096
3905.00,0.0096
3904.00,0.0096
3903.00,0.0097
3902.00,0.0097
3901.00,0.0097
3900.00,0.0096
3899.00,0.0096
3898.00,0.0096
3897.00,0.0096
3896.00,0.0096
3895.00,0.0096
3894.00,0.0096
3893.00,0.0096
3892.00,0.0096
3891.00,0.0095
3890.00,0.0095
3889.00,0.0095
3888.00,0.0096
3887.00,0.0096
3886.00,0.0096
3885.00,0.0096
3884.00,0.0096
3883.00,0.0096
3882.00,0.0096
3881.00,0.0095
3880.00,0.0096
3879.00,0.0096
3878.00,0.0096
3877.00,0.0095
3876.00,0.0095
3875.00,0.0095
3874.00,0.0095
3873.00,0.0095
3872.00,0.0095
3871.00,0.0095
3870.00,0.0096
3869.00,0.0096
3868.00,0.0095
3867.00,0.0095
3866.00,0.0095
3865.00,0.0095
3864.00,0.0095
3863.00,0.0095
3862.00,0.0095
3861.00,0.0095
3860.00,0.0095
3859.00,0.0095
3858.00,0.0095
3857.00,0.0095
3856.00,0.0095
3855.00,0.0095
3854.00,0.0095
3853.00,0.0095
3852.00,0.0095
3851.00,0.0095
3850.00,0.0095
3849.00,0.0095
3848.00,0.0095
3847.00,0.0095
3846.00,0.0095
3845.00,0.0095
3844.00,0.0095
3843.00,0.0095
3842.00,0.0095
3841.00,0.0095
3840.00,0.0095
3839.00,0.0095
3838.00,0.0095
3837.00,0.0095
3836.00,0.0094
3835.00,0.0094
3834.00,0.0094
3833.00,0.0094
3832.00,0.0094
3831.00,0.0094
3830.00,0.0094
3829.00,0.0094
3828.00,0.0094
3827.00,0.0095
3826.00,0.0095
3825.00,0.0094
3824.00,0.0094
3823.00,0.0095
3822.00,0.0095
3821.00,0.0094
3820.00,0.0094
3819.00,0.0094
3818.00,0.0094
3817.00,0.0094
3816.00,0.0094
3815.00,0.0094
3814.00,0.0094
3813.00,0.0094
3812.00,0.0094
3811.00,0.0094
3810.00,0.0093
3809.00,0.0093
3808.00,0.0094
3807.00,0.0094
3806.00,0.0094
3805.00,0.0094
3804.00,0.0094
3803.00,0.0094
3802.00,0.0094
3801.00,0.0094
3800.00,0.0094
3799.00,0.0094
3798.00,0.0093
3797.00,0.0093
3796.00,0.0093
3795.00,0.0093
3794.00,0.0093
3793.00,0.0093
3792.00,0.0093
3791.00,0.0093
3790.00,0.0093
3789.00,0.0093
3788.00,0.0093
3787.00,0.0093
3786.00,0.0093
3785.00,0.0093
3784.00,0.0093
3783.00,0.0093
3782.00,0.0093
3781.00,0.0093
3780.00,0.0093
3779.00,0.0093
3778.00,0.0093
3777.00,0.0093
3776.00,0.0093
3775.00,0.0093
3774.00,0.0093
3773.00,0.0093
3772.00,0.0093
3771.00,0.0093
3770.00,0.0093
3769.00,0.0093
3768.00,0.0093
3767.00,0.0093
3766.00,0.0093
3765.00,0.0093
3764.00,0.0093
3763.00,0.0093
3762.00,0.0093
3761.00,0.0093
3760.00,0.0093
3759.00,0.0093
3758.00,0.0093
3757.00,0.0093
3756.00,0.0093
3755.00,0.0093
3754.00,0.0093
3753.00,0.0093
3752.00,0.0093
3751.00,0.0093
3750.00,0.0093
3749.00,0.0093
3748.00,0.0093
3747.00,0.0093
3746.00,0.0093
3745.00,0.0093
3744.00,0.0093
3743.00,0.0093
3742.00,0.0092
3741.00,0.0092
3740.00,0.0093
3739.00,0.0093
3738.00,0.0093
3737.00,0.0093
3736.00,0.0092
3735.00,0.0092
3734.00,0.0092
3733.00,0.0092
3732.00,0.0091
3731.00,0.0091
3730.00,0.0091
3729.00,0.0091
3728.00,0.0091
3727.00,0.0091
3726.00,0.0091
3725.00,0.0091
3724.00,0.0091
3723.00,0.0091
3722.00,0.0091
3721.00,0.0091
3720.00,0.0091
3719.00,0.0091
3718.00,0.0090
3717.00,0.0090
3716.00,0.0090
3715.00,0.0090
3714.00,0.0090
3713.00,0.0090
3712.00,0.0090
3711.00,0.0090
3710.00,0.0090
3709.00,0.0090
3708.00,0.0090
3707.00,0.0090
3706.00,0.0090
3705.00,0.0090
3704.00,0.0090
3703.00,0.0090
3702.00,0.0089
3701.00,0.0089
3700.00,0.0089
3699.00,0.0089
3698.00,0.0090
3697.00,0.0090
3696.00,0.0090
3695.00,0.0090
3694.00,0.0090
3693.00,0.0090
3692.00,0.0090
3691.00,0.0090
3690.00,0.0090
3689.00,0.0090
3688.00,0.0090
3687.00,0.0090
3686.00,0.0090
3685.00,0.0090
3684.00,0.0090
3683.00,0.0090
3682.00,0.0090
3681.00,0.0091
3680.00,0.0091
3679.00,0.0091
3678.00,0.0091
3677.00,0.0092
3676.00,0.0092
3675.00,0.0092
3674.00,0.0092
3673.00,0.0092
3672.00,0.0092
3671.00,0.0092
3670.00,0.0092
3669.00,0.0092
3668.00,0.0092
3667.00,0.0092
3666.00,0.0093
3665.00,0.0093
3664.00,0.0093
3663.00,0.0094
3662.00,0.0094
3661.00,0.0094
3660.00,0.0095
3659.00,0.0095
3658.00,0.0095
3657.00,0.0096
3656.00,0.0096
3655.00,0.0096
3654.00,0.0097
3653.00,0.0097
3652.00,0.0097
3651.00,0.0098
3650.00,0.0099
3649.00,0.0099
3648.00,0.0100
3647.00,0.0100
3646.00,0.0100
3645.00,0.0100
3644.00,0.0100
3643.00,0.0100
3642.00,0.0101
3641.00,0.0101
3640.00,0.0101
3639.00,0.0102
3638.00,0.0102
3637.00,0.0103
3636.00,0.0103
3635.00,0.0104
3634.00,0.0104
3633.00,0.0105
3632.00,0.0105
3631.00,0.0106
3630.00,0.0106
3629.00,0.0107
3628.00,0.0107
3627.00,0.0108
3626.00,0.0108
3625.00,0.0109
3624.00,0.0109
3623.00,0.0110
3622.00,0.0110
3621.00,0.0111
3620.00,0.0111
3619.00,0.0112
3618.00,0.0112
3617.00,0.0113
3616.00,0.0114
3615.00,0.0114
3614.00,0.0115
3613.00,0.0115
3612.00,0.0116
3611.00,0.0117
3610.00,0.0117
3609.00,0.0118
3608.00,0.0118
3607.00,0.0118
3606.00,0.0119
3605.00,0.0119
3604.00,0.0120
3603.00,0.0121
3602.00,0.0121
3601.00,0.0122
3600.00,0.0122
3599.00,0.0123
3598.00,0.0123
3597.00,0.0124
3596.00,0.0124
3595.00,0.0125
3594.00,0.0126
3593.00,0.0126
3592.00,0.0127
3591.00,0.0127
3590.00,0.0128
3589.00,0.0129
3588.00,0.0129
3587.00,0.0130
3586.00,0.0131
3585.00,0.0131
3584.00,0.0132
3583.00,0.0133
3582.00,0.0133
3581.00,0.0134
3580.00,0.0134
3579.00,0.0135
3578.00,0.0135
3577.00,0.0136
3576.00,0.0137
3575.00,0.0137
3574.00,0.0138
3573.00,0.0139
3572.00,0.0139
3571.00,0.0140
3570.00,0.0140
3569.00,0.0141
3568.00,0.0142
3567.00,0.0143
3566.00,0.0144
3565.00,0.0145
3564.00,0.0146
3563.00,0.0146
3562.00,0.0147
3561.00,0.0147
3560.00,0.0148
3559.00,0.0149
3558.00,0.0149
3557.00,0.0150
3556.00,0.0150
3555.00,0.0151
3554.00,0.0152
3553.00,0.0152
3552.00,0.0153
3551.00,0.0154
3550.00,0.0155
3549.00,0.0156
3548.00,0.0157
3547.00,0.0157
3546.00,0.0158
3545.00,0.0159
3544.00,0.0160
3543.00,0.0160
3542.00,0.0161
3541.00,0.0161
3540.00,0.0162
3539.00,0.0162
3538.00,0.0163
3537.00,0.0164
3536.00,0.0164
3535.00,0.0165
3534.00,0.0166
3533.00,0.0167
3532.00,0.0167
3531.00,0.0168
3530.00,0.0169
3529.00,0.0170
3528.00,0.0170
3527.00,0.0171
3526.00,0.0172
3525.00,0.0173
3524.00,0.0173
3523.00,0.0174
3522.00,0.0175
3521.00,0.0175
3520.00,0.0176
3519.00,0.0176
3518.00,0.0177
3517.00,0.0178
3516.00,0.0178
3515.00,0.0179
3514.00,0.0180
3513.00,0.0181
3512.00,0.0181
3511.00,0.0182
3510.00,0.0183
3509.00,0.0183
3508.00,0.0184
3507.00,0.0185
3506.00,0.0186
3505.00,0.0186
3504.00,0.0187
3503.00,0.0188
3502.00,0.0189
3501.00,0.0190
3500.00,0.0190
3499.00,0.0191
3498.00,0.0192
3497.00,0.0192
3496.00,0.0193
3495.00,0.0194
3494.00,0.0194
3493.00,0.0195
3492.00,0.0196
3491.00,0.0197
3490.00,0.0198
3489.00,0.0199
3488.00,0.0199
3487.00,0.0200
3486.00,0.0201
3485.00,0.0202
3484.00,0.0203
3483.00,0.0204
3482.00,0.0205
3481.00,0.0205
3480.00,0.0206
3479.00,0.0207
3478.00,0.0208
3477.00,0.0209
3476.00,0.0210
3475.00,0.0210
3474.00,0.0211
3473.00,0.0212
3472.00,0.0213
3471.00,0.0214
3470.00,0.0215
3469.00,0.0216
3468.00,0.0217
3467.00,0.0218
3466.00,0.0218
3465.00,0.0219
3464.00,0.0220
3463.00,0.0221
3462.00,0.0222
3461.00,0.0223
3460.00,0.0224
3459.00,0.0225
3458.00,0.0225
3457.00,0.0226
3456.00,0.0227
3455.00,0.0228
3454.00,0.0229
3453.00,0.0230
3452.00,0.0231
3451.00,0.0231
3450.00,0.0232
3449.00,0.0233
3448.00,0.0234
3447.00,0.0235
3446.00,0.0236
3445.00,0.0236
3444.00,0.0237
3443.00,0.0238
3442.00,0.0239
3441.00,0.0240
3440.00,0.0241
3439.00,0.0242
3438.00,0.0243
3437.00,0.0244
3436.00,0.0245
3435.00,0.0245
3434.00,0.0246
3433.00,0.0247
3432.00,0.0248
3431.00,0.0249
3430.00,0.0249
3429.00,0.0250
3428.00,0.0251
3427.00,0.0251
3426.00,0.0252
3425.00,0.0253
3424.00,0.0254
3423.00,0.0254
3422.00,0.0255
3421.00,0.0256
3420.00,0.0257
3419.00,0.0258
3418.00,0.0258
3417.00,0.0259
3416.00,0.0260
3415.00,0.0261
3414.00,0.0262
3413.00,0.0262
3412.00,0.0263
3411.00,0.0264
3410.00,0.0264
3409.00,0.0265
3408.00,0.0265
3407.00,0.0266
3406.00,0.0267
3405.00,0.0268
3404.00,0.0268
3403.00,0.0269
3402.00,0.0270
3401.00,0.0271
3400.00,0.0271
3399.00,0.0272
3398.00,0.0272
3397.00,0.0273
3396.00,0.0274
3395.00,0.0274
3394.00,0.0275
3393.00,0.0275
3392.00,0.0276
3391.00,0.0277
3390.00,0.0278
3389.00,0.0278
3388.00,0.0279
3387.00,0.0280
3386.00,0.0280
3385.00,0.0281
3384.00,0.0282
3383.00,0.0283
3382.00,0.0284
3381.00,0.0284
3380.00,0.0285
3379.00,0.0286
3378.00,0.0287
3377.00,0.0287
3376.00,0.0288
3375.00,0.0289
3374.00,0.0290
3373.00,0.0291
3372.00,0.0292
3371.00,0.0293
3370.00,0.0294
3369.00,0.0295
3368.00,0.0296
3367.00,0.0297
3366.00,0.0298
3365.00,0.0299
3364.00,0.0300
3363.00,0.0301
3362.00,0.0302
3361.00,0.0303
3360.00,0.0304
3359.00,0.0305
3358.00,0.0306
3357.00,0.0307
3356.00,0.0309
3355.00,0.0310
3354.00,0.0311
3353.00,0.0312
3352.00,0.0313
3351.00,0.0314
3350.00,0.0315
3349.00,0.0316
3348.00,0.0317
3347.00,0.0319
3346.00,0.0320
3345.00,0.0321
3344.00,0.0322
3343.00,0.0324
3342.00,0.0325
3341.00,0.0327
3340.00,0.0328
3339.00,0.0329
3338.00,0.0331
3337.00,0.0332
3336.00,0.0334
3335.00,0.0336
3334.00,0.0337
3333.00,0.0339
3332.00,0.0340
3331.00,0.0342
3330.00,0.0344
3329.00,0.0345
3328.00,0.0347
3327.00,0.0348
3326.00,0.0350
3325.00,0.0352
3324.00,0.0354
3323.00,0.0356
3322.00,0.0358
3321.00,0.0360
3320.00,0.0362
3319.00,0.0364
3318.00,0.0366
3317.00,0.0368
3316.00,0.0371
3315.00,0.0373
3314.00,0.0375
3313.00,0.0377
3312.00,0.0379
3311.00,0.0381
3310.00,0.0383
3309.00,0.0386
3308.00,0.0388
3307.00,0.0390
3306.00,0.0393
3305.00,0.0396
3304.00,0.0398
3303.00,0.0401
3302.00,0.0404
3301.00,0.0406
3300.00,0.0409
3299.00,0.0411
3298.00,0.0413
3297.00,0.0416
3296.00,0.0418
3295.00,0.0421
3294.00,0.0423
3293.00,0.0426
3292.00,0.0429
3291.00,0.0431
3290.00,0.0434
3289.00,0.0436
3288.00,0.0438
3287.00,0.0440
3286.00,0.0442
3285.00,0.0444
3284.00,0.0446
3283.00,0.0448
3282.00,0.0449
3281.00,0.0451
3280.00,0.0452
3279.00,0.0453
3278.00,0.0454
3277.00,0.0455
3276.00,0.0455
3275.00,0.0455
3274.00,0.0455
3273.00,0.0455
3272.00,0.0454
3271.00,0.0454
3270.00,0.0454
3269.00,0.0453
3268.00,0.0452
3267.00,0.0452
3266.00,0.0450
3265.00,0.0449
3264.00,0.0448
3263.00,0.0446
3262.00,0.0444
3261.00,0.0442
3260.00,0.0440
3259.00,0.0438
3258.00,0.0436
3257.00,0.0434
3256.00,0.0432
3255.00,0.0431
3254.00,0.0429
3253.00,0.0427
3252.00,0.0425
3251.00,0.0423
3250.00,0.0421
3249.00,0.0419
3248.00,0.0417
3247.00,0.0415
3246.00,0.0414
3245.00,0.0413
3244.00,0.0411
3243.00,0.0410
3242.00,0.0408
3241.00,0.0406
3240.00,0.0405
3239.00,0.0403
3238.00,0.0402
3237.00,0.0400
3236.00,0.0398
3235.00,0.0397
3234.00,0.0395
3233.00,0.0394
3232.00,0.0394
3231.00,0.0393
3230.00,0.0392
3229.00,0.0391
3228.00,0.0390
3227.00,0.0389
3226.00,0.0388
3225.00,0.0387
3224.00,0.0386
3223.00,0.0386
3222.00,0.0385
3221.00,0.0384
3220.00,0.0383
3219.00,0.0382
3218.00,0.0381
3217.00,0.0381
3216.00,0.0380
3215.00,0.0379
3214.00,0.0378
3213.00,0.0378
3212.00,0.0377
3211.00,0.0376
3210.00,0.0375
3209.00,0.0375
3208.00,0.0374
3207.00,0.0373
3206.00,0.0373
3205.00,0.0372
3204.00,0.0371
3203.00,0.0371
3202.00,0.0370
3201.00,0.0369
3200.00,0.0369
3199.00,0.0368
3198.00,0.0367
3197.00,0.0367
3196.00,0.0366
3195.00,0.0365
3194.00,0.0364
3193.00,0.0363
3192.00,0.0363
3191.00,0.0362
3190.00,0.0361
3189.00,0.0360
3188.00,0.0359
3187.00,0.0358
3186.00,0.0357
3185.00,0.0356
3184.00,0.0356
3183.00,0.0355
3182.00,0.0354
3181.00,0.0353
3180.00,0.0352
3179.00,0.0351
3178.00,0.0350
3177.00,0.0349
3176.00,0.0348
3175.00,0.0347
3174.00,0.0346
3173.00,0.0345
3172.00,0.0344
3171.00,0.0343
3170.00,0.0341
3169.00,0.0340
3168.00,0.0339
3167.00,0.0338
3166.00,0.0337
3165.00,0.0336
3164.00,0.0335
3163.00,0.0334
3162.00,0.0333
3161.00,0.0332
3160.00,0.0331
3159.00,0.0330
3158.00,0.0329
3157.00,0.0328
3156.00,0.0327
3155.00,0.0326
3154.00,0.0325
3153.00,0.0324
3152.00,0.0323
3151.00,0.0322
3150.00,0.0321
3149.00,0.0320
3148.00,0.0320
3147.00,0.0319
3146.00,0.0318
3145.00,0.0317
3144.00,0.0316
3143.00,0.0316
3142.00,0.0315
3141.00,0.0314
3140.00,0.0313
3139.00,0.0312
3138.00,0.0311
3137.00,0.0311
3136.00,0.0310
3135.00,0.0309
3134.00,0.0309
3133.00,0.0308
3132.00,0.0307
3131.00,0.0307
3130.00,0.0306
3129.00,0.0306
3128.00,0.0305
3127.00,0.0305
3126.00,0.0304
3125.00,0.0304
3124.00,0.0303
3123.00,0.0303
3122.00,0.0302
3121.00,0.0302
3120.00,0.0301
3119.00,0.0301
3118.00,0.0301
3117.00,0.0301
3116.00,0.0301
3115.00,0.0301
3114.00,0.0301
3113.00,0.0301
3112.00,0.0301
3111.00,0.0301
3110.00,0.0301
3109.00,0.0301
3108.00,0.0301
3107.00,0.0301
3106.00,0.0301
3105.00,0.0301
3104.00,0.0302
3103.00,0.0302
3102.00,0.0302
3101.00,0.0302
3100.00,0.0302
3099.00,0.0303
3098.00,0.0303
3097.00,0.0304
3096.00,0.0304
3095.00,0.0304
3094.00,0.0304
3093.00,0.0305
3092.00,0.0305
3091.00,0.0305
3090.00,0.0306
3089.00,0.0306
3088.00,0.0306
3087.00,0.0306
3086.00,0.0306
3085.00,0.0307
3084.00,0.0307
3083.00,0.0307
3082.00,0.0307
3081.00,0.0308
3080.00,0.0308
3079.00,0.0308
3078.00,0.0309
3077.00,0.0309
3076.00,0.0310
3075.00,0.0310
3074.00,0.0310
3073.00,0.0310
3072.00,0.0310
3071.00,0.0310
3070.00,0.0310
3069.00,0.0309
3068.00,0.0309
3067.00,0.0309
3066.00,0.0309
3065.00,0.0309
3064.00,0.0309
3063.00,0.0309
3062.00,0.0309
3061.00,0.0308
3060.00,0.0308
3059.00,0.0307
3058.00,0.0306
3057.00,0.0306
3056.00,0.0305
3055.00,0.0304
3054.00,0.0304
3053.00,0.0303
3052.00,0.0302
3051.00,0.0301
3050.00,0.0301
3049.00,0.0300
3048.00,0.0299
3047.00,0.0298
3046.00,0.0297
3045.00,0.0296
3044.00,0.0295
3043.00,0.0294
3042.00,0.0294
3041.00,0.0293
3040.00,0.0293
3039.00,0.0292
3038.00,0.0291
3037.00,0.0290
3036.00,0.0289
3035.00,0.0288
3034.00,0.0287
3033.00,0.0287
3032.00,0.0286
3031.00,0.0286
3030.00,0.0285
3029.00,0.0284
3028.00,0.0284
3027.00,0.0283
3026.00,0.0282
3025.00,0.0281
3024.00,0.0280
3023.00,0.0279
3022.00,0.0278
3021.00,0.0277
3020.00,0.0276
3019.00,0.0275
3018.00,0.0274
3017.00,0.0273
3016.00,0.0272
3015.00,0.0271
3014.00,0.0270
3013.00,0.0270
3012.00,0.0270
3011.00,0.0269
3010.00,0.0269
3009.00,0.0269
3008.00,0.0269
3007.00,0.0269
3006.00,0.0268
3005.00,0.0268
3004.00,0.0268
3003.00,0.0268
3002.00,0.0268
3001.00,0.0268
3000.00,0.0268
2999.00,0.0267
2998.00,0.0267
2997.00,0.0268
2996.00,0.0268
2995.00,0.0268
2994.00,0.0268
2993.00,0.0269
2992.00,0.0270
2991.00,0.0271
2990.00,0.0272
2989.00,0.0272
2988.00,0.0273
2987.00,0.0274
2986.00,0.0275
2985.00,0.0276
2984.00,0.0277
2983.00,0.0278
2982.00,0.0279
2981.00,0.0280
2980.00,0.0281
2979.00,0.0282
2978.00,0.0284
2977.00,0.0285
2976.00,0.0286
2975.00,0.0287
2974.00,0.0288
2973.00,0.0289
2972.00,0.0290
2971.00,0.0291
2970.00,0.0292
2969.00,0.0292
2968.00,0.0293
2967.00,0.0293
2966.00,0.0294
2965.00,0.0294
2964.00,0.0294
2963.00,0.0294
2962.00,0.0294
2961.00,0.0293
2960.00,0.0293
2959.00,0.0292
2958.00,0.0292
2957.00,0.0292
2956.00,0.0291
2955.00,0.0291
2954.00,0.0291
2953.00,0.0291
2952.00,0.0291
2951.00,0.0291
2950.00,0.0291
2949.00,0.0291
2948.00,0.0291
2947.00,0.0292
2946.00,0.0292
2945.00,0.0293
2944.00,0.0294
2943.00,0.0295
2942.00,0.0296
2941.00,0.0297
2940.00,0.0298
2939.00,0.0298
2938.00,0.0299
2937.00,0.0300
2936.00,0.0300
2935.00,0.0300
2934.00,0.0300
2933.00,0.0300
2932.00,0.0299
2931.00,0.0299
2930.00,0.0297
2929.00,0.0296
2928.00,0.0294
2927.00,0.0292
2926.00,0.0289
2925.00,0.0286
2924.00,0.0282
2923.00,0.0277
2922.00,0.0272
2921.00,0.0267
2920.00,0.0261
2919.00,0.0255
2918.00,0.0250
2917.00,0.0246
2916.00,0.0244
2915.00,0.0245
2914.00,0.0248
2913.00,0.0253
2912.00,0.0257
2911.00,0.0261
2910.00,0.0264
2909.00,0.0265
2908.00,0.0266
2907.00,0.0267
2906.00,0.0267
2905.00,0.0267
2904.00,0.0266
2903.00,0.0266
2902.00,0.0266
2901.00,0.0265
2900.00,0.0265
2899.00,0.0264
2898.00,0.0264
2897.00,0.0263
2896.00,0.0263
2895.00,0.0263
2894.00,0.0262
2893.00,0.0262
2892.00,0.0262
2891.00,0.0262
2890.00,0.0262
2889.00,0.0262
2888.00,0.0262
2887.00,0.0262
2886.00,0.0262
2885.00,0.0262
2884.00,0.0263
2883.00,0.0263
2882.00,0.0264
2881.00,0.0265
2880.00,0.0265
2879.00,0.0266
2878.00,0.0266
2877.00,0.0266
2876.00,0.0266
2875.00,0.0266
2874.00,0.0266
2873.00,0.0266
2872.00,0.0265
2871.00,0.0265
2870.00,0.0264
2869.00,0.0263
2868.00,0.0262
2867.00,0.0260
2866.00,0.0259
2865.00,0.0258
2864.00,0.0257
2863.00,0.0256
2862.00,0.0255
2861.00,0.0254
2860.00,0.0253
2859.00,0.0252
2858.00,0.0251
2857.00,0.0249
2856.00,0.0247
2855.00,0.0245
2854.00,0.0241
2853.00,0.0237
2852.00,0.0232
2851.00,0.0226
2850.00,0.0221
2849.00,0.0219
2848.00,0.0219
2847.00,0.0221
2846.00,0.0225
2845.00,0.0229
2844.00,0.0232
2843.00,0.0234
2842.00,0.0236
2841.00,0.0236
2840.00,0.0236
2839.00,0.0236
2838.00,0.0236
2837.00,0.0235
2836.00,0.0235
2835.00,0.0235
2834.00,0.0234
2833.00,0.0234
2832.00,0.0234
2831.00,0.0233
2830.00,0.0233
2829.00,0.0232
2828.00,0.0232
2827.00,0.0232
2826.00,0.0231
2825.00,0.0231
2824.00,0.0230
2823.00,0.0230
2822.00,0.0229
2821.00,0.0229
2820.00,0.0229
2819.00,0.0228
2818.00,0.0228
2817.00,0.0228
2816.00,0.0227
2815.00,0.0227
2814.00,0.0227
2813.00,0.0226
2812.00,0.0226
2811.00,0.0225
2810.00,0.0225
2809.00,0.0224
2808.00,0.0224
2807.00,0.0224
2806.00,0.0223
2805.00,0.0223
2804.00,0.0223
2803.00,0.0222
2802.00,0.0222
2801.00,0.0222
2800.00,0.0221
2799.00,0.0221
2798.00,0.0220
2797.00,0.0220
2796.00,0.0220
2795.00,0.0219
2794.00,0.0219
2793.00,0.0219
2792.00,0.0218
2791.00,0.0218
2790.00,0.0218
2789.00,0.0217
2788.00,0.0217
2787.00,0.0217
2786.00,0.0217
2785.00,0.0217
2784.00,0.0216
2783.00,0.0216
2782.00,0.0216
2781.00,0.0215
2780.00,0.0215
2779.00,0.0215
2778.00,0.0214
2777.00,0.0214
2776.00,0.0214
2775.00,0.0213
2774.00,0.0213
2773.00,0.0213
2772.00,0.0213
2771.00,0.0213
2770.00,0.0212
2769.00,0.0212
2768.00,0.0212
2767.00,0.0211
2766.00,0.0211
2765.00,0.0211
2764.00,0.0211
2763.00,0.0211
2762.00,0.0210
2761.00,0.0210
2760.00,0.0210
2759.00,0.0209
2758.00,0.0209
2757.00,0.0209
