Created as New Dataset,Sample 323 By YargerLab Date Monday, August 19 2024
cm-1,A
4000.00,0.0080
3999.00,0.0080
3998.00,0.0080
3997.00,0.0080
3996.00,0.0080
3995.00,0.0080
3994.00,0.0080
3993.00,0.0080
3992.00,0.0080
3991.00,0.0080
3990.00,0.0080
3989.00,0.0080
3988.00,0.0080
3987.00,0.0080
3986.00,0.0081
3985.00,0.0081
3984.00,0.0080
3983.00,0.0080
3982.00,0.0080
3981.00,0.0080
3980.00,0.0080
3979.00,0.0080
3978.00,0.0080
3977.00,0.0080
3976.00,0.0080
3975.00,0.0080
3974.00,0.0080
3973.00,0.0080
3972.00,0.0080
3971.00,0.0080
3970.00,0.0080
3969.00,0.0080
3968.00,0.0080
3967.00,0.0080
3966.00,0.0080
3965.00,0.0080
3964.00,0.0080
3963.00,0.0080
3962.00,0.0080
3961.00,0.0080
3960.00,0.0080
3959.00,0.0080
3958.00,0.0080
3957.00,0.0080
3956.00,0.0080
3955.00,0.0080
3954.00,0.0080
3953.00,0.0080
3952.00,0.0080
3951.00,0.0080
3950.00,0.0080
3949.00,0.0080
3948.00,0.0080
3947.00,0.0080
3946.00,0.0080
3945.00,0.0080
3944.00,0.0080
3943.00,0.0080
3942.00,0.0080
3941.00,0.0080
3940.00,0.0080
3939.00,0.0080
3938.00,0.0080
3937.00,0.0080
3936.00,0.0080
3935.00,0.0080
3934.00,0.0080
3933.00,0.0080
3932.00,0.0080
3931.00,0.0080
3930.00,0.0080
3929.00,0.0080
3928.00,0.0079
3927.00,0.0079
3926.00,0.0079
3925.00,0.0080
3924.00,0.0080
3923.00,0.0080
3922.00,0.0080
3921.00,0.0080
3920.00,0.0080
3919.00,0.0080
3918.00,0.0080
3917.00,0.0080
3916.00,0.0080
3915.00,0.0079
3914.00,0.0079
3913.00,0.0079
3912.00,0.0079
3911.00,0.0079
3910.00,0.0080
3909.00,0.0080
3908.00,0.0079
3907.00,0.0079
3906.00,0.0079
3905.00,0.0079
3904.00,0.0079
3903.00,0.0079
3902.00,0.0079
3901.00,0.0079
3900.00,0.0079
3899.00,0.0079
3898.00,0.0079
3897.00,0.0079
3896.00,0.0079
3895.00,0.0079
3894.00,0.0079
3893.00,0.0079
3892.00,0.0079
3891.00,0.0079
3890.00,0.0079
3889.00,0.0079
3888.00,0.0079
3887.00,0.0079
3886.00,0.0079
3885.00,0.0079
3884.00,0.0079
3883.00,0.0079
3882.00,0.0078
3881.00,0.0078
3880.00,0.0079
3879.00,0.0079
3878.00,0.0079
3877.00,0.0078
3876.00,0.0078
3875.00,0.0078
3874.00,0.0078
3873.00,0.0078
3872.00,0.0078
3871.00,0.0078
3870.00,0.0078
3869.00,0.0078
3868.00,0.0078
3867.00,0.0078
3866.00,0.0078
3865.00,0.0078
3864.00,0.0078
3863.00,0.0078
3862.00,0.0078
3861.00,0.0078
3860.00,0.0078
3859.00,0.0078
3858.00,0.0078
3857.00,0.0078
3856.00,0.0078
3855.00,0.0078
3854.00,0.0078
3853.00,0.0078
3852.00,0.0078
3851.00,0.0077
3850.00,0.0077
3849.00,0.0077
3848.00,0.0077
3847.00,0.0078
3846.00,0.0078
3845.00,0.0078
3844.00,0.0078
3843.00,0.0078
3842.00,0.0078
3841.00,0.0078
3840.00,0.0078
3839.00,0.0077
3838.00,0.0077
3837.00,0.0077
3836.00,0.0077
3835.00,0.0077
3834.00,0.0077
3833.00,0.0077
3832.00,0.0077
3831.00,0.0077
3830.00,0.0077
3829.00,0.0077
3828.00,0.0077
3827.00,0.0077
3826.00,0.0077
3825.00,0.0077
3824.00,0.0077
3823.00,0.0077
3822.00,0.0077
3821.00,0.0077
3820.00,0.0077
3819.00,0.0077
3818.00,0.0076
3817.00,0.0076
3816.00,0.0076
3815.00,0.0076
3814.00,0.0076
3813.00,0.0077
3812.00,0.0077
3811.00,0.0077
3810.00,0.0077
3809.00,0.0077
3808.00,0.0077
3807.00,0.0077
3806.00,0.0077
3805.00,0.0077
3804.00,0.0076
3803.00,0.0076
3802.00,0.0076
3801.00,0.0076
3800.00,0.0076
3799.00,0.0076
3798.00,0.0076
3797.00,0.0076
3796.00,0.0076
3795.00,0.0076
3794.00,0.0076
3793.00,0.0076
3792.00,0.0076
3791.00,0.0076
3790.00,0.0076
3789.00,0.0076
3788.00,0.0076
3787.00,0.0076
3786.00,0.0076
3785.00,0.0076
3784.00,0.0076
3783.00,0.0075
3782.00,0.0075
3781.00,0.0075
3780.00,0.0075
3779.00,0.0075
3778.00,0.0075
3777.00,0.0076
3776.00,0.0076
3775.00,0.0076
3774.00,0.0076
3773.00,0.0076
3772.00,0.0076
3771.00,0.0076
3770.00,0.0076
3769.00,0.0075
3768.00,0.0075
3767.00,0.0075
3766.00,0.0075
3765.00,0.0075
3764.00,0.0075
3763.00,0.0075
3762.00,0.0075
3761.00,0.0075
3760.00,0.0075
3759.00,0.0075
3758.00,0.0075
3757.00,0.0075
3756.00,0.0075
3755.00,0.0075
3754.00,0.0075
3753.00,0.0075
3752.00,0.0075
3751.00,0.0075
3750.00,0.0075
3749.00,0.0074
3748.00,0.0074
3747.00,0.0074
3746.00,0.0074
3745.00,0.0074
3744.00,0.0074
3743.00,0.0074
3742.00,0.0074
3741.00,0.0073
3740.00,0.0073
3739.00,0.0074
3738.00,0.0074
3737.00,0.0073
3736.00,0.0073
3735.00,0.0073
3734.00,0.0073
3733.00,0.0073
3732.00,0.0072
3731.00,0.0073
3730.00,0.0073
3729.00,0.0073
3728.00,0.0073
3727.00,0.0073
3726.00,0.0073
3725.00,0.0073
3724.00,0.0072
3723.00,0.0072
3722.00,0.0072
3721.00,0.0072
3720.00,0.0072
3719.00,0.0072
3718.00,0.0072
3717.00,0.0072
3716.00,0.0073
3715.00,0.0072
3714.00,0.0072
3713.00,0.0072
3712.00,0.0072
3711.00,0.0072
3710.00,0.0071
3709.00,0.0071
3708.00,0.0071
3707.00,0.0071
3706.00,0.0071
3705.00,0.0071
3704.00,0.0071
3703.00,0.0071
3702.00,0.0071
3701.00,0.0071
3700.00,0.0071
3699.00,0.0071
3698.00,0.0071
3697.00,0.0071
3696.00,0.0071
3695.00,0.0071
3694.00,0.0071
3693.00,0.0071
3692.00,0.0071
3691.00,0.0071
3690.00,0.0071
3689.00,0.0071
3688.00,0.0071
3687.00,0.0071
3686.00,0.0071
3685.00,0.0071
3684.00,0.0070
3683.00,0.0070
3682.00,0.0071
3681.00,0.0071
3680.00,0.0071
3679.00,0.0071
3678.00,0.0071
3677.00,0.0071
3676.00,0.0071
3675.00,0.0071
3674.00,0.0071
3673.00,0.0071
3672.00,0.0070
3671.00,0.0070
3670.00,0.0070
3669.00,0.0070
3668.00,0.0070
3667.00,0.0070
3666.00,0.0071
3665.00,0.0071
3664.00,0.0071
3663.00,0.0071
3662.00,0.0072
3661.00,0.0072
3660.00,0.0072
3659.00,0.0072
3658.00,0.0072
3657.00,0.0072
3656.00,0.0072
3655.00,0.0072
3654.00,0.0072
3653.00,0.0072
3652.00,0.0072
3651.00,0.0072
3650.00,0.0072
3649.00,0.0072
3648.00,0.0072
3647.00,0.0072
3646.00,0.0072
3645.00,0.0072
3644.00,0.0072
3643.00,0.0072
3642.00,0.0072
3641.00,0.0073
3640.00,0.0073
3639.00,0.0073
3638.00,0.0073
3637.00,0.0073
3636.00,0.0073
3635.00,0.0073
3634.00,0.0073
3633.00,0.0074
3632.00,0.0074
3631.00,0.0074
3630.00,0.0073
3629.00,0.0073
3628.00,0.0074
3627.00,0.0074
3626.00,0.0074
3625.00,0.0074
3624.00,0.0074
3623.00,0.0074
3622.00,0.0075
3621.00,0.0075
3620.00,0.0075
3619.00,0.0075
3618.00,0.0075
3617.00,0.0076
3616.00,0.0076
3615.00,0.0076
3614.00,0.0076
3613.00,0.0076
3612.00,0.0077
3611.00,0.0077
3610.00,0.0077
3609.00,0.0077
3608.00,0.0077
3607.00,0.0077
3606.00,0.0078
3605.00,0.0078
3604.00,0.0078
3603.00,0.0078
3602.00,0.0078
3601.00,0.0079
3600.00,0.0079
3599.00,0.0079
3598.00,0.0079
3597.00,0.0079
3596.00,0.0079
3595.00,0.0080
3594.00,0.0080
3593.00,0.0080
3592.00,0.0080
3591.00,0.0080
3590.00,0.0081
3589.00,0.0081
3588.00,0.0081
3587.00,0.0081
3586.00,0.0082
3585.00,0.0082
3584.00,0.0082
3583.00,0.0082
3582.00,0.0083
3581.00,0.0083
3580.00,0.0083
3579.00,0.0083
3578.00,0.0083
3577.00,0.0084
3576.00,0.0084
3575.00,0.0084
3574.00,0.0084
3573.00,0.0085
3572.00,0.0085
3571.00,0.0085
3570.00,0.0085
3569.00,0.0086
3568.00,0.0086
3567.00,0.0086
3566.00,0.0087
3565.00,0.0087
3564.00,0.0087
3563.00,0.0088
3562.00,0.0088
3561.00,0.0088
3560.00,0.0089
3559.00,0.0089
3558.00,0.0089
3557.00,0.0089
3556.00,0.0089
3555.00,0.0090
3554.00,0.0090
3553.00,0.0090
3552.00,0.0091
3551.00,0.0091
3550.00,0.0091
3549.00,0.0092
3548.00,0.0092
3547.00,0.0093
3546.00,0.0093
3545.00,0.0093
3544.00,0.0094
3543.00,0.0094
3542.00,0.0094
3541.00,0.0094
3540.00,0.0094
3539.00,0.0095
3538.00,0.0095
3537.00,0.0095
3536.00,0.0096
3535.00,0.0096
3534.00,0.0096
3533.00,0.0096
3532.00,0.0097
3531.00,0.0097
3530.00,0.0097
3529.00,0.0098
3528.00,0.0098
3527.00,0.0098
3526.00,0.0099
3525.00,0.0099
3524.00,0.0099
3523.00,0.0100
3522.00,0.0100
3521.00,0.0100
3520.00,0.0100
3519.00,0.0101
3518.00,0.0101
3517.00,0.0101
3516.00,0.0102
3515.00,0.0102
3514.00,0.0102
3513.00,0.0103
3512.00,0.0103
3511.00,0.0103
3510.00,0.0103
3509.00,0.0103
3508.00,0.0104
3507.00,0.0104
3506.00,0.0104
3505.00,0.0105
3504.00,0.0106
3503.00,0.0106
3502.00,0.0106
3501.00,0.0106
3500.00,0.0107
3499.00,0.0107
3498.00,0.0107
3497.00,0.0107
3496.00,0.0108
3495.00,0.0108
3494.00,0.0109
3493.00,0.0109
3492.00,0.0109
3491.00,0.0109
3490.00,0.0110
3489.00,0.0110
3488.00,0.0110
3487.00,0.0111
3486.00,0.0111
3485.00,0.0111
3484.00,0.0112
3483.00,0.0112
3482.00,0.0113
3481.00,0.0113
3480.00,0.0113
3479.00,0.0113
3478.00,0.0114
3477.00,0.0114
3476.00,0.0114
3475.00,0.0115
3474.00,0.0115
3473.00,0.0115
3472.00,0.0116
3471.00,0.0116
3470.00,0.0117
3469.00,0.0117
3468.00,0.0117
3467.00,0.0117
3466.00,0.0118
3465.00,0.0118
3464.00,0.0118
3463.00,0.0118
3462.00,0.0119
3461.00,0.0119
3460.00,0.0120
3459.00,0.0120
3458.00,0.0120
3457.00,0.0120
3456.00,0.0121
3455.00,0.0121
3454.00,0.0121
3453.00,0.0122
3452.00,0.0122
3451.00,0.0122
3450.00,0.0123
3449.00,0.0123
3448.00,0.0123
3447.00,0.0124
3446.00,0.0124
3445.00,0.0124
3444.00,0.0125
3443.00,0.0125
3442.00,0.0125
3441.00,0.0126
3440.00,0.0126
3439.00,0.0127
3438.00,0.0127
3437.00,0.0128
3436.00,0.0128
3435.00,0.0128
3434.00,0.0129
3433.00,0.0129
3432.00,0.0129
3431.00,0.0130
3430.00,0.0130
3429.00,0.0130
3428.00,0.0130
3427.00,0.0131
3426.00,0.0131
3425.00,0.0131
3424.00,0.0131
3423.00,0.0132
3422.00,0.0132
3421.00,0.0132
3420.00,0.0133
3419.00,0.0133
3418.00,0.0134
3417.00,0.0134
3416.00,0.0134
3415.00,0.0135
3414.00,0.0135
3413.00,0.0135
3412.00,0.0136
3411.00,0.0136
3410.00,0.0136
3409.00,0.0137
3408.00,0.0137
3407.00,0.0137
3406.00,0.0138
3405.00,0.0138
3404.00,0.0138
3403.00,0.0139
3402.00,0.0139
3401.00,0.0139
3400.00,0.0140
3399.00,0.0140
3398.00,0.0140
3397.00,0.0140
3396.00,0.0141
3395.00,0.0141
3394.00,0.0141
3393.00,0.0142
3392.00,0.0142
3391.00,0.0142
3390.00,0.0142
3389.00,0.0143
3388.00,0.0143
3387.00,0.0143
3386.00,0.0144
3385.00,0.0144
3384.00,0.0144
3383.00,0.0145
3382.00,0.0145
3381.00,0.0145
3380.00,0.0146
3379.00,0.0146
3378.00,0.0146
3377.00,0.0147
3376.00,0.0147
3375.00,0.0148
3374.00,0.0148
3373.00,0.0148
3372.00,0.0149
3371.00,0.0149
3370.00,0.0150
3369.00,0.0150
3368.00,0.0151
3367.00,0.0151
3366.00,0.0151
3365.00,0.0152
3364.00,0.0152
3363.00,0.0153
3362.00,0.0153
3361.00,0.0154
3360.00,0.0154
3359.00,0.0155
3358.00,0.0155
3357.00,0.0156
3356.00,0.0156
3355.00,0.0157
3354.00,0.0157
3353.00,0.0158
3352.00,0.0158
3351.00,0.0159
3350.00,0.0159
3349.00,0.0160
3348.00,0.0161
3347.00,0.0162
3346.00,0.0162
3345.00,0.0163
3344.00,0.0163
3343.00,0.0164
3342.00,0.0164
3341.00,0.0165
3340.00,0.0166
3339.00,0.0166
3338.00,0.0167
3337.00,0.0168
3336.00,0.0169
3335.00,0.0170
3334.00,0.0170
3333.00,0.0171
3332.00,0.0172
3331.00,0.0173
3330.00,0.0174
3329.00,0.0175
3328.00,0.0175
3327.00,0.0176
3326.00,0.0177
3325.00,0.0178
3324.00,0.0179
3323.00,0.0180
3322.00,0.0181
3321.00,0.0182
3320.00,0.0183
3319.00,0.0184
3318.00,0.0186
3317.00,0.0187
3316.00,0.0188
3315.00,0.0189
3314.00,0.0190
3313.00,0.0191
3312.00,0.0192
3311.00,0.0193
3310.00,0.0195
3309.00,0.0196
3308.00,0.0197
3307.00,0.0198
3306.00,0.0200
3305.00,0.0201
3304.00,0.0203
3303.00,0.0204
3302.00,0.0206
3301.00,0.0207
3300.00,0.0209
3299.00,0.0210
3298.00,0.0212
3297.00,0.0213
3296.00,0.0214
3295.00,0.0216
3294.00,0.0217
3293.00,0.0219
3292.00,0.0220
3291.00,0.0222
3290.00,0.0223
3289.00,0.0225
3288.00,0.0226
3287.00,0.0227
3286.00,0.0229
3285.00,0.0230
3284.00,0.0231
3283.00,0.0232
3282.00,0.0233
3281.00,0.0234
3280.00,0.0235
3279.00,0.0236
3278.00,0.0237
3277.00,0.0237
3276.00,0.0238
3275.00,0.0238
3274.00,0.0238
3273.00,0.0238
3272.00,0.0238
3271.00,0.0238
3270.00,0.0238
3269.00,0.0238
3268.00,0.0238
3267.00,0.0238
3266.00,0.0237
3265.00,0.0236
3264.00,0.0236
3263.00,0.0235
3262.00,0.0234
3261.00,0.0233
3260.00,0.0232
3259.00,0.0231
3258.00,0.0229
3257.00,0.0228
3256.00,0.0227
3255.00,0.0226
3254.00,0.0225
3253.00,0.0224
3252.00,0.0222
3251.00,0.0221
3250.00,0.0220
3249.00,0.0219
3248.00,0.0217
3247.00,0.0216
3246.00,0.0215
3245.00,0.0214
3244.00,0.0213
3243.00,0.0212
3242.00,0.0211
3241.00,0.0210
3240.00,0.0209
3239.00,0.0208
3238.00,0.0206
3237.00,0.0205
3236.00,0.0204
3235.00,0.0203
3234.00,0.0202
3233.00,0.0202
3232.00,0.0201
3231.00,0.0200
3230.00,0.0200
3229.00,0.0199
3228.00,0.0198
3227.00,0.0197
3226.00,0.0197
3225.00,0.0196
3224.00,0.0195
3223.00,0.0194
3222.00,0.0194
3221.00,0.0193
3220.00,0.0193
3219.00,0.0192
3218.00,0.0191
3217.00,0.0191
3216.00,0.0190
3215.00,0.0189
3214.00,0.0189
3213.00,0.0188
3212.00,0.0188
3211.00,0.0187
3210.00,0.0187
3209.00,0.0186
3208.00,0.0186
3207.00,0.0185
3206.00,0.0184
3205.00,0.0184
3204.00,0.0183
3203.00,0.0183
3202.00,0.0182
3201.00,0.0182
3200.00,0.0181
3199.00,0.0181
3198.00,0.0180
3197.00,0.0180
3196.00,0.0179
3195.00,0.0179
3194.00,0.0178
3193.00,0.0178
3192.00,0.0177
3191.00,0.0177
3190.00,0.0176
3189.00,0.0176
3188.00,0.0175
3187.00,0.0175
3186.00,0.0174
3185.00,0.0173
3184.00,0.0173
3183.00,0.0172
3182.00,0.0172
3181.00,0.0171
3180.00,0.0171
3179.00,0.0170
3178.00,0.0170
3177.00,0.0169
3176.00,0.0169
3175.00,0.0168
3174.00,0.0167
3173.00,0.0167
3172.00,0.0166
3171.00,0.0166
3170.00,0.0165
3169.00,0.0165
3168.00,0.0164
3167.00,0.0163
3166.00,0.0163
3165.00,0.0162
3164.00,0.0161
3163.00,0.0161
3162.00,0.0160
3161.00,0.0160
3160.00,0.0159
3159.00,0.0159
3158.00,0.0158
3157.00,0.0158
3156.00,0.0157
3155.00,0.0157
3154.00,0.0156
3153.00,0.0156
3152.00,0.0155
3151.00,0.0155
3150.00,0.0154
3149.00,0.0154
3148.00,0.0153
3147.00,0.0153
3146.00,0.0152
3145.00,0.0152
3144.00,0.0152
3143.00,0.0151
3142.00,0.0150
3141.00,0.0150
3140.00,0.0149
3139.00,0.0149
3138.00,0.0149
3137.00,0.0148
3136.00,0.0148
3135.00,0.0147
3134.00,0.0147
3133.00,0.0147
3132.00,0.0146
3131.00,0.0146
3130.00,0.0145
3129.00,0.0145
3128.00,0.0145
3127.00,0.0144
3126.00,0.0144
3125.00,0.0144
3124.00,0.0143
3123.00,0.0143
3122.00,0.0143
3121.00,0.0142
3120.00,0.0142
3119.00,0.0142
3118.00,0.0142
3117.00,0.0141
3116.00,0.0141
3115.00,0.0141
3114.00,0.0141
3113.00,0.0141
3112.00,0.0141
3111.00,0.0140
3110.00,0.0140
3109.00,0.0140
3108.00,0.0140
3107.00,0.0140
3106.00,0.0140
3105.00,0.0140
3104.00,0.0140
3103.00,0.0140
3102.00,0.0140
3101.00,0.0140
3100.00,0.0139
3099.00,0.0139
3098.00,0.0140
3097.00,0.0140
3096.00,0.0140
3095.00,0.0140
3094.00,0.0140
3093.00,0.0140
3092.00,0.0140
3091.00,0.0140
3090.00,0.0140
3089.00,0.0140
3088.00,0.0140
3087.00,0.0140
3086.00,0.0140
3085.00,0.0140
3084.00,0.0140
3083.00,0.0139
3082.00,0.0139
3081.00,0.0139
3080.00,0.0139
3079.00,0.0140
3078.00,0.0140
3077.00,0.0140
3076.00,0.0140
3075.00,0.0140
3074.00,0.0140
3073.00,0.0140
3072.00,0.0140
3071.00,0.0140
3070.00,0.0140
3069.00,0.0140
3068.00,0.0139
3067.00,0.0139
3066.00,0.0139
3065.00,0.0139
3064.00,0.0139
3063.00,0.0139
3062.00,0.0139
3061.00,0.0139
3060.00,0.0139
3059.00,0.0139
3058.00,0.0138
3057.00,0.0138
3056.00,0.0138
3055.00,0.0137
3054.00,0.0137
3053.00,0.0137
3052.00,0.0136
3051.00,0.0136
3050.00,0.0136
3049.00,0.0136
3048.00,0.0135
3047.00,0.0135
3046.00,0.0135
3045.00,0.0134
3044.00,0.0134
3043.00,0.0133
3042.00,0.0133
3041.00,0.0133
3040.00,0.0133
3039.00,0.0132
3038.00,0.0132
3037.00,0.0132
3036.00,0.0131
3035.00,0.0131
3034.00,0.0130
3033.00,0.0130
3032.00,0.0130
3031.00,0.0130
3030.00,0.0130
3029.00,0.0129
3028.00,0.0129
3027.00,0.0128
3026.00,0.0128
3025.00,0.0127
3024.00,0.0127
3023.00,0.0127
3022.00,0.0126
3021.00,0.0126
3020.00,0.0126
3019.00,0.0125
3018.00,0.0125
3017.00,0.0125
3016.00,0.0124
3015.00,0.0124
3014.00,0.0123
3013.00,0.0123
3012.00,0.0123
3011.00,0.0123
3010.00,0.0123
3009.00,0.0123
3008.00,0.0123
3007.00,0.0122
3006.00,0.0122
3005.00,0.0122
3004.00,0.0122
3003.00,0.0121
3002.00,0.0121
3001.00,0.0121
3000.00,0.0121
2999.00,0.0121
2998.00,0.0121
2997.00,0.0121
2996.00,0.0121
2995.00,0.0121
2994.00,0.0121
2993.00,0.0121
2992.00,0.0122
2991.00,0.0122
2990.00,0.0122
2989.00,0.0122
2988.00,0.0123
2987.00,0.0123
2986.00,0.0123
2985.00,0.0123
2984.00,0.0124
2983.00,0.0124
2982.00,0.0124
2981.00,0.0125
2980.00,0.0125
2979.00,0.0125
2978.00,0.0125
2977.00,0.0126
2976.00,0.0126
2975.00,0.0126
2974.00,0.0126
2973.00,0.0127
2972.00,0.0127
2971.00,0.0127
2970.00,0.0127
2969.00,0.0127
2968.00,0.0127
2967.00,0.0127
2966.00,0.0126
2965.00,0.0126
2964.00,0.0126
2963.00,0.0125
2962.00,0.0125
2961.00,0.0124
2960.00,0.0124
2959.00,0.0123
2958.00,0.0123
2957.00,0.0123
2956.00,0.0123
2955.00,0.0123
2954.00,0.0123
2953.00,0.0123
2952.00,0.0123
2951.00,0.0123
2950.00,0.0123
2949.00,0.0124
2948.00,0.0124
2947.00,0.0124
2946.00,0.0124
2945.00,0.0124
2944.00,0.0124
2943.00,0.0124
2942.00,0.0124
2941.00,0.0124
2940.00,0.0124
2939.00,0.0124
2938.00,0.0123
2937.00,0.0123
2936.00,0.0122
2935.00,0.0122
2934.00,0.0121
2933.00,0.0120
2932.00,0.0118
2931.00,0.0117
2930.00,0.0115
2929.00,0.0113
2928.00,0.0111
2927.00,0.0108
2926.00,0.0105
2925.00,0.0102
2924.00,0.0098
2923.00,0.0094
2922.00,0.0089
2921.00,0.0085
2920.00,0.0080
2919.00,0.0075
2918.00,0.0071
2917.00,0.0068
2916.00,0.0068
2915.00,0.0071
2914.00,0.0076
2913.00,0.0082
2912.00,0.0089
2911.00,0.0094
2910.00,0.0098
2909.00,0.0101
2908.00,0.0103
2907.00,0.0104
2906.00,0.0105
2905.00,0.0106
2904.00,0.0107
2903.00,0.0107
2902.00,0.0108
2901.00,0.0108
2900.00,0.0108
2899.00,0.0108
2898.00,0.0109
2897.00,0.0109
2896.00,0.0109
2895.00,0.0109
2894.00,0.0110
2893.00,0.0110
2892.00,0.0110
2891.00,0.0111
2890.00,0.0111
2889.00,0.0111
2888.00,0.0112
2887.00,0.0112
2886.00,0.0113
2885.00,0.0113
2884.00,0.0114
2883.00,0.0114
2882.00,0.0115
2881.00,0.0115
2880.00,0.0116
2879.00,0.0116
2878.00,0.0116
2877.00,0.0117
2876.00,0.0117
2875.00,0.0117
2874.00,0.0117
2873.00,0.0117
2872.00,0.0117
2871.00,0.0116
2870.00,0.0116
2869.00,0.0116
2868.00,0.0115
2867.00,0.0115
2866.00,0.0114
2865.00,0.0113
2864.00,0.0112
2863.00,0.0111
2862.00,0.0110
2861.00,0.0109
2860.00,0.0108
2859.00,0.0107
2858.00,0.0105
2857.00,0.0103
2856.00,0.0101
2855.00,0.0098
2854.00,0.0094
2853.00,0.0089
2852.00,0.0084
2851.00,0.0079
2850.00,0.0075
2849.00,0.0074
2848.00,0.0076
2847.00,0.0080
2846.00,0.0086
2845.00,0.0091
2844.00,0.0096
2843.00,0.0100
2842.00,0.0102
2841.00,0.0103
2840.00,0.0105
2839.00,0.0105
2838.00,0.0106
2837.00,0.0106
2836.00,0.0106
2835.00,0.0107
2834.00,0.0107
2833.00,0.0107
2832.00,0.0107
2831.00,0.0107
2830.00,0.0107
2829.00,0.0107
2828.00,0.0107
2827.00,0.0107
2826.00,0.0106
2825.00,0.0106
2824.00,0.0106
2823.00,0.0106
2822.00,0.0106
2821.00,0.0106
2820.00,0.0106
2819.00,0.0106
2818.00,0.0106
2817.00,0.0106
2816.00,0.0106
2815.00,0.0106
2814.00,0.0106
2813.00,0.0106
2812.00,0.0106
2811.00,0.0105
2810.00,0.0105
2809.00,0.0105
2808.00,0.0105
2807.00,0.0105
2806.00,0.0105
2805.00,0.0105
2804.00,0.0105
2803.00,0.0105
2802.00,0.0105
2801.00,0.0105
2800.00,0.0105
2799.00,0.0105
2798.00,0.0104
2797.00,0.0104
2796.00,0.0104
2795.00,0.0104
2794.00,0.0104
2793.00,0.0104
2792.00,0.0104
2791.00,0.0104
2790.00,0.0104
2789.00,0.0104
2788.00,0.0104
2787.00,0.0104
2786.00,0.0103
2785.00,0.0103
2784.00,0.0103
2783.00,0.0103
2782.00,0.0103
2781.00,0.0103
2780.00,0.0103
2779.00,0.0103
2778.00,0.0103
2777.00,0.0103
2776.00,0.0103
2775.00,0.0103
2774.00,0.0103
2773.00,0.0102
2772.00,0.0102
2771.00,0.0102
2770.00,0.0102
2769.00,0.0102
2768.00,0.0102
2767.00,0.0102
2766.00,0.0102
2765.00,0.0102
2764.00,0.0101
2763.00,0.0101
2762.00,0.0101
2761.00,0.0101
2760.00,0.0101
2759.00,0.0101
2758.00,0.0101
2757.00,0.0101
