Created as New Dataset,Sample 295 By YargerLab Date Sunday, August 18 2024
cm-1,A
4000.00,0.0135
3999.00,0.0135
3998.00,0.0134
3997.00,0.0134
3996.00,0.0134
3995.00,0.0134
3994.00,0.0134
3993.00,0.0134
3992.00,0.0134
3991.00,0.0134
3990.00,0.0134
3989.00,0.0134
3988.00,0.0134
3987.00,0.0134
3986.00,0.0134
3985.00,0.0134
3984.00,0.0134
3983.00,0.0134
3982.00,0.0134
3981.00,0.0134
3980.00,0.0134
3979.00,0.0134
3978.00,0.0134
3977.00,0.0134
3976.00,0.0134
3975.00,0.0134
3974.00,0.0134
3973.00,0.0134
3972.00,0.0134
3971.00,0.0134
3970.00,0.0134
3969.00,0.0134
3968.00,0.0134
3967.00,0.0134
3966.00,0.0134
3965.00,0.0134
3964.00,0.0134
3963.00,0.0134
3962.00,0.0134
3961.00,0.0134
3960.00,0.0134
3959.00,0.0134
3958.00,0.0134
3957.00,0.0134
3956.00,0.0134
3955.00,0.0134
3954.00,0.0134
3953.00,0.0134
3952.00,0.0134
3951.00,0.0134
3950.00,0.0134
3949.00,0.0134
3948.00,0.0133
3947.00,0.0133
3946.00,0.0133
3945.00,0.0133
3944.00,0.0134
3943.00,0.0134
3942.00,0.0134
3941.00,0.0134
3940.00,0.0133
3939.00,0.0133
3938.00,0.0133
3937.00,0.0133
3936.00,0.0133
3935.00,0.0133
3934.00,0.0133
3933.00,0.0133
3932.00,0.0133
3931.00,0.0133
3930.00,0.0133
3929.00,0.0133
3928.00,0.0133
3927.00,0.0133
3926.00,0.0133
3925.00,0.0132
3924.00,0.0132
3923.00,0.0133
3922.00,0.0133
3921.00,0.0133
3920.00,0.0133
3919.00,0.0133
3918.00,0.0133
3917.00,0.0133
3916.00,0.0133
3915.00,0.0133
3914.00,0.0133
3913.00,0.0133
3912.00,0.0132
3911.00,0.0132
3910.00,0.0132
3909.00,0.0132
3908.00,0.0132
3907.00,0.0132
3906.00,0.0132
3905.00,0.0132
3904.00,0.0132
3903.00,0.0132
3902.00,0.0132
3901.00,0.0132
3900.00,0.0132
3899.00,0.0132
3898.00,0.0132
3897.00,0.0132
3896.00,0.0132
3895.00,0.0132
3894.00,0.0132
3893.00,0.0132
3892.00,0.0132
3891.00,0.0132
3890.00,0.0132
3889.00,0.0132
3888.00,0.0132
3887.00,0.0132
3886.00,0.0132
3885.00,0.0132
3884.00,0.0132
3883.00,0.0132
3882.00,0.0132
3881.00,0.0132
3880.00,0.0132
3879.00,0.0132
3878.00,0.0132
3877.00,0.0131
3876.00,0.0131
3875.00,0.0131
3874.00,0.0131
3873.00,0.0131
3872.00,0.0131
3871.00,0.0131
3870.00,0.0131
3869.00,0.0130
3868.00,0.0130
3867.00,0.0130
3866.00,0.0130
3865.00,0.0130
3864.00,0.0130
3863.00,0.0130
3862.00,0.0130
3861.00,0.0130
3860.00,0.0130
3859.00,0.0130
3858.00,0.0130
3857.00,0.0130
3856.00,0.0130
3855.00,0.0130
3854.00,0.0130
3853.00,0.0130
3852.00,0.0130
3851.00,0.0130
3850.00,0.0130
3849.00,0.0130
3848.00,0.0130
3847.00,0.0130
3846.00,0.0129
3845.00,0.0129
3844.00,0.0129
3843.00,0.0129
3842.00,0.0129
3841.00,0.0129
3840.00,0.0129
3839.00,0.0129
3838.00,0.0129
3837.00,0.0129
3836.00,0.0129
3835.00,0.0129
3834.00,0.0129
3833.00,0.0129
3832.00,0.0129
3831.00,0.0129
3830.00,0.0129
3829.00,0.0129
3828.00,0.0128
3827.00,0.0128
3826.00,0.0128
3825.00,0.0128
3824.00,0.0128
3823.00,0.0128
3822.00,0.0128
3821.00,0.0128
3820.00,0.0128
3819.00,0.0128
3818.00,0.0128
3817.00,0.0128
3816.00,0.0128
3815.00,0.0128
3814.00,0.0128
3813.00,0.0129
3812.00,0.0129
3811.00,0.0128
3810.00,0.0128
3809.00,0.0128
3808.00,0.0128
3807.00,0.0128
3806.00,0.0128
3805.00,0.0127
3804.00,0.0127
3803.00,0.0127
3802.00,0.0127
3801.00,0.0127
3800.00,0.0127
3799.00,0.0127
3798.00,0.0127
3797.00,0.0127
3796.00,0.0127
3795.00,0.0127
3794.00,0.0127
3793.00,0.0127
3792.00,0.0127
3791.00,0.0127
3790.00,0.0127
3789.00,0.0127
3788.00,0.0127
3787.00,0.0127
3786.00,0.0126
3785.00,0.0126
3784.00,0.0126
3783.00,0.0126
3782.00,0.0126
3781.00,0.0126
3780.00,0.0126
3779.00,0.0126
3778.00,0.0126
3777.00,0.0126
3776.00,0.0126
3775.00,0.0126
3774.00,0.0126
3773.00,0.0126
3772.00,0.0126
3771.00,0.0126
3770.00,0.0125
3769.00,0.0125
3768.00,0.0125
3767.00,0.0125
3766.00,0.0125
3765.00,0.0125
3764.00,0.0125
3763.00,0.0125
3762.00,0.0125
3761.00,0.0125
3760.00,0.0125
3759.00,0.0125
3758.00,0.0125
3757.00,0.0125
3756.00,0.0125
3755.00,0.0125
3754.00,0.0125
3753.00,0.0124
3752.00,0.0124
3751.00,0.0125
3750.00,0.0125
3749.00,0.0125
3748.00,0.0125
3747.00,0.0125
3746.00,0.0125
3745.00,0.0125
3744.00,0.0125
3743.00,0.0125
3742.00,0.0125
3741.00,0.0125
3740.00,0.0125
3739.00,0.0124
3738.00,0.0124
3737.00,0.0124
3736.00,0.0124
3735.00,0.0124
3734.00,0.0123
3733.00,0.0123
3732.00,0.0123
3731.00,0.0123
3730.00,0.0123
3729.00,0.0123
3728.00,0.0123
3727.00,0.0123
3726.00,0.0122
3725.00,0.0122
3724.00,0.0122
3723.00,0.0122
3722.00,0.0122
3721.00,0.0122
3720.00,0.0122
3719.00,0.0121
3718.00,0.0121
3717.00,0.0121
3716.00,0.0121
3715.00,0.0121
3714.00,0.0122
3713.00,0.0122
3712.00,0.0122
3711.00,0.0122
3710.00,0.0122
3709.00,0.0122
3708.00,0.0122
3707.00,0.0121
3706.00,0.0121
3705.00,0.0121
3704.00,0.0121
3703.00,0.0121
3702.00,0.0122
3701.00,0.0122
3700.00,0.0122
3699.00,0.0122
3698.00,0.0122
3697.00,0.0122
3696.00,0.0123
3695.00,0.0123
3694.00,0.0123
3693.00,0.0123
3692.00,0.0122
3691.00,0.0122
3690.00,0.0122
3689.00,0.0122
3688.00,0.0122
3687.00,0.0122
3686.00,0.0122
3685.00,0.0122
3684.00,0.0122
3683.00,0.0121
3682.00,0.0121
3681.00,0.0121
3680.00,0.0122
3679.00,0.0122
3678.00,0.0122
3677.00,0.0122
3676.00,0.0122
3675.00,0.0122
3674.00,0.0122
3673.00,0.0122
3672.00,0.0123
3671.00,0.0123
3670.00,0.0123
3669.00,0.0122
3668.00,0.0122
3667.00,0.0122
3666.00,0.0122
3665.00,0.0122
3664.00,0.0123
3663.00,0.0123
3662.00,0.0123
3661.00,0.0123
3660.00,0.0123
3659.00,0.0124
3658.00,0.0124
3657.00,0.0125
3656.00,0.0125
3655.00,0.0125
3654.00,0.0125
3653.00,0.0125
3652.00,0.0125
3651.00,0.0125
3650.00,0.0126
3649.00,0.0126
3648.00,0.0127
3647.00,0.0126
3646.00,0.0126
3645.00,0.0126
3644.00,0.0126
3643.00,0.0126
3642.00,0.0126
3641.00,0.0127
3640.00,0.0127
3639.00,0.0128
3638.00,0.0128
3637.00,0.0129
3636.00,0.0129
3635.00,0.0129
3634.00,0.0130
3633.00,0.0130
3632.00,0.0131
3631.00,0.0131
3630.00,0.0132
3629.00,0.0132
3628.00,0.0132
3627.00,0.0133
3626.00,0.0133
3625.00,0.0134
3624.00,0.0134
3623.00,0.0134
3622.00,0.0135
3621.00,0.0135
3620.00,0.0135
3619.00,0.0136
3618.00,0.0136
3617.00,0.0137
3616.00,0.0138
3615.00,0.0138
3614.00,0.0139
3613.00,0.0139
3612.00,0.0140
3611.00,0.0140
3610.00,0.0140
3609.00,0.0140
3608.00,0.0140
3607.00,0.0141
3606.00,0.0141
3605.00,0.0141
3604.00,0.0142
3603.00,0.0142
3602.00,0.0142
3601.00,0.0143
3600.00,0.0143
3599.00,0.0144
3598.00,0.0144
3597.00,0.0145
3596.00,0.0145
3595.00,0.0146
3594.00,0.0146
3593.00,0.0146
3592.00,0.0147
3591.00,0.0148
3590.00,0.0148
3589.00,0.0149
3588.00,0.0149
3587.00,0.0149
3586.00,0.0150
3585.00,0.0151
3584.00,0.0151
3583.00,0.0152
3582.00,0.0152
3581.00,0.0153
3580.00,0.0153
3579.00,0.0154
3578.00,0.0154
3577.00,0.0155
3576.00,0.0155
3575.00,0.0156
3574.00,0.0156
3573.00,0.0157
3572.00,0.0157
3571.00,0.0158
3570.00,0.0159
3569.00,0.0159
3568.00,0.0160
3567.00,0.0161
3566.00,0.0161
3565.00,0.0162
3564.00,0.0163
3563.00,0.0164
3562.00,0.0164
3561.00,0.0165
3560.00,0.0165
3559.00,0.0166
3558.00,0.0166
3557.00,0.0167
3556.00,0.0168
3555.00,0.0168
3554.00,0.0169
3553.00,0.0169
3552.00,0.0170
3551.00,0.0171
3550.00,0.0171
3549.00,0.0172
3548.00,0.0173
3547.00,0.0174
3546.00,0.0175
3545.00,0.0176
3544.00,0.0176
3543.00,0.0176
3542.00,0.0177
3541.00,0.0177
3540.00,0.0178
3539.00,0.0178
3538.00,0.0179
3537.00,0.0180
3536.00,0.0180
3535.00,0.0181
3534.00,0.0182
3533.00,0.0182
3532.00,0.0183
3531.00,0.0183
3530.00,0.0184
3529.00,0.0184
3528.00,0.0185
3527.00,0.0186
3526.00,0.0187
3525.00,0.0188
3524.00,0.0189
3523.00,0.0189
3522.00,0.0189
3521.00,0.0189
3520.00,0.0189
3519.00,0.0190
3518.00,0.0191
3517.00,0.0192
3516.00,0.0193
3515.00,0.0193
3514.00,0.0194
3513.00,0.0195
3512.00,0.0195
3511.00,0.0196
3510.00,0.0197
3509.00,0.0197
3508.00,0.0198
3507.00,0.0199
3506.00,0.0199
3505.00,0.0200
3504.00,0.0201
3503.00,0.0202
3502.00,0.0202
3501.00,0.0203
3500.00,0.0204
3499.00,0.0204
3498.00,0.0205
3497.00,0.0206
3496.00,0.0206
3495.00,0.0207
3494.00,0.0208
3493.00,0.0208
3492.00,0.0209
3491.00,0.0210
3490.00,0.0210
3489.00,0.0211
3488.00,0.0211
3487.00,0.0212
3486.00,0.0213
3485.00,0.0213
3484.00,0.0214
3483.00,0.0215
3482.00,0.0215
3481.00,0.0216
3480.00,0.0217
3479.00,0.0218
3478.00,0.0218
3477.00,0.0219
3476.00,0.0220
3475.00,0.0220
3474.00,0.0221
3473.00,0.0222
3472.00,0.0222
3471.00,0.0223
3470.00,0.0224
3469.00,0.0225
3468.00,0.0226
3467.00,0.0226
3466.00,0.0227
3465.00,0.0227
3464.00,0.0228
3463.00,0.0228
3462.00,0.0229
3461.00,0.0230
3460.00,0.0231
3459.00,0.0232
3458.00,0.0232
3457.00,0.0233
3456.00,0.0233
3455.00,0.0234
3454.00,0.0235
3453.00,0.0235
3452.00,0.0236
3451.00,0.0237
3450.00,0.0237
3449.00,0.0238
3448.00,0.0239
3447.00,0.0240
3446.00,0.0240
3445.00,0.0241
3444.00,0.0242
3443.00,0.0243
3442.00,0.0243
3441.00,0.0244
3440.00,0.0245
3439.00,0.0246
3438.00,0.0247
3437.00,0.0247
3436.00,0.0248
3435.00,0.0248
3434.00,0.0249
3433.00,0.0250
3432.00,0.0250
3431.00,0.0251
3430.00,0.0252
3429.00,0.0252
3428.00,0.0253
3427.00,0.0254
3426.00,0.0255
3425.00,0.0255
3424.00,0.0256
3423.00,0.0257
3422.00,0.0257
3421.00,0.0258
3420.00,0.0259
3419.00,0.0259
3418.00,0.0260
3417.00,0.0260
3416.00,0.0261
3415.00,0.0262
3414.00,0.0263
3413.00,0.0263
3412.00,0.0264
3411.00,0.0265
3410.00,0.0265
3409.00,0.0266
3408.00,0.0266
3407.00,0.0267
3406.00,0.0268
3405.00,0.0268
3404.00,0.0269
3403.00,0.0270
3402.00,0.0270
3401.00,0.0271
3400.00,0.0272
3399.00,0.0272
3398.00,0.0273
3397.00,0.0273
3396.00,0.0274
3395.00,0.0274
3394.00,0.0275
3393.00,0.0275
3392.00,0.0276
3391.00,0.0277
3390.00,0.0277
3389.00,0.0278
3388.00,0.0278
3387.00,0.0279
3386.00,0.0280
3385.00,0.0281
3384.00,0.0281
3383.00,0.0282
3382.00,0.0282
3381.00,0.0283
3380.00,0.0283
3379.00,0.0284
3378.00,0.0285
3377.00,0.0286
3376.00,0.0287
3375.00,0.0287
3374.00,0.0288
3373.00,0.0289
3372.00,0.0289
3371.00,0.0290
3370.00,0.0291
3369.00,0.0292
3368.00,0.0293
3367.00,0.0294
3366.00,0.0295
3365.00,0.0296
3364.00,0.0297
3363.00,0.0297
3362.00,0.0298
3361.00,0.0299
3360.00,0.0300
3359.00,0.0301
3358.00,0.0302
3357.00,0.0303
3356.00,0.0304
3355.00,0.0305
3354.00,0.0306
3353.00,0.0307
3352.00,0.0308
3351.00,0.0310
3350.00,0.0311
3349.00,0.0312
3348.00,0.0313
3347.00,0.0314
3346.00,0.0315
3345.00,0.0316
3344.00,0.0318
3343.00,0.0319
3342.00,0.0321
3341.00,0.0322
3340.00,0.0323
3339.00,0.0324
3338.00,0.0326
3337.00,0.0327
3336.00,0.0329
3335.00,0.0330
3334.00,0.0332
3333.00,0.0334
3332.00,0.0336
3331.00,0.0337
3330.00,0.0339
3329.00,0.0341
3328.00,0.0342
3327.00,0.0344
3326.00,0.0346
3325.00,0.0348
3324.00,0.0350
3323.00,0.0352
3322.00,0.0354
3321.00,0.0356
3320.00,0.0358
3319.00,0.0361
3318.00,0.0363
3317.00,0.0365
3316.00,0.0368
3315.00,0.0370
3314.00,0.0372
3313.00,0.0375
3312.00,0.0377
3311.00,0.0379
3310.00,0.0381
3309.00,0.0384
3308.00,0.0387
3307.00,0.0389
3306.00,0.0393
3305.00,0.0396
3304.00,0.0399
3303.00,0.0402
3302.00,0.0405
3301.00,0.0407
3300.00,0.0410
3299.00,0.0413
3298.00,0.0415
3297.00,0.0418
3296.00,0.0421
3295.00,0.0424
3294.00,0.0427
3293.00,0.0430
3292.00,0.0433
3291.00,0.0437
3290.00,0.0440
3289.00,0.0443
3288.00,0.0446
3287.00,0.0448
3286.00,0.0450
3285.00,0.0453
3284.00,0.0455
3283.00,0.0457
3282.00,0.0459
3281.00,0.0461
3280.00,0.0463
3279.00,0.0464
3278.00,0.0465
3277.00,0.0466
3276.00,0.0467
3275.00,0.0468
3274.00,0.0468
3273.00,0.0469
3272.00,0.0469
3271.00,0.0469
3270.00,0.0469
3269.00,0.0469
3268.00,0.0469
3267.00,0.0468
3266.00,0.0467
3265.00,0.0466
3264.00,0.0465
3263.00,0.0463
3262.00,0.0461
3261.00,0.0459
3260.00,0.0457
3259.00,0.0455
3258.00,0.0453
3257.00,0.0451
3256.00,0.0449
3255.00,0.0446
3254.00,0.0444
3253.00,0.0442
3252.00,0.0439
3251.00,0.0437
3250.00,0.0434
3249.00,0.0432
3248.00,0.0429
3247.00,0.0427
3246.00,0.0425
3245.00,0.0422
3244.00,0.0420
3243.00,0.0418
3242.00,0.0416
3241.00,0.0414
3240.00,0.0412
3239.00,0.0410
3238.00,0.0408
3237.00,0.0406
3236.00,0.0403
3235.00,0.0401
3234.00,0.0399
3233.00,0.0397
3232.00,0.0396
3231.00,0.0394
3230.00,0.0393
3229.00,0.0392
3228.00,0.0391
3227.00,0.0389
3226.00,0.0388
3225.00,0.0386
3224.00,0.0384
3223.00,0.0383
3222.00,0.0381
3221.00,0.0380
3220.00,0.0378
3219.00,0.0377
3218.00,0.0376
3217.00,0.0375
3216.00,0.0374
3215.00,0.0372
3214.00,0.0371
3213.00,0.0370
3212.00,0.0369
3211.00,0.0368
3210.00,0.0366
3209.00,0.0365
3208.00,0.0364
3207.00,0.0363
3206.00,0.0362
3205.00,0.0361
3204.00,0.0359
3203.00,0.0358
3202.00,0.0357
3201.00,0.0356
3200.00,0.0355
3199.00,0.0354
3198.00,0.0353
3197.00,0.0352
3196.00,0.0351
3195.00,0.0349
3194.00,0.0348
3193.00,0.0347
3192.00,0.0346
3191.00,0.0345
3190.00,0.0343
3189.00,0.0342
3188.00,0.0341
3187.00,0.0340
3186.00,0.0339
3185.00,0.0338
3184.00,0.0337
3183.00,0.0335
3182.00,0.0334
3181.00,0.0333
3180.00,0.0332
3179.00,0.0331
3178.00,0.0329
3177.00,0.0328
3176.00,0.0327
3175.00,0.0326
3174.00,0.0324
3173.00,0.0323
3172.00,0.0322
3171.00,0.0321
3170.00,0.0320
3169.00,0.0319
3168.00,0.0317
3167.00,0.0316
3166.00,0.0315
3165.00,0.0314
3164.00,0.0313
3163.00,0.0311
3162.00,0.0310
3161.00,0.0309
3160.00,0.0308
3159.00,0.0307
3158.00,0.0305
3157.00,0.0305
3156.00,0.0304
3155.00,0.0303
3154.00,0.0301
3153.00,0.0300
3152.00,0.0299
3151.00,0.0298
3150.00,0.0297
3149.00,0.0296
3148.00,0.0295
3147.00,0.0294
3146.00,0.0293
3145.00,0.0292
3144.00,0.0291
3143.00,0.0290
3142.00,0.0289
3141.00,0.0288
3140.00,0.0287
3139.00,0.0287
3138.00,0.0286
3137.00,0.0285
3136.00,0.0284
3135.00,0.0283
3134.00,0.0283
3133.00,0.0282
3132.00,0.0281
3131.00,0.0281
3130.00,0.0280
3129.00,0.0279
3128.00,0.0279
3127.00,0.0278
3126.00,0.0277
3125.00,0.0277
3124.00,0.0276
3123.00,0.0275
3122.00,0.0275
3121.00,0.0274
3120.00,0.0273
3119.00,0.0273
3118.00,0.0273
3117.00,0.0272
3116.00,0.0272
3115.00,0.0272
3114.00,0.0272
3113.00,0.0271
3112.00,0.0271
3111.00,0.0270
3110.00,0.0270
3109.00,0.0270
3108.00,0.0270
3107.00,0.0271
3106.00,0.0271
3105.00,0.0271
3104.00,0.0271
3103.00,0.0270
3102.00,0.0270
3101.00,0.0270
3100.00,0.0270
3099.00,0.0270
3098.00,0.0270
3097.00,0.0271
3096.00,0.0271
3095.00,0.0271
3094.00,0.0271
3093.00,0.0271
3092.00,0.0271
3091.00,0.0271
3090.00,0.0271
3089.00,0.0271
3088.00,0.0271
3087.00,0.0271
3086.00,0.0271
3085.00,0.0271
3084.00,0.0271
3083.00,0.0271
3082.00,0.0271
3081.00,0.0271
3080.00,0.0271
3079.00,0.0271
3078.00,0.0271
3077.00,0.0272
3076.00,0.0272
3075.00,0.0272
3074.00,0.0273
3073.00,0.0273
3072.00,0.0273
3071.00,0.0272
3070.00,0.0272
3069.00,0.0271
3068.00,0.0271
3067.00,0.0271
3066.00,0.0271
3065.00,0.0271
3064.00,0.0271
3063.00,0.0271
3062.00,0.0271
3061.00,0.0270
3060.00,0.0269
3059.00,0.0269
3058.00,0.0268
3057.00,0.0267
3056.00,0.0267
3055.00,0.0266
3054.00,0.0265
3053.00,0.0265
3052.00,0.0264
3051.00,0.0263
3050.00,0.0262
3049.00,0.0261
3048.00,0.0261
3047.00,0.0260
3046.00,0.0259
3045.00,0.0259
3044.00,0.0258
3043.00,0.0257
3042.00,0.0256
3041.00,0.0256
3040.00,0.0255
3039.00,0.0255
3038.00,0.0255
3037.00,0.0254
3036.00,0.0253
3035.00,0.0252
3034.00,0.0251
3033.00,0.0250
3032.00,0.0250
3031.00,0.0249
3030.00,0.0249
3029.00,0.0249
3028.00,0.0248
3027.00,0.0247
3026.00,0.0246
3025.00,0.0246
3024.00,0.0245
3023.00,0.0244
3022.00,0.0243
3021.00,0.0242
3020.00,0.0242
3019.00,0.0241
3018.00,0.0240
3017.00,0.0239
3016.00,0.0239
3015.00,0.0238
3014.00,0.0237
3013.00,0.0236
3012.00,0.0236
3011.00,0.0235
3010.00,0.0235
3009.00,0.0235
3008.00,0.0235
3007.00,0.0235
3006.00,0.0235
3005.00,0.0235
3004.00,0.0235
3003.00,0.0235
3002.00,0.0234
3001.00,0.0234
3000.00,0.0234
2999.00,0.0234
2998.00,0.0234
2997.00,0.0234
2996.00,0.0234
2995.00,0.0234
2994.00,0.0235
2993.00,0.0235
2992.00,0.0236
2991.00,0.0236
2990.00,0.0237
2989.00,0.0238
2988.00,0.0239
2987.00,0.0240
2986.00,0.0241
2985.00,0.0242
2984.00,0.0242
2983.00,0.0243
2982.00,0.0244
2981.00,0.0244
2980.00,0.0245
2979.00,0.0246
2978.00,0.0247
2977.00,0.0247
2976.00,0.0248
2975.00,0.0249
2974.00,0.0250
2973.00,0.0250
2972.00,0.0251
2971.00,0.0251
2970.00,0.0252
2969.00,0.0253
2968.00,0.0253
2967.00,0.0254
2966.00,0.0254
2965.00,0.0254
2964.00,0.0254
2963.00,0.0254
2962.00,0.0254
2961.00,0.0253
2960.00,0.0253
2959.00,0.0253
2958.00,0.0252
2957.00,0.0252
2956.00,0.0251
2955.00,0.0251
2954.00,0.0251
2953.00,0.0250
2952.00,0.0250
2951.00,0.0250
2950.00,0.0250
2949.00,0.0250
2948.00,0.0250
2947.00,0.0250
2946.00,0.0250
2945.00,0.0250
2944.00,0.0251
2943.00,0.0251
2942.00,0.0252
2941.00,0.0252
2940.00,0.0253
2939.00,0.0254
2938.00,0.0254
2937.00,0.0255
2936.00,0.0255
2935.00,0.0255
2934.00,0.0255
2933.00,0.0255
2932.00,0.0254
2931.00,0.0254
2930.00,0.0253
2929.00,0.0252
2928.00,0.0251
2927.00,0.0250
2926.00,0.0248
2925.00,0.0246
2924.00,0.0244
2923.00,0.0242
2922.00,0.0240
2921.00,0.0238
2920.00,0.0235
2919.00,0.0233
2918.00,0.0231
2917.00,0.0229
2916.00,0.0228
2915.00,0.0228
2914.00,0.0229
2913.00,0.0230
2912.00,0.0231
2911.00,0.0232
2910.00,0.0232
2909.00,0.0233
2908.00,0.0233
2907.00,0.0233
2906.00,0.0233
2905.00,0.0232
2904.00,0.0232
2903.00,0.0231
2902.00,0.0231
2901.00,0.0231
2900.00,0.0231
2899.00,0.0230
2898.00,0.0230
2897.00,0.0230
2896.00,0.0229
2895.00,0.0230
2894.00,0.0230
2893.00,0.0230
2892.00,0.0230
2891.00,0.0230
2890.00,0.0230
2889.00,0.0230
2888.00,0.0230
2887.00,0.0231
2886.00,0.0231
2885.00,0.0231
2884.00,0.0231
2883.00,0.0232
2882.00,0.0232
2881.00,0.0233
2880.00,0.0233
2879.00,0.0234
2878.00,0.0234
2877.00,0.0234
2876.00,0.0234
2875.00,0.0234
2874.00,0.0234
2873.00,0.0234
2872.00,0.0234
2871.00,0.0233
2870.00,0.0232
2869.00,0.0231
2868.00,0.0230
2867.00,0.0229
2866.00,0.0228
2865.00,0.0227
2864.00,0.0225
2863.00,0.0224
2862.00,0.0223
2861.00,0.0222
2860.00,0.0221
2859.00,0.0220
2858.00,0.0219
2857.00,0.0218
2856.00,0.0217
2855.00,0.0216
2854.00,0.0214
2853.00,0.0212
2852.00,0.0210
2851.00,0.0208
2850.00,0.0206
2849.00,0.0204
2848.00,0.0204
2847.00,0.0205
2846.00,0.0206
2845.00,0.0207
2844.00,0.0208
2843.00,0.0209
2842.00,0.0209
2841.00,0.0209
2840.00,0.0209
2839.00,0.0208
2838.00,0.0208
2837.00,0.0208
2836.00,0.0207
2835.00,0.0207
2834.00,0.0207
2833.00,0.0206
2832.00,0.0206
2831.00,0.0206
2830.00,0.0206
2829.00,0.0205
2828.00,0.0205
2827.00,0.0205
2826.00,0.0204
2825.00,0.0204
2824.00,0.0203
2823.00,0.0203
2822.00,0.0203
2821.00,0.0202
2820.00,0.0202
2819.00,0.0202
2818.00,0.0202
2817.00,0.0202
2816.00,0.0201
2815.00,0.0201
2814.00,0.0201
2813.00,0.0201
2812.00,0.0200
2811.00,0.0200
2810.00,0.0200
2809.00,0.0200
2808.00,0.0199
2807.00,0.0199
2806.00,0.0199
2805.00,0.0199
2804.00,0.0198
2803.00,0.0198
2802.00,0.0198
2801.00,0.0198
2800.00,0.0198
2799.00,0.0197
2798.00,0.0197
2797.00,0.0197
2796.00,0.0197
2795.00,0.0197
2794.00,0.0196
2793.00,0.0196
2792.00,0.0196
2791.00,0.0196
2790.00,0.0195
2789.00,0.0195
2788.00,0.0195
2787.00,0.0195
2786.00,0.0195
2785.00,0.0195
2784.00,0.0195
2783.00,0.0194
2782.00,0.0194
2781.00,0.0194
2780.00,0.0194
2779.00,0.0193
2778.00,0.0193
2777.00,0.0193
2776.00,0.0192
2775.00,0.0192
2774.00,0.0192
2773.00,0.0192
2772.00,0.0192
2771.00,0.0191
2770.00,0.0191
2769.00,0.0191
2768.00,0.0191
2767.00,0.0191
2766.00,0.0190
2765.00,0.0190
2764.00,0.0190
2763.00,0.0189
2762.00,0.0189
2761.00,0.0189
2760.00,0.0189
2759.00,0.0189
2758.00,0.0189
2757.00,0.0189
