Created as New Dataset,Sample 314 By YargerLab Date Sunday, August 18 2024
cm-1,A
4000.00,0.0081
3999.00,0.0081
3998.00,0.0081
3997.00,0.0081
3996.00,0.0081
3995.00,0.0081
3994.00,0.0081
3993.00,0.0081
3992.00,0.0081
3991.00,0.0081
3990.00,0.0081
3989.00,0.0081
3988.00,0.0081
3987.00,0.0081
3986.00,0.0081
3985.00,0.0081
3984.00,0.0081
3983.00,0.0081
3982.00,0.0081
3981.00,0.0081
3980.00,0.0081
3979.00,0.0081
3978.00,0.0081
3977.00,0.0081
3976.00,0.0081
3975.00,0.0081
3974.00,0.0081
3973.00,0.0081
3972.00,0.0081
3971.00,0.0081
3970.00,0.0081
3969.00,0.0081
3968.00,0.0081
3967.00,0.0081
3966.00,0.0081
3965.00,0.0081
3964.00,0.0081
3963.00,0.0081
3962.00,0.0081
3961.00,0.0081
3960.00,0.0081
3959.00,0.0081
3958.00,0.0081
3957.00,0.0081
3956.00,0.0080
3955.00,0.0080
3954.00,0.0080
3953.00,0.0080
3952.00,0.0080
3951.00,0.0080
3950.00,0.0081
3949.00,0.0081
3948.00,0.0081
3947.00,0.0081
3946.00,0.0081
3945.00,0.0080
3944.00,0.0080
3943.00,0.0080
3942.00,0.0080
3941.00,0.0081
3940.00,0.0081
3939.00,0.0081
3938.00,0.0081
3937.00,0.0081
3936.00,0.0081
3935.00,0.0081
3934.00,0.0081
3933.00,0.0080
3932.00,0.0080
3931.00,0.0080
3930.00,0.0080
3929.00,0.0080
3928.00,0.0080
3927.00,0.0080
3926.00,0.0080
3925.00,0.0080
3924.00,0.0080
3923.00,0.0080
3922.00,0.0080
3921.00,0.0080
3920.00,0.0080
3919.00,0.0080
3918.00,0.0080
3917.00,0.0080
3916.00,0.0080
3915.00,0.0080
3914.00,0.0080
3913.00,0.0080
3912.00,0.0080
3911.00,0.0080
3910.00,0.0080
3909.00,0.0080
3908.00,0.0080
3907.00,0.0080
3906.00,0.0080
3905.00,0.0080
3904.00,0.0080
3903.00,0.0080
3902.00,0.0080
3901.00,0.0080
3900.00,0.0080
3899.00,0.0079
3898.00,0.0079
3897.00,0.0079
3896.00,0.0080
3895.00,0.0080
3894.00,0.0080
3893.00,0.0079
3892.00,0.0079
3891.00,0.0079
3890.00,0.0080
3889.00,0.0080
3888.00,0.0079
3887.00,0.0079
3886.00,0.0079
3885.00,0.0079
3884.00,0.0079
3883.00,0.0079
3882.00,0.0079
3881.00,0.0079
3880.00,0.0079
3879.00,0.0079
3878.00,0.0079
3877.00,0.0079
3876.00,0.0079
3875.00,0.0079
3874.00,0.0079
3873.00,0.0079
3872.00,0.0079
3871.00,0.0079
3870.00,0.0079
3869.00,0.0079
3868.00,0.0079
3867.00,0.0079
3866.00,0.0079
3865.00,0.0078
3864.00,0.0078
3863.00,0.0078
3862.00,0.0078
3861.00,0.0078
3860.00,0.0078
3859.00,0.0078
3858.00,0.0078
3857.00,0.0078
3856.00,0.0078
3855.00,0.0078
3854.00,0.0078
3853.00,0.0078
3852.00,0.0078
3851.00,0.0078
3850.00,0.0078
3849.00,0.0078
3848.00,0.0078
3847.00,0.0078
3846.00,0.0079
3845.00,0.0079
3844.00,0.0078
3843.00,0.0078
3842.00,0.0078
3841.00,0.0078
3840.00,0.0078
3839.00,0.0078
3838.00,0.0078
3837.00,0.0078
3836.00,0.0078
3835.00,0.0078
3834.00,0.0078
3833.00,0.0078
3832.00,0.0078
3831.00,0.0078
3830.00,0.0078
3829.00,0.0078
3828.00,0.0078
3827.00,0.0078
3826.00,0.0078
3825.00,0.0078
3824.00,0.0078
3823.00,0.0078
3822.00,0.0078
3821.00,0.0078
3820.00,0.0078
3819.00,0.0077
3818.00,0.0077
3817.00,0.0077
3816.00,0.0077
3815.00,0.0077
3814.00,0.0077
3813.00,0.0077
3812.00,0.0077
3811.00,0.0077
3810.00,0.0078
3809.00,0.0078
3808.00,0.0077
3807.00,0.0077
3806.00,0.0077
3805.00,0.0077
3804.00,0.0077
3803.00,0.0077
3802.00,0.0076
3801.00,0.0076
3800.00,0.0076
3799.00,0.0076
3798.00,0.0076
3797.00,0.0076
3796.00,0.0077
3795.00,0.0077
3794.00,0.0077
3793.00,0.0077
3792.00,0.0077
3791.00,0.0077
3790.00,0.0077
3789.00,0.0077
3788.00,0.0077
3787.00,0.0076
3786.00,0.0076
3785.00,0.0076
3784.00,0.0076
3783.00,0.0076
3782.00,0.0076
3781.00,0.0076
3780.00,0.0076
3779.00,0.0076
3778.00,0.0076
3777.00,0.0076
3776.00,0.0076
3775.00,0.0076
3774.00,0.0076
3773.00,0.0076
3772.00,0.0076
3771.00,0.0076
3770.00,0.0076
3769.00,0.0076
3768.00,0.0076
3767.00,0.0075
3766.00,0.0075
3765.00,0.0075
3764.00,0.0076
3763.00,0.0076
3762.00,0.0076
3761.00,0.0076
3760.00,0.0076
3759.00,0.0076
3758.00,0.0076
3757.00,0.0076
3756.00,0.0076
3755.00,0.0076
3754.00,0.0076
3753.00,0.0076
3752.00,0.0076
3751.00,0.0076
3750.00,0.0076
3749.00,0.0076
3748.00,0.0076
3747.00,0.0076
3746.00,0.0076
3745.00,0.0075
3744.00,0.0075
3743.00,0.0075
3742.00,0.0075
3741.00,0.0075
3740.00,0.0075
3739.00,0.0075
3738.00,0.0075
3737.00,0.0074
3736.00,0.0074
3735.00,0.0074
3734.00,0.0074
3733.00,0.0074
3732.00,0.0074
3731.00,0.0074
3730.00,0.0074
3729.00,0.0074
3728.00,0.0074
3727.00,0.0074
3726.00,0.0074
3725.00,0.0074
3724.00,0.0074
3723.00,0.0074
3722.00,0.0074
3721.00,0.0073
3720.00,0.0073
3719.00,0.0073
3718.00,0.0073
3717.00,0.0073
3716.00,0.0073
3715.00,0.0073
3714.00,0.0073
3713.00,0.0073
3712.00,0.0073
3711.00,0.0073
3710.00,0.0073
3709.00,0.0073
3708.00,0.0073
3707.00,0.0072
3706.00,0.0072
3705.00,0.0072
3704.00,0.0072
3703.00,0.0072
3702.00,0.0072
3701.00,0.0071
3700.00,0.0072
3699.00,0.0072
3698.00,0.0072
3697.00,0.0072
3696.00,0.0072
3695.00,0.0072
3694.00,0.0072
3693.00,0.0072
3692.00,0.0071
3691.00,0.0071
3690.00,0.0071
3689.00,0.0071
3688.00,0.0071
3687.00,0.0071
3686.00,0.0071
3685.00,0.0071
3684.00,0.0071
3683.00,0.0072
3682.00,0.0072
3681.00,0.0072
3680.00,0.0072
3679.00,0.0072
3678.00,0.0072
3677.00,0.0072
3676.00,0.0072
3675.00,0.0072
3674.00,0.0072
3673.00,0.0071
3672.00,0.0071
3671.00,0.0071
3670.00,0.0072
3669.00,0.0072
3668.00,0.0072
3667.00,0.0072
3666.00,0.0072
3665.00,0.0072
3664.00,0.0072
3663.00,0.0072
3662.00,0.0072
3661.00,0.0073
3660.00,0.0073
3659.00,0.0073
3658.00,0.0073
3657.00,0.0074
3656.00,0.0074
3655.00,0.0074
3654.00,0.0074
3653.00,0.0074
3652.00,0.0074
3651.00,0.0074
3650.00,0.0074
3649.00,0.0074
3648.00,0.0074
3647.00,0.0074
3646.00,0.0074
3645.00,0.0074
3644.00,0.0074
3643.00,0.0074
3642.00,0.0074
3641.00,0.0074
3640.00,0.0075
3639.00,0.0075
3638.00,0.0075
3637.00,0.0075
3636.00,0.0076
3635.00,0.0076
3634.00,0.0076
3633.00,0.0076
3632.00,0.0076
3631.00,0.0076
3630.00,0.0077
3629.00,0.0077
3628.00,0.0077
3627.00,0.0077
3626.00,0.0077
3625.00,0.0077
3624.00,0.0077
3623.00,0.0077
3622.00,0.0078
3621.00,0.0078
3620.00,0.0078
3619.00,0.0078
3618.00,0.0079
3617.00,0.0079
3616.00,0.0079
3615.00,0.0080
3614.00,0.0080
3613.00,0.0080
3612.00,0.0081
3611.00,0.0081
3610.00,0.0081
3609.00,0.0081
3608.00,0.0081
3607.00,0.0081
3606.00,0.0082
3605.00,0.0082
3604.00,0.0082
3603.00,0.0082
3602.00,0.0082
3601.00,0.0082
3600.00,0.0082
3599.00,0.0083
3598.00,0.0083
3597.00,0.0083
3596.00,0.0083
3595.00,0.0084
3594.00,0.0084
3593.00,0.0084
3592.00,0.0085
3591.00,0.0085
3590.00,0.0085
3589.00,0.0085
3588.00,0.0085
3587.00,0.0086
3586.00,0.0086
3585.00,0.0086
3584.00,0.0087
3583.00,0.0087
3582.00,0.0087
3581.00,0.0087
3580.00,0.0088
3579.00,0.0088
3578.00,0.0088
3577.00,0.0088
3576.00,0.0089
3575.00,0.0089
3574.00,0.0089
3573.00,0.0090
3572.00,0.0090
3571.00,0.0091
3570.00,0.0091
3569.00,0.0091
3568.00,0.0092
3567.00,0.0092
3566.00,0.0092
3565.00,0.0092
3564.00,0.0093
3563.00,0.0093
3562.00,0.0093
3561.00,0.0093
3560.00,0.0094
3559.00,0.0094
3558.00,0.0095
3557.00,0.0095
3556.00,0.0096
3555.00,0.0096
3554.00,0.0096
3553.00,0.0097
3552.00,0.0097
3551.00,0.0098
3550.00,0.0098
3549.00,0.0098
3548.00,0.0099
3547.00,0.0099
3546.00,0.0100
3545.00,0.0100
3544.00,0.0100
3543.00,0.0100
3542.00,0.0101
3541.00,0.0101
3540.00,0.0101
3539.00,0.0102
3538.00,0.0102
3537.00,0.0102
3536.00,0.0103
3535.00,0.0103
3534.00,0.0103
3533.00,0.0104
3532.00,0.0104
3531.00,0.0104
3530.00,0.0105
3529.00,0.0105
3528.00,0.0106
3527.00,0.0106
3526.00,0.0107
3525.00,0.0107
3524.00,0.0107
3523.00,0.0108
3522.00,0.0108
3521.00,0.0108
3520.00,0.0108
3519.00,0.0109
3518.00,0.0109
3517.00,0.0109
3516.00,0.0110
3515.00,0.0110
3514.00,0.0110
3513.00,0.0111
3512.00,0.0111
3511.00,0.0111
3510.00,0.0112
3509.00,0.0112
3508.00,0.0113
3507.00,0.0113
3506.00,0.0113
3505.00,0.0114
3504.00,0.0114
3503.00,0.0114
3502.00,0.0115
3501.00,0.0115
3500.00,0.0116
3499.00,0.0116
3498.00,0.0116
3497.00,0.0117
3496.00,0.0117
3495.00,0.0117
3494.00,0.0117
3493.00,0.0118
3492.00,0.0118
3491.00,0.0118
3490.00,0.0119
3489.00,0.0119
3488.00,0.0120
3487.00,0.0120
3486.00,0.0121
3485.00,0.0121
3484.00,0.0121
3483.00,0.0122
3482.00,0.0122
3481.00,0.0123
3480.00,0.0123
3479.00,0.0123
3478.00,0.0124
3477.00,0.0124
3476.00,0.0124
3475.00,0.0125
3474.00,0.0125
3473.00,0.0125
3472.00,0.0126
3471.00,0.0126
3470.00,0.0127
3469.00,0.0127
3468.00,0.0128
3467.00,0.0128
3466.00,0.0128
3465.00,0.0128
3464.00,0.0129
3463.00,0.0129
3462.00,0.0130
3461.00,0.0130
3460.00,0.0131
3459.00,0.0131
3458.00,0.0131
3457.00,0.0131
3456.00,0.0132
3455.00,0.0132
3454.00,0.0132
3453.00,0.0133
3452.00,0.0133
3451.00,0.0134
3450.00,0.0134
3449.00,0.0134
3448.00,0.0135
3447.00,0.0135
3446.00,0.0136
3445.00,0.0136
3444.00,0.0137
3443.00,0.0137
3442.00,0.0137
3441.00,0.0138
3440.00,0.0138
3439.00,0.0138
3438.00,0.0139
3437.00,0.0139
3436.00,0.0140
3435.00,0.0140
3434.00,0.0140
3433.00,0.0141
3432.00,0.0141
3431.00,0.0142
3430.00,0.0142
3429.00,0.0142
3428.00,0.0143
3427.00,0.0143
3426.00,0.0144
3425.00,0.0144
3424.00,0.0145
3423.00,0.0145
3422.00,0.0145
3421.00,0.0146
3420.00,0.0146
3419.00,0.0146
3418.00,0.0146
3417.00,0.0147
3416.00,0.0147
3415.00,0.0148
3414.00,0.0148
3413.00,0.0148
3412.00,0.0149
3411.00,0.0149
3410.00,0.0150
3409.00,0.0150
3408.00,0.0150
3407.00,0.0151
3406.00,0.0151
3405.00,0.0151
3404.00,0.0152
3403.00,0.0152
3402.00,0.0152
3401.00,0.0153
3400.00,0.0153
3399.00,0.0154
3398.00,0.0154
3397.00,0.0154
3396.00,0.0154
3395.00,0.0155
3394.00,0.0155
3393.00,0.0155
3392.00,0.0156
3391.00,0.0156
3390.00,0.0156
3389.00,0.0157
3388.00,0.0157
3387.00,0.0157
3386.00,0.0158
3385.00,0.0158
3384.00,0.0159
3383.00,0.0159
3382.00,0.0159
3381.00,0.0160
3380.00,0.0160
3379.00,0.0160
3378.00,0.0161
3377.00,0.0161
3376.00,0.0162
3375.00,0.0162
3374.00,0.0162
3373.00,0.0163
3372.00,0.0163
3371.00,0.0164
3370.00,0.0164
3369.00,0.0165
3368.00,0.0165
3367.00,0.0166
3366.00,0.0166
3365.00,0.0167
3364.00,0.0167
3363.00,0.0167
3362.00,0.0168
3361.00,0.0169
3360.00,0.0169
3359.00,0.0170
3358.00,0.0170
3357.00,0.0171
3356.00,0.0172
3355.00,0.0172
3354.00,0.0173
3353.00,0.0173
3352.00,0.0174
3351.00,0.0174
3350.00,0.0175
3349.00,0.0176
3348.00,0.0176
3347.00,0.0177
3346.00,0.0178
3345.00,0.0178
3344.00,0.0179
3343.00,0.0180
3342.00,0.0180
3341.00,0.0181
3340.00,0.0182
3339.00,0.0183
3338.00,0.0184
3337.00,0.0185
3336.00,0.0186
3335.00,0.0187
3334.00,0.0187
3333.00,0.0188
3332.00,0.0189
3331.00,0.0190
3330.00,0.0191
3329.00,0.0192
3328.00,0.0193
3327.00,0.0194
3326.00,0.0195
3325.00,0.0196
3324.00,0.0197
3323.00,0.0199
3322.00,0.0200
3321.00,0.0201
3320.00,0.0202
3319.00,0.0203
3318.00,0.0205
3317.00,0.0206
3316.00,0.0208
3315.00,0.0209
3314.00,0.0210
3313.00,0.0212
3312.00,0.0213
3311.00,0.0214
3310.00,0.0215
3309.00,0.0217
3308.00,0.0218
3307.00,0.0220
3306.00,0.0221
3305.00,0.0223
3304.00,0.0225
3303.00,0.0227
3302.00,0.0229
3301.00,0.0230
3300.00,0.0232
3299.00,0.0234
3298.00,0.0235
3297.00,0.0237
3296.00,0.0238
3295.00,0.0240
3294.00,0.0241
3293.00,0.0243
3292.00,0.0245
3291.00,0.0247
3290.00,0.0248
3289.00,0.0250
3288.00,0.0252
3287.00,0.0253
3286.00,0.0255
3285.00,0.0256
3284.00,0.0258
3283.00,0.0259
3282.00,0.0260
3281.00,0.0261
3280.00,0.0262
3279.00,0.0263
3278.00,0.0263
3277.00,0.0264
3276.00,0.0264
3275.00,0.0265
3274.00,0.0265
3273.00,0.0265
3272.00,0.0265
3271.00,0.0265
3270.00,0.0265
3269.00,0.0265
3268.00,0.0265
3267.00,0.0264
3266.00,0.0264
3265.00,0.0263
3264.00,0.0262
3263.00,0.0261
3262.00,0.0260
3261.00,0.0259
3260.00,0.0258
3259.00,0.0257
3258.00,0.0255
3257.00,0.0254
3256.00,0.0253
3255.00,0.0252
3254.00,0.0250
3253.00,0.0249
3252.00,0.0248
3251.00,0.0246
3250.00,0.0244
3249.00,0.0243
3248.00,0.0241
3247.00,0.0240
3246.00,0.0239
3245.00,0.0238
3244.00,0.0236
3243.00,0.0235
3242.00,0.0234
3241.00,0.0233
3240.00,0.0232
3239.00,0.0230
3238.00,0.0229
3237.00,0.0228
3236.00,0.0227
3235.00,0.0225
3234.00,0.0224
3233.00,0.0223
3232.00,0.0222
3231.00,0.0222
3230.00,0.0221
3229.00,0.0220
3228.00,0.0219
3227.00,0.0218
3226.00,0.0218
3225.00,0.0217
3224.00,0.0216
3223.00,0.0215
3222.00,0.0214
3221.00,0.0213
3220.00,0.0212
3219.00,0.0212
3218.00,0.0211
3217.00,0.0210
3216.00,0.0210
3215.00,0.0209
3214.00,0.0208
3213.00,0.0208
3212.00,0.0207
3211.00,0.0206
3210.00,0.0206
3209.00,0.0205
3208.00,0.0204
3207.00,0.0204
3206.00,0.0203
3205.00,0.0202
3204.00,0.0202
3203.00,0.0201
3202.00,0.0200
3201.00,0.0200
3200.00,0.0199
3199.00,0.0199
3198.00,0.0198
3197.00,0.0197
3196.00,0.0197
3195.00,0.0196
3194.00,0.0195
3193.00,0.0195
3192.00,0.0194
3191.00,0.0193
3190.00,0.0193
3189.00,0.0192
3188.00,0.0192
3187.00,0.0191
3186.00,0.0190
3185.00,0.0190
3184.00,0.0189
3183.00,0.0189
3182.00,0.0188
3181.00,0.0187
3180.00,0.0186
3179.00,0.0186
3178.00,0.0185
3177.00,0.0184
3176.00,0.0184
3175.00,0.0183
3174.00,0.0182
3173.00,0.0182
3172.00,0.0181
3171.00,0.0180
3170.00,0.0180
3169.00,0.0179
3168.00,0.0179
3167.00,0.0178
3166.00,0.0177
3165.00,0.0176
3164.00,0.0176
3163.00,0.0175
3162.00,0.0174
3161.00,0.0174
3160.00,0.0173
3159.00,0.0173
3158.00,0.0172
3157.00,0.0171
3156.00,0.0171
3155.00,0.0170
3154.00,0.0169
3153.00,0.0169
3152.00,0.0168
3151.00,0.0168
3150.00,0.0167
3149.00,0.0167
3148.00,0.0166
3147.00,0.0166
3146.00,0.0165
3145.00,0.0165
3144.00,0.0164
3143.00,0.0164
3142.00,0.0163
3141.00,0.0162
3140.00,0.0162
3139.00,0.0161
3138.00,0.0161
3137.00,0.0161
3136.00,0.0160
3135.00,0.0160
3134.00,0.0159
3133.00,0.0159
3132.00,0.0159
3131.00,0.0159
3130.00,0.0158
3129.00,0.0158
3128.00,0.0157
3127.00,0.0157
3126.00,0.0157
3125.00,0.0156
3124.00,0.0156
3123.00,0.0155
3122.00,0.0155
3121.00,0.0155
3120.00,0.0154
3119.00,0.0154
3118.00,0.0154
3117.00,0.0154
3116.00,0.0154
3115.00,0.0154
3114.00,0.0154
3113.00,0.0154
3112.00,0.0153
3111.00,0.0153
3110.00,0.0153
3109.00,0.0153
3108.00,0.0153
3107.00,0.0153
3106.00,0.0153
3105.00,0.0153
3104.00,0.0153
3103.00,0.0153
3102.00,0.0153
3101.00,0.0153
3100.00,0.0153
3099.00,0.0153
3098.00,0.0153
3097.00,0.0153
3096.00,0.0153
3095.00,0.0153
3094.00,0.0153
3093.00,0.0153
3092.00,0.0153
3091.00,0.0153
3090.00,0.0153
3089.00,0.0153
3088.00,0.0153
3087.00,0.0153
3086.00,0.0153
3085.00,0.0153
3084.00,0.0153
3083.00,0.0153
3082.00,0.0153
3081.00,0.0153
3080.00,0.0153
3079.00,0.0153
3078.00,0.0153
3077.00,0.0154
3076.00,0.0154
3075.00,0.0154
3074.00,0.0154
3073.00,0.0154
3072.00,0.0154
3071.00,0.0154
3070.00,0.0154
3069.00,0.0153
3068.00,0.0153
3067.00,0.0153
3066.00,0.0153
3065.00,0.0153
3064.00,0.0153
3063.00,0.0153
3062.00,0.0153
3061.00,0.0153
3060.00,0.0153
3059.00,0.0152
3058.00,0.0152
3057.00,0.0151
3056.00,0.0151
3055.00,0.0151
3054.00,0.0150
3053.00,0.0150
3052.00,0.0150
3051.00,0.0149
3050.00,0.0149
3049.00,0.0148
3048.00,0.0148
3047.00,0.0147
3046.00,0.0147
3045.00,0.0146
3044.00,0.0146
3043.00,0.0146
3042.00,0.0145
3041.00,0.0145
3040.00,0.0145
3039.00,0.0145
3038.00,0.0144
3037.00,0.0144
3036.00,0.0143
3035.00,0.0143
3034.00,0.0142
3033.00,0.0142
3032.00,0.0142
3031.00,0.0142
3030.00,0.0141
3029.00,0.0141
3028.00,0.0141
3027.00,0.0140
3026.00,0.0140
3025.00,0.0139
3024.00,0.0139
3023.00,0.0138
3022.00,0.0138
3021.00,0.0137
3020.00,0.0137
3019.00,0.0137
3018.00,0.0136
3017.00,0.0136
3016.00,0.0135
3015.00,0.0135
3014.00,0.0134
3013.00,0.0134
3012.00,0.0134
3011.00,0.0134
3010.00,0.0134
3009.00,0.0134
3008.00,0.0134
3007.00,0.0134
3006.00,0.0133
3005.00,0.0133
3004.00,0.0133
3003.00,0.0133
3002.00,0.0133
3001.00,0.0133
3000.00,0.0133
2999.00,0.0133
2998.00,0.0132
2997.00,0.0133
2996.00,0.0133
2995.00,0.0133
2994.00,0.0133
2993.00,0.0133
2992.00,0.0134
2991.00,0.0134
2990.00,0.0134
2989.00,0.0135
2988.00,0.0135
2987.00,0.0136
2986.00,0.0136
2985.00,0.0136
2984.00,0.0137
2983.00,0.0137
2982.00,0.0137
2981.00,0.0138
2980.00,0.0138
2979.00,0.0139
2978.00,0.0139
2977.00,0.0139
2976.00,0.0140
2975.00,0.0140
2974.00,0.0141
2973.00,0.0141
2972.00,0.0141
2971.00,0.0142
2970.00,0.0142
2969.00,0.0142
2968.00,0.0142
2967.00,0.0142
2966.00,0.0142
2965.00,0.0142
2964.00,0.0142
2963.00,0.0142
2962.00,0.0141
2961.00,0.0141
2960.00,0.0141
2959.00,0.0141
2958.00,0.0141
2957.00,0.0140
2956.00,0.0140
2955.00,0.0140
2954.00,0.0140
2953.00,0.0140
2952.00,0.0139
2951.00,0.0139
2950.00,0.0139
2949.00,0.0139
2948.00,0.0140
2947.00,0.0140
2946.00,0.0140
2945.00,0.0140
2944.00,0.0140
2943.00,0.0140
2942.00,0.0141
2941.00,0.0141
2940.00,0.0141
2939.00,0.0142
2938.00,0.0142
2937.00,0.0142
2936.00,0.0142
2935.00,0.0142
2934.00,0.0141
2933.00,0.0141
2932.00,0.0140
2931.00,0.0139
2930.00,0.0139
2929.00,0.0138
2928.00,0.0137
2927.00,0.0136
2926.00,0.0135
2925.00,0.0134
2924.00,0.0132
2923.00,0.0130
2922.00,0.0129
2921.00,0.0127
2920.00,0.0125
2919.00,0.0123
2918.00,0.0122
2917.00,0.0120
2916.00,0.0120
2915.00,0.0120
2914.00,0.0122
2913.00,0.0123
2912.00,0.0125
2911.00,0.0126
2910.00,0.0127
2909.00,0.0127
2908.00,0.0128
2907.00,0.0128
2906.00,0.0128
2905.00,0.0128
2904.00,0.0128
2903.00,0.0128
2902.00,0.0128
2901.00,0.0128
2900.00,0.0128
2899.00,0.0128
2898.00,0.0128
2897.00,0.0128
2896.00,0.0128
2895.00,0.0128
2894.00,0.0128
2893.00,0.0128
2892.00,0.0129
2891.00,0.0129
2890.00,0.0129
2889.00,0.0129
2888.00,0.0129
2887.00,0.0130
2886.00,0.0130
2885.00,0.0130
2884.00,0.0130
2883.00,0.0131
2882.00,0.0131
2881.00,0.0131
2880.00,0.0132
2879.00,0.0132
2878.00,0.0132
2877.00,0.0132
2876.00,0.0132
2875.00,0.0132
2874.00,0.0132
2873.00,0.0132
2872.00,0.0132
2871.00,0.0132
2870.00,0.0131
2869.00,0.0131
2868.00,0.0130
2867.00,0.0130
2866.00,0.0129
2865.00,0.0128
2864.00,0.0127
2863.00,0.0127
2862.00,0.0126
2861.00,0.0125
2860.00,0.0125
2859.00,0.0124
2858.00,0.0123
2857.00,0.0122
2856.00,0.0121
2855.00,0.0120
2854.00,0.0119
2853.00,0.0117
2852.00,0.0115
2851.00,0.0113
2850.00,0.0112
2849.00,0.0111
2848.00,0.0111
2847.00,0.0112
2846.00,0.0114
2845.00,0.0115
2844.00,0.0117
2843.00,0.0118
2842.00,0.0118
2841.00,0.0119
2840.00,0.0119
2839.00,0.0119
2838.00,0.0119
2837.00,0.0119
2836.00,0.0119
2835.00,0.0119
2834.00,0.0119
2833.00,0.0118
2832.00,0.0118
2831.00,0.0118
2830.00,0.0118
2829.00,0.0118
2828.00,0.0118
2827.00,0.0117
2826.00,0.0117
2825.00,0.0117
2824.00,0.0117
2823.00,0.0117
2822.00,0.0117
2821.00,0.0117
2820.00,0.0117
2819.00,0.0117
2818.00,0.0116
2817.00,0.0116
2816.00,0.0116
2815.00,0.0116
2814.00,0.0116
2813.00,0.0116
2812.00,0.0116
2811.00,0.0116
2810.00,0.0115
2809.00,0.0115
2808.00,0.0115
2807.00,0.0115
2806.00,0.0115
2805.00,0.0115
2804.00,0.0115
2803.00,0.0115
2802.00,0.0115
2801.00,0.0115
2800.00,0.0114
2799.00,0.0114
2798.00,0.0114
2797.00,0.0114
2796.00,0.0114
2795.00,0.0114
2794.00,0.0114
2793.00,0.0114
2792.00,0.0114
2791.00,0.0113
2790.00,0.0113
2789.00,0.0113
2788.00,0.0113
2787.00,0.0113
2786.00,0.0113
2785.00,0.0113
2784.00,0.0113
2783.00,0.0113
2782.00,0.0113
2781.00,0.0113
2780.00,0.0113
2779.00,0.0112
2778.00,0.0112
2777.00,0.0112
2776.00,0.0112
2775.00,0.0112
2774.00,0.0112
2773.00,0.0112
2772.00,0.0112
2771.00,0.0112
2770.00,0.0111
2769.00,0.0111
2768.00,0.0111
2767.00,0.0111
2766.00,0.0111
2765.00,0.0111
2764.00,0.0111
2763.00,0.0111
2762.00,0.0111
2761.00,0.0110
2760.00,0.0110
2759.00,0.0110
2758.00,0.0110
2757.00,0.0110
