Created as New Dataset,Sample 303 By YargerLab Date Sunday, August 18 2024
cm-1,A
4000.00,0.0097
3999.00,0.0097
3998.00,0.0096
3997.00,0.0096
3996.00,0.0096
3995.00,0.0096
3994.00,0.0096
3993.00,0.0096
3992.00,0.0096
3991.00,0.0096
3990.00,0.0097
3989.00,0.0097
3988.00,0.0097
3987.00,0.0097
3986.00,0.0097
3985.00,0.0097
3984.00,0.0097
3983.00,0.0096
3982.00,0.0096
3981.00,0.0096
3980.00,0.0096
3979.00,0.0097
3978.00,0.0097
3977.00,0.0097
3976.00,0.0097
3975.00,0.0097
3974.00,0.0097
3973.00,0.0097
3972.00,0.0097
3971.00,0.0096
3970.00,0.0096
3969.00,0.0096
3968.00,0.0096
3967.00,0.0096
3966.00,0.0096
3965.00,0.0096
3964.00,0.0096
3963.00,0.0096
3962.00,0.0096
3961.00,0.0096
3960.00,0.0096
3959.00,0.0096
3958.00,0.0096
3957.00,0.0096
3956.00,0.0096
3955.00,0.0096
3954.00,0.0096
3953.00,0.0096
3952.00,0.0096
3951.00,0.0096
3950.00,0.0096
3949.00,0.0096
3948.00,0.0096
3947.00,0.0096
3946.00,0.0096
3945.00,0.0096
3944.00,0.0096
3943.00,0.0096
3942.00,0.0096
3941.00,0.0096
3940.00,0.0096
3939.00,0.0096
3938.00,0.0096
3937.00,0.0096
3936.00,0.0096
3935.00,0.0096
3934.00,0.0096
3933.00,0.0096
3932.00,0.0096
3931.00,0.0095
3930.00,0.0095
3929.00,0.0095
3928.00,0.0095
3927.00,0.0095
3926.00,0.0095
3925.00,0.0095
3924.00,0.0095
3923.00,0.0095
3922.00,0.0095
3921.00,0.0095
3920.00,0.0095
3919.00,0.0095
3918.00,0.0095
3917.00,0.0095
3916.00,0.0095
3915.00,0.0095
3914.00,0.0095
3913.00,0.0095
3912.00,0.0095
3911.00,0.0095
3910.00,0.0095
3909.00,0.0095
3908.00,0.0095
3907.00,0.0095
3906.00,0.0095
3905.00,0.0095
3904.00,0.0095
3903.00,0.0095
3902.00,0.0095
3901.00,0.0095
3900.00,0.0095
3899.00,0.0095
3898.00,0.0095
3897.00,0.0094
3896.00,0.0094
3895.00,0.0094
3894.00,0.0094
3893.00,0.0094
3892.00,0.0094
3891.00,0.0095
3890.00,0.0095
3889.00,0.0094
3888.00,0.0094
3887.00,0.0094
3886.00,0.0094
3885.00,0.0094
3884.00,0.0094
3883.00,0.0094
3882.00,0.0094
3881.00,0.0094
3880.00,0.0094
3879.00,0.0094
3878.00,0.0094
3877.00,0.0094
3876.00,0.0094
3875.00,0.0094
3874.00,0.0094
3873.00,0.0094
3872.00,0.0094
3871.00,0.0094
3870.00,0.0094
3869.00,0.0093
3868.00,0.0093
3867.00,0.0093
3866.00,0.0093
3865.00,0.0093
3864.00,0.0093
3863.00,0.0093
3862.00,0.0093
3861.00,0.0093
3860.00,0.0093
3859.00,0.0093
3858.00,0.0093
3857.00,0.0093
3856.00,0.0093
3855.00,0.0093
3854.00,0.0093
3853.00,0.0093
3852.00,0.0093
3851.00,0.0092
3850.00,0.0092
3849.00,0.0093
3848.00,0.0093
3847.00,0.0093
3846.00,0.0093
3845.00,0.0093
3844.00,0.0093
3843.00,0.0093
3842.00,0.0093
3841.00,0.0093
3840.00,0.0092
3839.00,0.0093
3838.00,0.0093
3837.00,0.0093
3836.00,0.0092
3835.00,0.0092
3834.00,0.0092
3833.00,0.0092
3832.00,0.0092
3831.00,0.0092
3830.00,0.0092
3829.00,0.0092
3828.00,0.0092
3827.00,0.0092
3826.00,0.0092
3825.00,0.0092
3824.00,0.0092
3823.00,0.0092
3822.00,0.0092
3821.00,0.0092
3820.00,0.0092
3819.00,0.0091
3818.00,0.0091
3817.00,0.0091
3816.00,0.0091
3815.00,0.0091
3814.00,0.0091
3813.00,0.0091
3812.00,0.0091
3811.00,0.0092
3810.00,0.0092
3809.00,0.0092
3808.00,0.0092
3807.00,0.0092
3806.00,0.0091
3805.00,0.0091
3804.00,0.0091
3803.00,0.0091
3802.00,0.0091
3801.00,0.0091
3800.00,0.0091
3799.00,0.0091
3798.00,0.0091
3797.00,0.0091
3796.00,0.0091
3795.00,0.0091
3794.00,0.0091
3793.00,0.0091
3792.00,0.0091
3791.00,0.0091
3790.00,0.0091
3789.00,0.0091
3788.00,0.0091
3787.00,0.0091
3786.00,0.0091
3785.00,0.0091
3784.00,0.0091
3783.00,0.0091
3782.00,0.0091
3781.00,0.0090
3780.00,0.0090
3779.00,0.0090
3778.00,0.0090
3777.00,0.0090
3776.00,0.0090
3775.00,0.0090
3774.00,0.0090
3773.00,0.0090
3772.00,0.0090
3771.00,0.0090
3770.00,0.0090
3769.00,0.0090
3768.00,0.0090
3767.00,0.0090
3766.00,0.0090
3765.00,0.0090
3764.00,0.0090
3763.00,0.0090
3762.00,0.0090
3761.00,0.0090
3760.00,0.0090
3759.00,0.0090
3758.00,0.0090
3757.00,0.0090
3756.00,0.0090
3755.00,0.0090
3754.00,0.0089
3753.00,0.0089
3752.00,0.0089
3751.00,0.0089
3750.00,0.0089
3749.00,0.0089
3748.00,0.0089
3747.00,0.0089
3746.00,0.0089
3745.00,0.0089
3744.00,0.0089
3743.00,0.0089
3742.00,0.0089
3741.00,0.0089
3740.00,0.0088
3739.00,0.0088
3738.00,0.0088
3737.00,0.0088
3736.00,0.0088
3735.00,0.0088
3734.00,0.0088
3733.00,0.0088
3732.00,0.0088
3731.00,0.0088
3730.00,0.0088
3729.00,0.0088
3728.00,0.0088
3727.00,0.0088
3726.00,0.0088
3725.00,0.0088
3724.00,0.0088
3723.00,0.0087
3722.00,0.0087
3721.00,0.0087
3720.00,0.0087
3719.00,0.0087
3718.00,0.0087
3717.00,0.0087
3716.00,0.0087
3715.00,0.0087
3714.00,0.0086
3713.00,0.0086
3712.00,0.0086
3711.00,0.0087
3710.00,0.0087
3709.00,0.0087
3708.00,0.0087
3707.00,0.0087
3706.00,0.0086
3705.00,0.0086
3704.00,0.0086
3703.00,0.0086
3702.00,0.0086
3701.00,0.0086
3700.00,0.0086
3699.00,0.0086
3698.00,0.0086
3697.00,0.0086
3696.00,0.0086
3695.00,0.0086
3694.00,0.0086
3693.00,0.0086
3692.00,0.0086
3691.00,0.0086
3690.00,0.0085
3689.00,0.0085
3688.00,0.0085
3687.00,0.0085
3686.00,0.0085
3685.00,0.0086
3684.00,0.0086
3683.00,0.0086
3682.00,0.0086
3681.00,0.0086
3680.00,0.0086
3679.00,0.0086
3678.00,0.0086
3677.00,0.0086
3676.00,0.0086
3675.00,0.0086
3674.00,0.0085
3673.00,0.0085
3672.00,0.0086
3671.00,0.0086
3670.00,0.0086
3669.00,0.0086
3668.00,0.0087
3667.00,0.0087
3666.00,0.0087
3665.00,0.0087
3664.00,0.0087
3663.00,0.0087
3662.00,0.0088
3661.00,0.0088
3660.00,0.0088
3659.00,0.0088
3658.00,0.0088
3657.00,0.0088
3656.00,0.0089
3655.00,0.0089
3654.00,0.0089
3653.00,0.0089
3652.00,0.0089
3651.00,0.0089
3650.00,0.0089
3649.00,0.0089
3648.00,0.0089
3647.00,0.0090
3646.00,0.0090
3645.00,0.0090
3644.00,0.0091
3643.00,0.0091
3642.00,0.0091
3641.00,0.0092
3640.00,0.0092
3639.00,0.0092
3638.00,0.0093
3637.00,0.0093
3636.00,0.0093
3635.00,0.0094
3634.00,0.0094
3633.00,0.0094
3632.00,0.0094
3631.00,0.0094
3630.00,0.0095
3629.00,0.0095
3628.00,0.0095
3627.00,0.0095
3626.00,0.0096
3625.00,0.0096
3624.00,0.0096
3623.00,0.0097
3622.00,0.0097
3621.00,0.0097
3620.00,0.0097
3619.00,0.0097
3618.00,0.0098
3617.00,0.0098
3616.00,0.0099
3615.00,0.0099
3614.00,0.0100
3613.00,0.0100
3612.00,0.0101
3611.00,0.0101
3610.00,0.0101
3609.00,0.0102
3608.00,0.0102
3607.00,0.0102
3606.00,0.0103
3605.00,0.0103
3604.00,0.0103
3603.00,0.0104
3602.00,0.0104
3601.00,0.0104
3600.00,0.0105
3599.00,0.0105
3598.00,0.0105
3597.00,0.0106
3596.00,0.0106
3595.00,0.0106
3594.00,0.0107
3593.00,0.0108
3592.00,0.0108
3591.00,0.0108
3590.00,0.0108
3589.00,0.0109
3588.00,0.0109
3587.00,0.0110
3586.00,0.0110
3585.00,0.0111
3584.00,0.0111
3583.00,0.0111
3582.00,0.0112
3581.00,0.0112
3580.00,0.0113
3579.00,0.0113
3578.00,0.0113
3577.00,0.0114
3576.00,0.0114
3575.00,0.0115
3574.00,0.0115
3573.00,0.0116
3572.00,0.0116
3571.00,0.0117
3570.00,0.0117
3569.00,0.0118
3568.00,0.0118
3567.00,0.0119
3566.00,0.0119
3565.00,0.0120
3564.00,0.0120
3563.00,0.0121
3562.00,0.0121
3561.00,0.0122
3560.00,0.0122
3559.00,0.0123
3558.00,0.0124
3557.00,0.0124
3556.00,0.0125
3555.00,0.0125
3554.00,0.0126
3553.00,0.0126
3552.00,0.0127
3551.00,0.0127
3550.00,0.0128
3549.00,0.0128
3548.00,0.0129
3547.00,0.0130
3546.00,0.0130
3545.00,0.0131
3544.00,0.0131
3543.00,0.0132
3542.00,0.0132
3541.00,0.0132
3540.00,0.0133
3539.00,0.0133
3538.00,0.0134
3537.00,0.0135
3536.00,0.0135
3535.00,0.0136
3534.00,0.0136
3533.00,0.0136
3532.00,0.0137
3531.00,0.0137
3530.00,0.0138
3529.00,0.0138
3528.00,0.0139
3527.00,0.0140
3526.00,0.0140
3525.00,0.0141
3524.00,0.0142
3523.00,0.0142
3522.00,0.0143
3521.00,0.0143
3520.00,0.0143
3519.00,0.0144
3518.00,0.0144
3517.00,0.0144
3516.00,0.0145
3515.00,0.0146
3514.00,0.0146
3513.00,0.0147
3512.00,0.0147
3511.00,0.0147
3510.00,0.0148
3509.00,0.0149
3508.00,0.0149
3507.00,0.0150
3506.00,0.0150
3505.00,0.0151
3504.00,0.0151
3503.00,0.0152
3502.00,0.0152
3501.00,0.0153
3500.00,0.0154
3499.00,0.0154
3498.00,0.0155
3497.00,0.0155
3496.00,0.0156
3495.00,0.0156
3494.00,0.0157
3493.00,0.0157
3492.00,0.0158
3491.00,0.0158
3490.00,0.0158
3489.00,0.0159
3488.00,0.0160
3487.00,0.0160
3486.00,0.0161
3485.00,0.0161
3484.00,0.0162
3483.00,0.0162
3482.00,0.0163
3481.00,0.0163
3480.00,0.0164
3479.00,0.0165
3478.00,0.0165
3477.00,0.0166
3476.00,0.0166
3475.00,0.0167
3474.00,0.0167
3473.00,0.0168
3472.00,0.0169
3471.00,0.0169
3470.00,0.0170
3469.00,0.0170
3468.00,0.0171
3467.00,0.0171
3466.00,0.0172
3465.00,0.0172
3464.00,0.0173
3463.00,0.0173
3462.00,0.0174
3461.00,0.0175
3460.00,0.0175
3459.00,0.0176
3458.00,0.0176
3457.00,0.0177
3456.00,0.0177
3455.00,0.0177
3454.00,0.0178
3453.00,0.0178
3452.00,0.0179
3451.00,0.0179
3450.00,0.0180
3449.00,0.0180
3448.00,0.0181
3447.00,0.0182
3446.00,0.0182
3445.00,0.0183
3444.00,0.0183
3443.00,0.0184
3442.00,0.0184
3441.00,0.0185
3440.00,0.0186
3439.00,0.0186
3438.00,0.0187
3437.00,0.0187
3436.00,0.0188
3435.00,0.0188
3434.00,0.0189
3433.00,0.0190
3432.00,0.0190
3431.00,0.0191
3430.00,0.0191
3429.00,0.0192
3428.00,0.0192
3427.00,0.0193
3426.00,0.0193
3425.00,0.0193
3424.00,0.0194
3423.00,0.0195
3422.00,0.0195
3421.00,0.0195
3420.00,0.0196
3419.00,0.0196
3418.00,0.0197
3417.00,0.0197
3416.00,0.0198
3415.00,0.0198
3414.00,0.0199
3413.00,0.0199
3412.00,0.0200
3411.00,0.0200
3410.00,0.0201
3409.00,0.0201
3408.00,0.0202
3407.00,0.0202
3406.00,0.0203
3405.00,0.0203
3404.00,0.0204
3403.00,0.0204
3402.00,0.0205
3401.00,0.0205
3400.00,0.0205
3399.00,0.0206
3398.00,0.0206
3397.00,0.0207
3396.00,0.0207
3395.00,0.0207
3394.00,0.0208
3393.00,0.0209
3392.00,0.0209
3391.00,0.0210
3390.00,0.0210
3389.00,0.0210
3388.00,0.0211
3387.00,0.0211
3386.00,0.0211
3385.00,0.0212
3384.00,0.0212
3383.00,0.0213
3382.00,0.0213
3381.00,0.0213
3380.00,0.0214
3379.00,0.0215
3378.00,0.0215
3377.00,0.0216
3376.00,0.0216
3375.00,0.0217
3374.00,0.0217
3373.00,0.0217
3372.00,0.0218
3371.00,0.0218
3370.00,0.0219
3369.00,0.0220
3368.00,0.0220
3367.00,0.0221
3366.00,0.0221
3365.00,0.0222
3364.00,0.0222
3363.00,0.0223
3362.00,0.0223
3361.00,0.0224
3360.00,0.0225
3359.00,0.0226
3358.00,0.0226
3357.00,0.0227
3356.00,0.0228
3355.00,0.0228
3354.00,0.0229
3353.00,0.0230
3352.00,0.0230
3351.00,0.0231
3350.00,0.0232
3349.00,0.0233
3348.00,0.0234
3347.00,0.0234
3346.00,0.0235
3345.00,0.0236
3344.00,0.0236
3343.00,0.0237
3342.00,0.0238
3341.00,0.0238
3340.00,0.0239
3339.00,0.0240
3338.00,0.0241
3337.00,0.0242
3336.00,0.0243
3335.00,0.0244
3334.00,0.0245
3333.00,0.0246
3332.00,0.0247
3331.00,0.0248
3330.00,0.0249
3329.00,0.0250
3328.00,0.0251
3327.00,0.0252
3326.00,0.0254
3325.00,0.0255
3324.00,0.0256
3323.00,0.0257
3322.00,0.0259
3321.00,0.0260
3320.00,0.0261
3319.00,0.0263
3318.00,0.0264
3317.00,0.0266
3316.00,0.0267
3315.00,0.0269
3314.00,0.0270
3313.00,0.0271
3312.00,0.0273
3311.00,0.0274
3310.00,0.0275
3309.00,0.0277
3308.00,0.0278
3307.00,0.0280
3306.00,0.0282
3305.00,0.0284
3304.00,0.0286
3303.00,0.0288
3302.00,0.0290
3301.00,0.0292
3300.00,0.0294
3299.00,0.0296
3298.00,0.0297
3297.00,0.0299
3296.00,0.0301
3295.00,0.0303
3294.00,0.0304
3293.00,0.0306
3292.00,0.0308
3291.00,0.0310
3290.00,0.0312
3289.00,0.0314
3288.00,0.0316
3287.00,0.0318
3286.00,0.0320
3285.00,0.0321
3284.00,0.0323
3283.00,0.0324
3282.00,0.0325
3281.00,0.0326
3280.00,0.0328
3279.00,0.0329
3278.00,0.0329
3277.00,0.0330
3276.00,0.0331
3275.00,0.0331
3274.00,0.0331
3273.00,0.0331
3272.00,0.0332
3271.00,0.0332
3270.00,0.0332
3269.00,0.0331
3268.00,0.0331
3267.00,0.0331
3266.00,0.0331
3265.00,0.0330
3264.00,0.0329
3263.00,0.0328
3262.00,0.0327
3261.00,0.0326
3260.00,0.0324
3259.00,0.0323
3258.00,0.0322
3257.00,0.0320
3256.00,0.0319
3255.00,0.0317
3254.00,0.0316
3253.00,0.0315
3252.00,0.0313
3251.00,0.0312
3250.00,0.0310
3249.00,0.0308
3248.00,0.0307
3247.00,0.0305
3246.00,0.0304
3245.00,0.0303
3244.00,0.0301
3243.00,0.0300
3242.00,0.0299
3241.00,0.0298
3240.00,0.0296
3239.00,0.0295
3238.00,0.0294
3237.00,0.0292
3236.00,0.0291
3235.00,0.0289
3234.00,0.0288
3233.00,0.0287
3232.00,0.0286
3231.00,0.0285
3230.00,0.0284
3229.00,0.0284
3228.00,0.0283
3227.00,0.0282
3226.00,0.0281
3225.00,0.0280
3224.00,0.0279
3223.00,0.0278
3222.00,0.0277
3221.00,0.0276
3220.00,0.0275
3219.00,0.0275
3218.00,0.0274
3217.00,0.0273
3216.00,0.0273
3215.00,0.0272
3214.00,0.0271
3213.00,0.0270
3212.00,0.0269
3211.00,0.0269
3210.00,0.0268
3209.00,0.0267
3208.00,0.0267
3207.00,0.0266
3206.00,0.0265
3205.00,0.0265
3204.00,0.0264
3203.00,0.0263
3202.00,0.0262
3201.00,0.0262
3200.00,0.0261
3199.00,0.0260
3198.00,0.0259
3197.00,0.0259
3196.00,0.0258
3195.00,0.0257
3194.00,0.0256
3193.00,0.0256
3192.00,0.0255
3191.00,0.0254
3190.00,0.0253
3189.00,0.0253
3188.00,0.0252
3187.00,0.0251
3186.00,0.0251
3185.00,0.0250
3184.00,0.0249
3183.00,0.0248
3182.00,0.0247
3181.00,0.0247
3180.00,0.0246
3179.00,0.0245
3178.00,0.0244
3177.00,0.0243
3176.00,0.0243
3175.00,0.0242
3174.00,0.0241
3173.00,0.0240
3172.00,0.0240
3171.00,0.0239
3170.00,0.0238
3169.00,0.0237
3168.00,0.0237
3167.00,0.0236
3166.00,0.0235
3165.00,0.0234
3164.00,0.0233
3163.00,0.0233
3162.00,0.0232
3161.00,0.0231
3160.00,0.0230
3159.00,0.0230
3158.00,0.0229
3157.00,0.0228
3156.00,0.0227
3155.00,0.0226
3154.00,0.0225
3153.00,0.0225
3152.00,0.0224
3151.00,0.0224
3150.00,0.0223
3149.00,0.0222
3148.00,0.0222
3147.00,0.0221
3146.00,0.0220
3145.00,0.0220
3144.00,0.0219
3143.00,0.0218
3142.00,0.0217
3141.00,0.0217
3140.00,0.0216
3139.00,0.0216
3138.00,0.0215
3137.00,0.0215
3136.00,0.0214
3135.00,0.0214
3134.00,0.0213
3133.00,0.0213
3132.00,0.0212
3131.00,0.0212
3130.00,0.0211
3129.00,0.0211
3128.00,0.0210
3127.00,0.0210
3126.00,0.0209
3125.00,0.0209
3124.00,0.0208
3123.00,0.0208
3122.00,0.0207
3121.00,0.0207
3120.00,0.0206
3119.00,0.0206
3118.00,0.0205
3117.00,0.0205
3116.00,0.0205
3115.00,0.0205
3114.00,0.0205
3113.00,0.0205
3112.00,0.0204
3111.00,0.0204
3110.00,0.0204
3109.00,0.0204
3108.00,0.0204
3107.00,0.0204
3106.00,0.0204
3105.00,0.0203
3104.00,0.0203
3103.00,0.0203
3102.00,0.0203
3101.00,0.0202
3100.00,0.0202
3099.00,0.0203
3098.00,0.0203
3097.00,0.0203
3096.00,0.0203
3095.00,0.0203
3094.00,0.0203
3093.00,0.0203
3092.00,0.0202
3091.00,0.0202
3090.00,0.0202
3089.00,0.0202
3088.00,0.0202
3087.00,0.0202
3086.00,0.0202
3085.00,0.0202
3084.00,0.0202
3083.00,0.0202
3082.00,0.0202
3081.00,0.0202
3080.00,0.0202
3079.00,0.0201
3078.00,0.0202
3077.00,0.0202
3076.00,0.0202
3075.00,0.0203
3074.00,0.0203
3073.00,0.0203
3072.00,0.0202
3071.00,0.0202
3070.00,0.0202
3069.00,0.0201
3068.00,0.0201
3067.00,0.0201
3066.00,0.0201
3065.00,0.0201
3064.00,0.0201
3063.00,0.0201
3062.00,0.0201
3061.00,0.0200
3060.00,0.0200
3059.00,0.0200
3058.00,0.0199
3057.00,0.0199
3056.00,0.0198
3055.00,0.0198
3054.00,0.0197
3053.00,0.0197
3052.00,0.0196
3051.00,0.0196
3050.00,0.0195
3049.00,0.0195
3048.00,0.0194
3047.00,0.0194
3046.00,0.0193
3045.00,0.0192
3044.00,0.0192
3043.00,0.0191
3042.00,0.0191
3041.00,0.0191
3040.00,0.0190
3039.00,0.0190
3038.00,0.0190
3037.00,0.0189
3036.00,0.0188
3035.00,0.0188
3034.00,0.0187
3033.00,0.0187
3032.00,0.0186
3031.00,0.0186
3030.00,0.0186
3029.00,0.0186
3028.00,0.0186
3027.00,0.0185
3026.00,0.0184
3025.00,0.0184
3024.00,0.0183
3023.00,0.0183
3022.00,0.0182
3021.00,0.0182
3020.00,0.0181
3019.00,0.0180
3018.00,0.0179
3017.00,0.0179
3016.00,0.0178
3015.00,0.0178
3014.00,0.0177
3013.00,0.0177
3012.00,0.0176
3011.00,0.0176
3010.00,0.0177
3009.00,0.0177
3008.00,0.0177
3007.00,0.0177
3006.00,0.0176
3005.00,0.0176
3004.00,0.0176
3003.00,0.0175
3002.00,0.0175
3001.00,0.0175
3000.00,0.0175
2999.00,0.0175
2998.00,0.0175
2997.00,0.0175
2996.00,0.0175
2995.00,0.0175
2994.00,0.0175
2993.00,0.0175
2992.00,0.0175
2991.00,0.0176
2990.00,0.0176
2989.00,0.0177
2988.00,0.0177
2987.00,0.0178
2986.00,0.0178
2985.00,0.0178
2984.00,0.0179
2983.00,0.0179
2982.00,0.0180
2981.00,0.0180
2980.00,0.0180
2979.00,0.0181
2978.00,0.0181
2977.00,0.0182
2976.00,0.0182
2975.00,0.0182
2974.00,0.0183
2973.00,0.0183
2972.00,0.0184
2971.00,0.0184
2970.00,0.0184
2969.00,0.0184
2968.00,0.0184
2967.00,0.0185
2966.00,0.0185
2965.00,0.0184
2964.00,0.0184
2963.00,0.0184
2962.00,0.0184
2961.00,0.0184
2960.00,0.0184
2959.00,0.0183
2958.00,0.0183
2957.00,0.0183
2956.00,0.0183
2955.00,0.0182
2954.00,0.0182
2953.00,0.0182
2952.00,0.0183
2951.00,0.0183
2950.00,0.0183
2949.00,0.0183
2948.00,0.0183
2947.00,0.0183
2946.00,0.0183
2945.00,0.0183
2944.00,0.0184
2943.00,0.0184
2942.00,0.0185
2941.00,0.0185
2940.00,0.0185
2939.00,0.0186
2938.00,0.0186
2937.00,0.0186
2936.00,0.0186
2935.00,0.0186
2934.00,0.0186
2933.00,0.0185
2932.00,0.0185
2931.00,0.0184
2930.00,0.0184
2929.00,0.0183
2928.00,0.0182
2927.00,0.0181
2926.00,0.0180
2925.00,0.0179
2924.00,0.0178
2923.00,0.0176
2922.00,0.0175
2921.00,0.0173
2920.00,0.0171
2919.00,0.0169
2918.00,0.0168
2917.00,0.0167
2916.00,0.0166
2915.00,0.0166
2914.00,0.0167
2913.00,0.0169
2912.00,0.0170
2911.00,0.0171
2910.00,0.0172
2909.00,0.0173
2908.00,0.0173
2907.00,0.0173
2906.00,0.0173
2905.00,0.0173
2904.00,0.0173
2903.00,0.0173
2902.00,0.0173
2901.00,0.0173
2900.00,0.0173
2899.00,0.0173
2898.00,0.0173
2897.00,0.0172
2896.00,0.0172
2895.00,0.0172
2894.00,0.0172
2893.00,0.0172
2892.00,0.0172
2891.00,0.0172
2890.00,0.0172
2889.00,0.0173
2888.00,0.0173
2887.00,0.0173
2886.00,0.0173
2885.00,0.0173
2884.00,0.0174
2883.00,0.0174
2882.00,0.0174
2881.00,0.0174
2880.00,0.0175
2879.00,0.0175
2878.00,0.0175
2877.00,0.0175
2876.00,0.0175
2875.00,0.0175
2874.00,0.0175
2873.00,0.0174
2872.00,0.0174
2871.00,0.0174
2870.00,0.0173
2869.00,0.0173
2868.00,0.0172
2867.00,0.0171
2866.00,0.0171
2865.00,0.0170
2864.00,0.0169
2863.00,0.0168
2862.00,0.0167
2861.00,0.0166
2860.00,0.0166
2859.00,0.0165
2858.00,0.0164
2857.00,0.0163
2856.00,0.0162
2855.00,0.0161
2854.00,0.0160
2853.00,0.0158
2852.00,0.0157
2851.00,0.0155
2850.00,0.0153
2849.00,0.0152
2848.00,0.0152
2847.00,0.0153
2846.00,0.0154
2845.00,0.0156
2844.00,0.0157
2843.00,0.0157
2842.00,0.0158
2841.00,0.0158
2840.00,0.0158
2839.00,0.0158
2838.00,0.0157
2837.00,0.0157
2836.00,0.0157
2835.00,0.0157
2834.00,0.0157
2833.00,0.0156
2832.00,0.0156
2831.00,0.0156
2830.00,0.0156
2829.00,0.0156
2828.00,0.0155
2827.00,0.0155
2826.00,0.0155
2825.00,0.0154
2824.00,0.0154
2823.00,0.0154
2822.00,0.0154
2821.00,0.0153
2820.00,0.0153
2819.00,0.0153
2818.00,0.0153
2817.00,0.0153
2816.00,0.0153
2815.00,0.0152
2814.00,0.0152
2813.00,0.0152
2812.00,0.0152
2811.00,0.0151
2810.00,0.0151
2809.00,0.0151
2808.00,0.0151
2807.00,0.0151
2806.00,0.0151
2805.00,0.0150
2804.00,0.0150
2803.00,0.0150
2802.00,0.0150
2801.00,0.0150
2800.00,0.0150
2799.00,0.0149
2798.00,0.0149
2797.00,0.0149
2796.00,0.0149
2795.00,0.0149
2794.00,0.0149
2793.00,0.0148
2792.00,0.0148
2791.00,0.0148
2790.00,0.0148
2789.00,0.0148
2788.00,0.0147
2787.00,0.0147
2786.00,0.0147
2785.00,0.0147
2784.00,0.0147
2783.00,0.0147
2782.00,0.0147
2781.00,0.0147
2780.00,0.0146
2779.00,0.0146
2778.00,0.0146
2777.00,0.0146
2776.00,0.0146
2775.00,0.0145
2774.00,0.0145
2773.00,0.0145
2772.00,0.0145
2771.00,0.0145
2770.00,0.0145
2769.00,0.0145
2768.00,0.0145
2767.00,0.0144
2766.00,0.0144
2765.00,0.0144
2764.00,0.0144
2763.00,0.0144
2762.00,0.0144
2761.00,0.0143
2760.00,0.0143
2759.00,0.0143
2758.00,0.0143
2757.00,0.0142
