Created as New Dataset,Sample 307 By YargerLab Date Sunday, August 18 2024
cm-1,A
4000.00,0.0099
3999.00,0.0099
3998.00,0.0099
3997.00,0.0098
3996.00,0.0098
3995.00,0.0098
3994.00,0.0098
3993.00,0.0099
3992.00,0.0099
3991.00,0.0099
3990.00,0.0099
3989.00,0.0099
3988.00,0.0099
3987.00,0.0099
3986.00,0.0099
3985.00,0.0099
3984.00,0.0099
3983.00,0.0099
3982.00,0.0099
3981.00,0.0099
3980.00,0.0099
3979.00,0.0099
3978.00,0.0099
3977.00,0.0099
3976.00,0.0099
3975.00,0.0099
3974.00,0.0099
3973.00,0.0099
3972.00,0.0099
3971.00,0.0099
3970.00,0.0099
3969.00,0.0099
3968.00,0.0098
3967.00,0.0098
3966.00,0.0098
3965.00,0.0098
3964.00,0.0098
3963.00,0.0098
3962.00,0.0098
3961.00,0.0098
3960.00,0.0098
3959.00,0.0098
3958.00,0.0098
3957.00,0.0098
3956.00,0.0098
3955.00,0.0098
3954.00,0.0098
3953.00,0.0098
3952.00,0.0098
3951.00,0.0098
3950.00,0.0098
3949.00,0.0098
3948.00,0.0098
3947.00,0.0098
3946.00,0.0098
3945.00,0.0098
3944.00,0.0098
3943.00,0.0098
3942.00,0.0098
3941.00,0.0098
3940.00,0.0098
3939.00,0.0098
3938.00,0.0098
3937.00,0.0098
3936.00,0.0098
3935.00,0.0098
3934.00,0.0098
3933.00,0.0098
3932.00,0.0098
3931.00,0.0098
3930.00,0.0098
3929.00,0.0098
3928.00,0.0098
3927.00,0.0098
3926.00,0.0098
3925.00,0.0098
3924.00,0.0098
3923.00,0.0098
3922.00,0.0098
3921.00,0.0098
3920.00,0.0098
3919.00,0.0098
3918.00,0.0097
3917.00,0.0097
3916.00,0.0097
3915.00,0.0097
3914.00,0.0097
3913.00,0.0097
3912.00,0.0097
3911.00,0.0097
3910.00,0.0097
3909.00,0.0097
3908.00,0.0097
3907.00,0.0097
3906.00,0.0097
3905.00,0.0097
3904.00,0.0097
3903.00,0.0098
3902.00,0.0098
3901.00,0.0097
3900.00,0.0097
3899.00,0.0097
3898.00,0.0097
3897.00,0.0097
3896.00,0.0097
3895.00,0.0097
3894.00,0.0097
3893.00,0.0097
3892.00,0.0097
3891.00,0.0097
3890.00,0.0097
3889.00,0.0097
3888.00,0.0097
3887.00,0.0097
3886.00,0.0097
3885.00,0.0097
3884.00,0.0097
3883.00,0.0097
3882.00,0.0097
3881.00,0.0097
3880.00,0.0096
3879.00,0.0096
3878.00,0.0096
3877.00,0.0096
3876.00,0.0096
3875.00,0.0096
3874.00,0.0096
3873.00,0.0096
3872.00,0.0096
3871.00,0.0096
3870.00,0.0096
3869.00,0.0096
3868.00,0.0096
3867.00,0.0096
3866.00,0.0096
3865.00,0.0096
3864.00,0.0096
3863.00,0.0096
3862.00,0.0096
3861.00,0.0096
3860.00,0.0096
3859.00,0.0096
3858.00,0.0096
3857.00,0.0096
3856.00,0.0096
3855.00,0.0096
3854.00,0.0096
3853.00,0.0096
3852.00,0.0095
3851.00,0.0095
3850.00,0.0095
3849.00,0.0095
3848.00,0.0095
3847.00,0.0095
3846.00,0.0095
3845.00,0.0095
3844.00,0.0095
3843.00,0.0095
3842.00,0.0095
3841.00,0.0095
3840.00,0.0095
3839.00,0.0095
3838.00,0.0095
3837.00,0.0095
3836.00,0.0095
3835.00,0.0095
3834.00,0.0095
3833.00,0.0095
3832.00,0.0095
3831.00,0.0095
3830.00,0.0095
3829.00,0.0095
3828.00,0.0095
3827.00,0.0095
3826.00,0.0095
3825.00,0.0095
3824.00,0.0095
3823.00,0.0095
3822.00,0.0095
3821.00,0.0094
3820.00,0.0094
3819.00,0.0094
3818.00,0.0094
3817.00,0.0094
3816.00,0.0094
3815.00,0.0094
3814.00,0.0094
3813.00,0.0094
3812.00,0.0094
3811.00,0.0094
3810.00,0.0094
3809.00,0.0094
3808.00,0.0094
3807.00,0.0094
3806.00,0.0094
3805.00,0.0094
3804.00,0.0094
3803.00,0.0094
3802.00,0.0094
3801.00,0.0094
3800.00,0.0093
3799.00,0.0093
3798.00,0.0093
3797.00,0.0093
3796.00,0.0093
3795.00,0.0093
3794.00,0.0093
3793.00,0.0093
3792.00,0.0093
3791.00,0.0093
3790.00,0.0093
3789.00,0.0093
3788.00,0.0093
3787.00,0.0093
3786.00,0.0093
3785.00,0.0093
3784.00,0.0093
3783.00,0.0093
3782.00,0.0093
3781.00,0.0093
3780.00,0.0093
3779.00,0.0093
3778.00,0.0092
3777.00,0.0092
3776.00,0.0092
3775.00,0.0092
3774.00,0.0092
3773.00,0.0092
3772.00,0.0092
3771.00,0.0092
3770.00,0.0092
3769.00,0.0092
3768.00,0.0092
3767.00,0.0092
3766.00,0.0092
3765.00,0.0092
3764.00,0.0092
3763.00,0.0092
3762.00,0.0092
3761.00,0.0092
3760.00,0.0092
3759.00,0.0092
3758.00,0.0092
3757.00,0.0092
3756.00,0.0093
3755.00,0.0093
3754.00,0.0093
3753.00,0.0093
3752.00,0.0093
3751.00,0.0093
3750.00,0.0093
3749.00,0.0093
3748.00,0.0092
3747.00,0.0092
3746.00,0.0092
3745.00,0.0092
3744.00,0.0092
3743.00,0.0092
3742.00,0.0091
3741.00,0.0091
3740.00,0.0092
3739.00,0.0092
3738.00,0.0091
3737.00,0.0091
3736.00,0.0091
3735.00,0.0091
3734.00,0.0091
3733.00,0.0091
3732.00,0.0091
3731.00,0.0090
3730.00,0.0090
3729.00,0.0091
3728.00,0.0091
3727.00,0.0091
3726.00,0.0091
3725.00,0.0090
3724.00,0.0090
3723.00,0.0090
3722.00,0.0090
3721.00,0.0090
3720.00,0.0089
3719.00,0.0089
3718.00,0.0089
3717.00,0.0089
3716.00,0.0089
3715.00,0.0089
3714.00,0.0089
3713.00,0.0089
3712.00,0.0089
3711.00,0.0089
3710.00,0.0089
3709.00,0.0089
3708.00,0.0089
3707.00,0.0089
3706.00,0.0088
3705.00,0.0088
3704.00,0.0088
3703.00,0.0088
3702.00,0.0087
3701.00,0.0087
3700.00,0.0087
3699.00,0.0088
3698.00,0.0088
3697.00,0.0088
3696.00,0.0088
3695.00,0.0088
3694.00,0.0088
3693.00,0.0088
3692.00,0.0088
3691.00,0.0088
3690.00,0.0087
3689.00,0.0087
3688.00,0.0087
3687.00,0.0087
3686.00,0.0087
3685.00,0.0088
3684.00,0.0088
3683.00,0.0088
3682.00,0.0088
3681.00,0.0088
3680.00,0.0088
3679.00,0.0088
3678.00,0.0088
3677.00,0.0088
3676.00,0.0088
3675.00,0.0088
3674.00,0.0088
3673.00,0.0088
3672.00,0.0088
3671.00,0.0088
3670.00,0.0088
3669.00,0.0088
3668.00,0.0088
3667.00,0.0088
3666.00,0.0088
3665.00,0.0088
3664.00,0.0088
3663.00,0.0088
3662.00,0.0089
3661.00,0.0089
3660.00,0.0089
3659.00,0.0089
3658.00,0.0089
3657.00,0.0089
3656.00,0.0090
3655.00,0.0090
3654.00,0.0090
3653.00,0.0090
3652.00,0.0090
3651.00,0.0090
3650.00,0.0091
3649.00,0.0091
3648.00,0.0091
3647.00,0.0091
3646.00,0.0091
3645.00,0.0091
3644.00,0.0091
3643.00,0.0091
3642.00,0.0091
3641.00,0.0092
3640.00,0.0092
3639.00,0.0092
3638.00,0.0093
3637.00,0.0093
3636.00,0.0093
3635.00,0.0093
3634.00,0.0093
3633.00,0.0094
3632.00,0.0094
3631.00,0.0094
3630.00,0.0094
3629.00,0.0095
3628.00,0.0095
3627.00,0.0095
3626.00,0.0095
3625.00,0.0096
3624.00,0.0096
3623.00,0.0096
3622.00,0.0096
3621.00,0.0096
3620.00,0.0096
3619.00,0.0097
3618.00,0.0097
3617.00,0.0098
3616.00,0.0098
3615.00,0.0098
3614.00,0.0099
3613.00,0.0099
3612.00,0.0100
3611.00,0.0100
3610.00,0.0100
3609.00,0.0100
3608.00,0.0100
3607.00,0.0100
3606.00,0.0101
3605.00,0.0101
3604.00,0.0101
3603.00,0.0101
3602.00,0.0101
3601.00,0.0102
3600.00,0.0102
3599.00,0.0102
3598.00,0.0103
3597.00,0.0103
3596.00,0.0103
3595.00,0.0104
3594.00,0.0104
3593.00,0.0105
3592.00,0.0105
3591.00,0.0105
3590.00,0.0106
3589.00,0.0106
3588.00,0.0106
3587.00,0.0106
3586.00,0.0107
3585.00,0.0107
3584.00,0.0107
3583.00,0.0108
3582.00,0.0108
3581.00,0.0108
3580.00,0.0109
3579.00,0.0109
3578.00,0.0109
3577.00,0.0110
3576.00,0.0110
3575.00,0.0110
3574.00,0.0111
3573.00,0.0111
3572.00,0.0112
3571.00,0.0113
3570.00,0.0113
3569.00,0.0113
3568.00,0.0114
3567.00,0.0114
3566.00,0.0114
3565.00,0.0115
3564.00,0.0115
3563.00,0.0116
3562.00,0.0116
3561.00,0.0116
3560.00,0.0117
3559.00,0.0117
3558.00,0.0118
3557.00,0.0118
3556.00,0.0119
3555.00,0.0119
3554.00,0.0120
3553.00,0.0120
3552.00,0.0121
3551.00,0.0121
3550.00,0.0122
3549.00,0.0122
3548.00,0.0123
3547.00,0.0123
3546.00,0.0124
3545.00,0.0124
3544.00,0.0124
3543.00,0.0125
3542.00,0.0125
3541.00,0.0125
3540.00,0.0126
3539.00,0.0126
3538.00,0.0127
3537.00,0.0127
3536.00,0.0128
3535.00,0.0128
3534.00,0.0129
3533.00,0.0129
3532.00,0.0129
3531.00,0.0130
3530.00,0.0131
3529.00,0.0131
3528.00,0.0132
3527.00,0.0132
3526.00,0.0133
3525.00,0.0133
3524.00,0.0133
3523.00,0.0134
3522.00,0.0134
3521.00,0.0135
3520.00,0.0135
3519.00,0.0135
3518.00,0.0135
3517.00,0.0136
3516.00,0.0136
3515.00,0.0137
3514.00,0.0137
3513.00,0.0138
3512.00,0.0138
3511.00,0.0139
3510.00,0.0139
3509.00,0.0140
3508.00,0.0140
3507.00,0.0140
3506.00,0.0141
3505.00,0.0142
3504.00,0.0142
3503.00,0.0143
3502.00,0.0143
3501.00,0.0144
3500.00,0.0144
3499.00,0.0144
3498.00,0.0145
3497.00,0.0145
3496.00,0.0146
3495.00,0.0146
3494.00,0.0147
3493.00,0.0147
3492.00,0.0147
3491.00,0.0148
3490.00,0.0148
3489.00,0.0149
3488.00,0.0150
3487.00,0.0150
3486.00,0.0151
3485.00,0.0151
3484.00,0.0152
3483.00,0.0152
3482.00,0.0153
3481.00,0.0153
3480.00,0.0154
3479.00,0.0154
3478.00,0.0155
3477.00,0.0155
3476.00,0.0155
3475.00,0.0156
3474.00,0.0156
3473.00,0.0157
3472.00,0.0157
3471.00,0.0158
3470.00,0.0159
3469.00,0.0159
3468.00,0.0160
3467.00,0.0160
3466.00,0.0160
3465.00,0.0161
3464.00,0.0161
3463.00,0.0162
3462.00,0.0163
3461.00,0.0163
3460.00,0.0164
3459.00,0.0164
3458.00,0.0164
3457.00,0.0165
3456.00,0.0165
3455.00,0.0166
3454.00,0.0166
3453.00,0.0166
3452.00,0.0167
3451.00,0.0168
3450.00,0.0168
3449.00,0.0169
3448.00,0.0169
3447.00,0.0170
3446.00,0.0170
3445.00,0.0171
3444.00,0.0171
3443.00,0.0172
3442.00,0.0172
3441.00,0.0173
3440.00,0.0173
3439.00,0.0174
3438.00,0.0174
3437.00,0.0175
3436.00,0.0175
3435.00,0.0176
3434.00,0.0176
3433.00,0.0177
3432.00,0.0177
3431.00,0.0178
3430.00,0.0178
3429.00,0.0179
3428.00,0.0179
3427.00,0.0180
3426.00,0.0180
3425.00,0.0181
3424.00,0.0182
3423.00,0.0182
3422.00,0.0182
3421.00,0.0183
3420.00,0.0183
3419.00,0.0184
3418.00,0.0184
3417.00,0.0185
3416.00,0.0185
3415.00,0.0186
3414.00,0.0186
3413.00,0.0187
3412.00,0.0187
3411.00,0.0188
3410.00,0.0188
3409.00,0.0189
3408.00,0.0189
3407.00,0.0189
3406.00,0.0190
3405.00,0.0190
3404.00,0.0191
3403.00,0.0191
3402.00,0.0192
3401.00,0.0192
3400.00,0.0193
3399.00,0.0193
3398.00,0.0193
3397.00,0.0194
3396.00,0.0194
3395.00,0.0195
3394.00,0.0195
3393.00,0.0195
3392.00,0.0196
3391.00,0.0196
3390.00,0.0197
3389.00,0.0197
3388.00,0.0198
3387.00,0.0198
3386.00,0.0199
3385.00,0.0199
3384.00,0.0200
3383.00,0.0200
3382.00,0.0201
3381.00,0.0201
3380.00,0.0201
3379.00,0.0202
3378.00,0.0203
3377.00,0.0203
3376.00,0.0204
3375.00,0.0204
3374.00,0.0205
3373.00,0.0205
3372.00,0.0206
3371.00,0.0206
3370.00,0.0207
3369.00,0.0208
3368.00,0.0208
3367.00,0.0209
3366.00,0.0209
3365.00,0.0210
3364.00,0.0211
3363.00,0.0211
3362.00,0.0212
3361.00,0.0212
3360.00,0.0213
3359.00,0.0214
3358.00,0.0215
3357.00,0.0215
3356.00,0.0216
3355.00,0.0217
3354.00,0.0218
3353.00,0.0219
3352.00,0.0219
3351.00,0.0220
3350.00,0.0221
3349.00,0.0222
3348.00,0.0223
3347.00,0.0224
3346.00,0.0224
3345.00,0.0225
3344.00,0.0226
3343.00,0.0227
3342.00,0.0228
3341.00,0.0229
3340.00,0.0230
3339.00,0.0231
3338.00,0.0232
3337.00,0.0233
3336.00,0.0234
3335.00,0.0235
3334.00,0.0236
3333.00,0.0238
3332.00,0.0239
3331.00,0.0240
3330.00,0.0241
3329.00,0.0242
3328.00,0.0243
3327.00,0.0245
3326.00,0.0246
3325.00,0.0248
3324.00,0.0249
3323.00,0.0251
3322.00,0.0252
3321.00,0.0253
3320.00,0.0255
3319.00,0.0257
3318.00,0.0258
3317.00,0.0260
3316.00,0.0261
3315.00,0.0263
3314.00,0.0265
3313.00,0.0266
3312.00,0.0268
3311.00,0.0269
3310.00,0.0271
3309.00,0.0272
3308.00,0.0274
3307.00,0.0276
3306.00,0.0278
3305.00,0.0281
3304.00,0.0283
3303.00,0.0285
3302.00,0.0287
3301.00,0.0289
3300.00,0.0291
3299.00,0.0293
3298.00,0.0295
3297.00,0.0297
3296.00,0.0299
3295.00,0.0301
3294.00,0.0303
3293.00,0.0305
3292.00,0.0307
3291.00,0.0309
3290.00,0.0311
3289.00,0.0313
3288.00,0.0315
3287.00,0.0317
3286.00,0.0319
3285.00,0.0320
3284.00,0.0322
3283.00,0.0323
3282.00,0.0324
3281.00,0.0325
3280.00,0.0326
3279.00,0.0327
3278.00,0.0328
3277.00,0.0329
3276.00,0.0329
3275.00,0.0330
3274.00,0.0330
3273.00,0.0330
3272.00,0.0330
3271.00,0.0330
3270.00,0.0330
3269.00,0.0330
3268.00,0.0329
3267.00,0.0329
3266.00,0.0328
3265.00,0.0327
3264.00,0.0326
3263.00,0.0324
3262.00,0.0323
3261.00,0.0322
3260.00,0.0320
3259.00,0.0319
3258.00,0.0317
3257.00,0.0315
3256.00,0.0314
3255.00,0.0312
3254.00,0.0311
3253.00,0.0309
3252.00,0.0308
3251.00,0.0306
3250.00,0.0304
3249.00,0.0302
3248.00,0.0300
3247.00,0.0298
3246.00,0.0297
3245.00,0.0295
3244.00,0.0294
3243.00,0.0293
3242.00,0.0291
3241.00,0.0290
3240.00,0.0288
3239.00,0.0287
3238.00,0.0285
3237.00,0.0284
3236.00,0.0282
3235.00,0.0281
3234.00,0.0279
3233.00,0.0278
3232.00,0.0277
3231.00,0.0276
3230.00,0.0275
3229.00,0.0274
3228.00,0.0273
3227.00,0.0272
3226.00,0.0271
3225.00,0.0270
3224.00,0.0269
3223.00,0.0268
3222.00,0.0267
3221.00,0.0266
3220.00,0.0265
3219.00,0.0265
3218.00,0.0264
3217.00,0.0263
3216.00,0.0262
3215.00,0.0261
3214.00,0.0260
3213.00,0.0259
3212.00,0.0259
3211.00,0.0258
3210.00,0.0257
3209.00,0.0257
3208.00,0.0256
3207.00,0.0255
3206.00,0.0254
3205.00,0.0253
3204.00,0.0253
3203.00,0.0252
3202.00,0.0251
3201.00,0.0250
3200.00,0.0249
3199.00,0.0249
3198.00,0.0248
3197.00,0.0247
3196.00,0.0246
3195.00,0.0245
3194.00,0.0245
3193.00,0.0244
3192.00,0.0243
3191.00,0.0242
3190.00,0.0242
3189.00,0.0241
3188.00,0.0240
3187.00,0.0239
3186.00,0.0239
3185.00,0.0238
3184.00,0.0237
3183.00,0.0236
3182.00,0.0235
3181.00,0.0234
3180.00,0.0234
3179.00,0.0233
3178.00,0.0232
3177.00,0.0231
3176.00,0.0230
3175.00,0.0229
3174.00,0.0228
3173.00,0.0227
3172.00,0.0227
3171.00,0.0226
3170.00,0.0225
3169.00,0.0224
3168.00,0.0224
3167.00,0.0223
3166.00,0.0222
3165.00,0.0221
3164.00,0.0220
3163.00,0.0219
3162.00,0.0218
3161.00,0.0218
3160.00,0.0217
3159.00,0.0216
3158.00,0.0215
3157.00,0.0215
3156.00,0.0214
3155.00,0.0213
3154.00,0.0212
3153.00,0.0211
3152.00,0.0211
3151.00,0.0210
3150.00,0.0209
3149.00,0.0209
3148.00,0.0208
3147.00,0.0207
3146.00,0.0206
3145.00,0.0206
3144.00,0.0205
3143.00,0.0204
3142.00,0.0204
3141.00,0.0203
3140.00,0.0202
3139.00,0.0202
3138.00,0.0202
3137.00,0.0201
3136.00,0.0201
3135.00,0.0200
3134.00,0.0199
3133.00,0.0199
3132.00,0.0198
3131.00,0.0198
3130.00,0.0197
3129.00,0.0197
3128.00,0.0197
3127.00,0.0196
3126.00,0.0196
3125.00,0.0195
3124.00,0.0195
3123.00,0.0194
3122.00,0.0194
3121.00,0.0193
3120.00,0.0193
3119.00,0.0192
3118.00,0.0192
3117.00,0.0192
3116.00,0.0192
3115.00,0.0192
3114.00,0.0191
3113.00,0.0191
3112.00,0.0191
3111.00,0.0191
3110.00,0.0191
3109.00,0.0191
3108.00,0.0190
3107.00,0.0191
3106.00,0.0191
3105.00,0.0191
3104.00,0.0191
3103.00,0.0190
3102.00,0.0190
3101.00,0.0190
3100.00,0.0190
3099.00,0.0190
3098.00,0.0191
3097.00,0.0191
3096.00,0.0191
3095.00,0.0191
3094.00,0.0191
3093.00,0.0191
3092.00,0.0191
3091.00,0.0191
3090.00,0.0191
3089.00,0.0191
3088.00,0.0191
3087.00,0.0191
3086.00,0.0191
3085.00,0.0191
3084.00,0.0191
3083.00,0.0191
3082.00,0.0191
3081.00,0.0191
3080.00,0.0191
3079.00,0.0191
3078.00,0.0191
3077.00,0.0191
3076.00,0.0191
3075.00,0.0191
3074.00,0.0192
3073.00,0.0191
3072.00,0.0191
3071.00,0.0191
3070.00,0.0191
3069.00,0.0190
3068.00,0.0190
3067.00,0.0190
3066.00,0.0190
3065.00,0.0190
3064.00,0.0190
3063.00,0.0190
3062.00,0.0190
3061.00,0.0190
3060.00,0.0189
3059.00,0.0189
3058.00,0.0188
3057.00,0.0188
3056.00,0.0188
3055.00,0.0187
3054.00,0.0187
3053.00,0.0186
3052.00,0.0186
3051.00,0.0185
3050.00,0.0185
3049.00,0.0184
3048.00,0.0184
3047.00,0.0183
3046.00,0.0183
3045.00,0.0182
3044.00,0.0181
3043.00,0.0181
3042.00,0.0180
3041.00,0.0180
3040.00,0.0180
3039.00,0.0179
3038.00,0.0179
3037.00,0.0178
3036.00,0.0178
3035.00,0.0177
3034.00,0.0176
3033.00,0.0176
3032.00,0.0176
3031.00,0.0175
3030.00,0.0175
3029.00,0.0175
3028.00,0.0174
3027.00,0.0174
3026.00,0.0173
3025.00,0.0173
3024.00,0.0172
3023.00,0.0172
3022.00,0.0171
3021.00,0.0171
3020.00,0.0170
3019.00,0.0169
3018.00,0.0169
3017.00,0.0168
3016.00,0.0168
3015.00,0.0167
3014.00,0.0167
3013.00,0.0166
3012.00,0.0166
3011.00,0.0166
3010.00,0.0166
3009.00,0.0166
3008.00,0.0166
3007.00,0.0165
3006.00,0.0165
3005.00,0.0165
3004.00,0.0165
3003.00,0.0165
3002.00,0.0165
3001.00,0.0165
3000.00,0.0165
2999.00,0.0165
2998.00,0.0165
2997.00,0.0165
2996.00,0.0165
2995.00,0.0165
2994.00,0.0165
2993.00,0.0165
2992.00,0.0166
2991.00,0.0166
2990.00,0.0167
2989.00,0.0167
2988.00,0.0168
2987.00,0.0168
2986.00,0.0169
2985.00,0.0169
2984.00,0.0170
2983.00,0.0170
2982.00,0.0171
2981.00,0.0171
2980.00,0.0172
2979.00,0.0172
2978.00,0.0173
2977.00,0.0173
2976.00,0.0174
2975.00,0.0174
2974.00,0.0175
2973.00,0.0175
2972.00,0.0176
2971.00,0.0176
2970.00,0.0176
2969.00,0.0177
2968.00,0.0177
2967.00,0.0177
2966.00,0.0177
2965.00,0.0176
2964.00,0.0176
2963.00,0.0176
2962.00,0.0176
2961.00,0.0176
2960.00,0.0176
2959.00,0.0175
2958.00,0.0175
2957.00,0.0175
2956.00,0.0174
2955.00,0.0174
2954.00,0.0174
2953.00,0.0174
2952.00,0.0174
2951.00,0.0174
2950.00,0.0174
2949.00,0.0174
2948.00,0.0174
2947.00,0.0174
2946.00,0.0174
2945.00,0.0174
2944.00,0.0175
2943.00,0.0175
2942.00,0.0175
2941.00,0.0176
2940.00,0.0176
2939.00,0.0176
2938.00,0.0176
2937.00,0.0176
2936.00,0.0176
2935.00,0.0176
2934.00,0.0176
2933.00,0.0176
2932.00,0.0175
2931.00,0.0174
2930.00,0.0173
2929.00,0.0172
2928.00,0.0171
2927.00,0.0170
2926.00,0.0169
2925.00,0.0167
2924.00,0.0166
2923.00,0.0164
2922.00,0.0162
2921.00,0.0160
2920.00,0.0158
2919.00,0.0156
2918.00,0.0155
2917.00,0.0153
2916.00,0.0153
2915.00,0.0153
2914.00,0.0154
2913.00,0.0156
2912.00,0.0157
2911.00,0.0158
2910.00,0.0159
2909.00,0.0160
2908.00,0.0160
2907.00,0.0160
2906.00,0.0160
2905.00,0.0160
2904.00,0.0160
2903.00,0.0160
2902.00,0.0160
2901.00,0.0159
2900.00,0.0159
2899.00,0.0159
2898.00,0.0159
2897.00,0.0159
2896.00,0.0159
2895.00,0.0159
2894.00,0.0159
2893.00,0.0159
2892.00,0.0159
2891.00,0.0160
2890.00,0.0160
2889.00,0.0160
2888.00,0.0160
2887.00,0.0160
2886.00,0.0161
2885.00,0.0161
2884.00,0.0161
2883.00,0.0162
2882.00,0.0162
2881.00,0.0162
2880.00,0.0163
2879.00,0.0163
2878.00,0.0163
2877.00,0.0163
2876.00,0.0163
2875.00,0.0163
2874.00,0.0163
2873.00,0.0163
2872.00,0.0163
2871.00,0.0162
2870.00,0.0162
2869.00,0.0161
2868.00,0.0161
2867.00,0.0160
2866.00,0.0159
2865.00,0.0158
2864.00,0.0157
2863.00,0.0156
2862.00,0.0155
2861.00,0.0155
2860.00,0.0154
2859.00,0.0153
2858.00,0.0152
2857.00,0.0151
2856.00,0.0150
2855.00,0.0149
2854.00,0.0147
2853.00,0.0146
2852.00,0.0144
2851.00,0.0142
2850.00,0.0140
2849.00,0.0139
2848.00,0.0139
2847.00,0.0140
2846.00,0.0142
2845.00,0.0143
2844.00,0.0144
2843.00,0.0145
2842.00,0.0146
2841.00,0.0146
2840.00,0.0146
2839.00,0.0146
2838.00,0.0146
2837.00,0.0146
2836.00,0.0145
2835.00,0.0145
2834.00,0.0145
2833.00,0.0145
2832.00,0.0145
2831.00,0.0145
2830.00,0.0144
2829.00,0.0144
2828.00,0.0144
2827.00,0.0144
2826.00,0.0144
2825.00,0.0143
2824.00,0.0143
2823.00,0.0143
2822.00,0.0143
2821.00,0.0143
2820.00,0.0142
2819.00,0.0142
2818.00,0.0142
2817.00,0.0142
2816.00,0.0142
2815.00,0.0142
2814.00,0.0142
2813.00,0.0141
2812.00,0.0141
2811.00,0.0141
2810.00,0.0141
2809.00,0.0141
2808.00,0.0141
2807.00,0.0140
2806.00,0.0140
2805.00,0.0140
2804.00,0.0140
2803.00,0.0140
2802.00,0.0140
2801.00,0.0140
2800.00,0.0139
2799.00,0.0139
2798.00,0.0139
2797.00,0.0139
2796.00,0.0139
2795.00,0.0139
2794.00,0.0139
2793.00,0.0138
2792.00,0.0138
2791.00,0.0138
2790.00,0.0138
2789.00,0.0138
2788.00,0.0138
2787.00,0.0138
2786.00,0.0137
2785.00,0.0137
2784.00,0.0137
2783.00,0.0137
2782.00,0.0137
2781.00,0.0137
2780.00,0.0137
2779.00,0.0137
2778.00,0.0137
2777.00,0.0136
2776.00,0.0136
2775.00,0.0136
2774.00,0.0136
2773.00,0.0136
2772.00,0.0136
2771.00,0.0135
2770.00,0.0135
2769.00,0.0135
2768.00,0.0135
2767.00,0.0135
2766.00,0.0135
2765.00,0.0135
2764.00,0.0134
2763.00,0.0134
2762.00,0.0134
2761.00,0.0134
2760.00,0.0134
2759.00,0.0134
2758.00,0.0134
2757.00,0.0133
