Created as New Dataset,Sample 309 By YargerLab Date Sunday, August 18 2024
cm-1,A
4000.00,0.0094
3999.00,0.0094
3998.00,0.0094
3997.00,0.0094
3996.00,0.0094
3995.00,0.0094
3994.00,0.0093
3993.00,0.0093
3992.00,0.0093
3991.00,0.0093
3990.00,0.0094
3989.00,0.0094
3988.00,0.0094
3987.00,0.0094
3986.00,0.0094
3985.00,0.0094
3984.00,0.0094
3983.00,0.0093
3982.00,0.0093
3981.00,0.0094
3980.00,0.0094
3979.00,0.0094
3978.00,0.0094
3977.00,0.0094
3976.00,0.0094
3975.00,0.0094
3974.00,0.0093
3973.00,0.0093
3972.00,0.0093
3971.00,0.0093
3970.00,0.0094
3969.00,0.0094
3968.00,0.0093
3967.00,0.0093
3966.00,0.0093
3965.00,0.0093
3964.00,0.0093
3963.00,0.0093
3962.00,0.0093
3961.00,0.0093
3960.00,0.0093
3959.00,0.0093
3958.00,0.0093
3957.00,0.0093
3956.00,0.0093
3955.00,0.0093
3954.00,0.0093
3953.00,0.0093
3952.00,0.0093
3951.00,0.0093
3950.00,0.0093
3949.00,0.0093
3948.00,0.0093
3947.00,0.0093
3946.00,0.0093
3945.00,0.0093
3944.00,0.0093
3943.00,0.0093
3942.00,0.0093
3941.00,0.0093
3940.00,0.0093
3939.00,0.0093
3938.00,0.0093
3937.00,0.0093
3936.00,0.0093
3935.00,0.0093
3934.00,0.0093
3933.00,0.0093
3932.00,0.0093
3931.00,0.0093
3930.00,0.0093
3929.00,0.0092
3928.00,0.0092
3927.00,0.0092
3926.00,0.0092
3925.00,0.0093
3924.00,0.0093
3923.00,0.0093
3922.00,0.0093
3921.00,0.0093
3920.00,0.0093
3919.00,0.0093
3918.00,0.0093
3917.00,0.0093
3916.00,0.0093
3915.00,0.0092
3914.00,0.0092
3913.00,0.0092
3912.00,0.0092
3911.00,0.0092
3910.00,0.0092
3909.00,0.0092
3908.00,0.0092
3907.00,0.0092
3906.00,0.0092
3905.00,0.0092
3904.00,0.0092
3903.00,0.0092
3902.00,0.0092
3901.00,0.0092
3900.00,0.0092
3899.00,0.0092
3898.00,0.0092
3897.00,0.0092
3896.00,0.0092
3895.00,0.0092
3894.00,0.0092
3893.00,0.0092
3892.00,0.0092
3891.00,0.0092
3890.00,0.0092
3889.00,0.0092
3888.00,0.0092
3887.00,0.0092
3886.00,0.0092
3885.00,0.0092
3884.00,0.0092
3883.00,0.0091
3882.00,0.0091
3881.00,0.0091
3880.00,0.0091
3879.00,0.0091
3878.00,0.0091
3877.00,0.0091
3876.00,0.0091
3875.00,0.0091
3874.00,0.0091
3873.00,0.0091
3872.00,0.0091
3871.00,0.0091
3870.00,0.0091
3869.00,0.0091
3868.00,0.0091
3867.00,0.0091
3866.00,0.0091
3865.00,0.0091
3864.00,0.0091
3863.00,0.0091
3862.00,0.0091
3861.00,0.0091
3860.00,0.0091
3859.00,0.0091
3858.00,0.0091
3857.00,0.0091
3856.00,0.0091
3855.00,0.0091
3854.00,0.0091
3853.00,0.0090
3852.00,0.0090
3851.00,0.0090
3850.00,0.0090
3849.00,0.0090
3848.00,0.0090
3847.00,0.0090
3846.00,0.0090
3845.00,0.0090
3844.00,0.0090
3843.00,0.0090
3842.00,0.0090
3841.00,0.0090
3840.00,0.0090
3839.00,0.0090
3838.00,0.0090
3837.00,0.0090
3836.00,0.0090
3835.00,0.0090
3834.00,0.0090
3833.00,0.0090
3832.00,0.0090
3831.00,0.0090
3830.00,0.0090
3829.00,0.0090
3828.00,0.0089
3827.00,0.0089
3826.00,0.0089
3825.00,0.0090
3824.00,0.0090
3823.00,0.0090
3822.00,0.0089
3821.00,0.0089
3820.00,0.0089
3819.00,0.0089
3818.00,0.0089
3817.00,0.0089
3816.00,0.0089
3815.00,0.0089
3814.00,0.0089
3813.00,0.0089
3812.00,0.0089
3811.00,0.0089
3810.00,0.0089
3809.00,0.0089
3808.00,0.0089
3807.00,0.0089
3806.00,0.0089
3805.00,0.0089
3804.00,0.0089
3803.00,0.0088
3802.00,0.0088
3801.00,0.0088
3800.00,0.0088
3799.00,0.0088
3798.00,0.0088
3797.00,0.0088
3796.00,0.0088
3795.00,0.0089
3794.00,0.0089
3793.00,0.0089
3792.00,0.0089
3791.00,0.0089
3790.00,0.0089
3789.00,0.0088
3788.00,0.0088
3787.00,0.0088
3786.00,0.0088
3785.00,0.0088
3784.00,0.0088
3783.00,0.0088
3782.00,0.0088
3781.00,0.0088
3780.00,0.0088
3779.00,0.0088
3778.00,0.0088
3777.00,0.0088
3776.00,0.0088
3775.00,0.0088
3774.00,0.0088
3773.00,0.0088
3772.00,0.0088
3771.00,0.0088
3770.00,0.0088
3769.00,0.0088
3768.00,0.0088
3767.00,0.0087
3766.00,0.0087
3765.00,0.0087
3764.00,0.0087
3763.00,0.0087
3762.00,0.0087
3761.00,0.0087
3760.00,0.0087
3759.00,0.0087
3758.00,0.0087
3757.00,0.0087
3756.00,0.0087
3755.00,0.0087
3754.00,0.0087
3753.00,0.0087
3752.00,0.0087
3751.00,0.0088
3750.00,0.0088
3749.00,0.0088
3748.00,0.0088
3747.00,0.0087
3746.00,0.0087
3745.00,0.0087
3744.00,0.0087
3743.00,0.0087
3742.00,0.0086
3741.00,0.0086
3740.00,0.0086
3739.00,0.0086
3738.00,0.0086
3737.00,0.0086
3736.00,0.0086
3735.00,0.0086
3734.00,0.0085
3733.00,0.0085
3732.00,0.0085
3731.00,0.0085
3730.00,0.0085
3729.00,0.0085
3728.00,0.0085
3727.00,0.0086
3726.00,0.0086
3725.00,0.0086
3724.00,0.0086
3723.00,0.0085
3722.00,0.0085
3721.00,0.0085
3720.00,0.0085
3719.00,0.0085
3718.00,0.0085
3717.00,0.0085
3716.00,0.0085
3715.00,0.0085
3714.00,0.0084
3713.00,0.0084
3712.00,0.0084
3711.00,0.0085
3710.00,0.0084
3709.00,0.0084
3708.00,0.0084
3707.00,0.0084
3706.00,0.0084
3705.00,0.0084
3704.00,0.0084
3703.00,0.0083
3702.00,0.0083
3701.00,0.0083
3700.00,0.0083
3699.00,0.0083
3698.00,0.0083
3697.00,0.0083
3696.00,0.0083
3695.00,0.0083
3694.00,0.0083
3693.00,0.0083
3692.00,0.0082
3691.00,0.0082
3690.00,0.0082
3689.00,0.0082
3688.00,0.0082
3687.00,0.0082
3686.00,0.0082
3685.00,0.0083
3684.00,0.0083
3683.00,0.0083
3682.00,0.0083
3681.00,0.0083
3680.00,0.0083
3679.00,0.0083
3678.00,0.0083
3677.00,0.0083
3676.00,0.0083
3675.00,0.0082
3674.00,0.0082
3673.00,0.0083
3672.00,0.0083
3671.00,0.0083
3670.00,0.0083
3669.00,0.0083
3668.00,0.0083
3667.00,0.0083
3666.00,0.0083
3665.00,0.0084
3664.00,0.0084
3663.00,0.0084
3662.00,0.0084
3661.00,0.0084
3660.00,0.0085
3659.00,0.0085
3658.00,0.0085
3657.00,0.0085
3656.00,0.0085
3655.00,0.0085
3654.00,0.0085
3653.00,0.0085
3652.00,0.0085
3651.00,0.0085
3650.00,0.0085
3649.00,0.0085
3648.00,0.0085
3647.00,0.0085
3646.00,0.0085
3645.00,0.0085
3644.00,0.0085
3643.00,0.0086
3642.00,0.0086
3641.00,0.0086
3640.00,0.0086
3639.00,0.0087
3638.00,0.0087
3637.00,0.0087
3636.00,0.0087
3635.00,0.0087
3634.00,0.0088
3633.00,0.0088
3632.00,0.0088
3631.00,0.0088
3630.00,0.0088
3629.00,0.0088
3628.00,0.0088
3627.00,0.0088
3626.00,0.0089
3625.00,0.0089
3624.00,0.0089
3623.00,0.0089
3622.00,0.0089
3621.00,0.0089
3620.00,0.0089
3619.00,0.0090
3618.00,0.0090
3617.00,0.0091
3616.00,0.0091
3615.00,0.0091
3614.00,0.0092
3613.00,0.0092
3612.00,0.0092
3611.00,0.0093
3610.00,0.0093
3609.00,0.0093
3608.00,0.0093
3607.00,0.0093
3606.00,0.0094
3605.00,0.0094
3604.00,0.0094
3603.00,0.0094
3602.00,0.0094
3601.00,0.0094
3600.00,0.0094
3599.00,0.0095
3598.00,0.0095
3597.00,0.0095
3596.00,0.0095
3595.00,0.0096
3594.00,0.0096
3593.00,0.0097
3592.00,0.0097
3591.00,0.0098
3590.00,0.0098
3589.00,0.0098
3588.00,0.0098
3587.00,0.0098
3586.00,0.0098
3585.00,0.0099
3584.00,0.0099
3583.00,0.0099
3582.00,0.0100
3581.00,0.0100
3580.00,0.0100
3579.00,0.0100
3578.00,0.0101
3577.00,0.0101
3576.00,0.0101
3575.00,0.0102
3574.00,0.0102
3573.00,0.0102
3572.00,0.0103
3571.00,0.0103
3570.00,0.0103
3569.00,0.0104
3568.00,0.0104
3567.00,0.0104
3566.00,0.0105
3565.00,0.0105
3564.00,0.0105
3563.00,0.0106
3562.00,0.0106
3561.00,0.0106
3560.00,0.0107
3559.00,0.0107
3558.00,0.0108
3557.00,0.0108
3556.00,0.0109
3555.00,0.0109
3554.00,0.0109
3553.00,0.0110
3552.00,0.0110
3551.00,0.0111
3550.00,0.0111
3549.00,0.0112
3548.00,0.0112
3547.00,0.0113
3546.00,0.0113
3545.00,0.0114
3544.00,0.0114
3543.00,0.0114
3542.00,0.0114
3541.00,0.0114
3540.00,0.0115
3539.00,0.0115
3538.00,0.0115
3537.00,0.0116
3536.00,0.0116
3535.00,0.0117
3534.00,0.0117
3533.00,0.0117
3532.00,0.0118
3531.00,0.0118
3530.00,0.0118
3529.00,0.0119
3528.00,0.0120
3527.00,0.0120
3526.00,0.0121
3525.00,0.0121
3524.00,0.0121
3523.00,0.0122
3522.00,0.0122
3521.00,0.0122
3520.00,0.0122
3519.00,0.0123
3518.00,0.0123
3517.00,0.0123
3516.00,0.0124
3515.00,0.0124
3514.00,0.0125
3513.00,0.0125
3512.00,0.0125
3511.00,0.0126
3510.00,0.0126
3509.00,0.0126
3508.00,0.0127
3507.00,0.0127
3506.00,0.0127
3505.00,0.0128
3504.00,0.0128
3503.00,0.0129
3502.00,0.0129
3501.00,0.0130
3500.00,0.0130
3499.00,0.0131
3498.00,0.0131
3497.00,0.0131
3496.00,0.0132
3495.00,0.0132
3494.00,0.0133
3493.00,0.0133
3492.00,0.0133
3491.00,0.0133
3490.00,0.0134
3489.00,0.0134
3488.00,0.0135
3487.00,0.0135
3486.00,0.0136
3485.00,0.0136
3484.00,0.0136
3483.00,0.0137
3482.00,0.0137
3481.00,0.0137
3480.00,0.0138
3479.00,0.0138
3478.00,0.0139
3477.00,0.0139
3476.00,0.0139
3475.00,0.0140
3474.00,0.0140
3473.00,0.0141
3472.00,0.0142
3471.00,0.0142
3470.00,0.0142
3469.00,0.0143
3468.00,0.0143
3467.00,0.0144
3466.00,0.0144
3465.00,0.0144
3464.00,0.0145
3463.00,0.0145
3462.00,0.0146
3461.00,0.0146
3460.00,0.0146
3459.00,0.0147
3458.00,0.0147
3457.00,0.0147
3456.00,0.0148
3455.00,0.0148
3454.00,0.0148
3453.00,0.0149
3452.00,0.0149
3451.00,0.0150
3450.00,0.0150
3449.00,0.0151
3448.00,0.0151
3447.00,0.0151
3446.00,0.0152
3445.00,0.0153
3444.00,0.0153
3443.00,0.0153
3442.00,0.0154
3441.00,0.0154
3440.00,0.0155
3439.00,0.0155
3438.00,0.0156
3437.00,0.0156
3436.00,0.0156
3435.00,0.0157
3434.00,0.0157
3433.00,0.0158
3432.00,0.0158
3431.00,0.0159
3430.00,0.0159
3429.00,0.0159
3428.00,0.0160
3427.00,0.0160
3426.00,0.0160
3425.00,0.0161
3424.00,0.0161
3423.00,0.0162
3422.00,0.0162
3421.00,0.0162
3420.00,0.0163
3419.00,0.0163
3418.00,0.0163
3417.00,0.0164
3416.00,0.0164
3415.00,0.0165
3414.00,0.0165
3413.00,0.0166
3412.00,0.0166
3411.00,0.0167
3410.00,0.0167
3409.00,0.0167
3408.00,0.0168
3407.00,0.0168
3406.00,0.0168
3405.00,0.0169
3404.00,0.0169
3403.00,0.0170
3402.00,0.0170
3401.00,0.0170
3400.00,0.0171
3399.00,0.0171
3398.00,0.0172
3397.00,0.0172
3396.00,0.0172
3395.00,0.0172
3394.00,0.0173
3393.00,0.0173
3392.00,0.0173
3391.00,0.0174
3390.00,0.0174
3389.00,0.0174
3388.00,0.0175
3387.00,0.0175
3386.00,0.0176
3385.00,0.0176
3384.00,0.0176
3383.00,0.0177
3382.00,0.0177
3381.00,0.0178
3380.00,0.0178
3379.00,0.0178
3378.00,0.0179
3377.00,0.0179
3376.00,0.0180
3375.00,0.0180
3374.00,0.0180
3373.00,0.0181
3372.00,0.0181
3371.00,0.0182
3370.00,0.0182
3369.00,0.0183
3368.00,0.0184
3367.00,0.0184
3366.00,0.0185
3365.00,0.0185
3364.00,0.0186
3363.00,0.0186
3362.00,0.0186
3361.00,0.0187
3360.00,0.0188
3359.00,0.0188
3358.00,0.0189
3357.00,0.0189
3356.00,0.0190
3355.00,0.0191
3354.00,0.0192
3353.00,0.0192
3352.00,0.0193
3351.00,0.0193
3350.00,0.0194
3349.00,0.0195
3348.00,0.0196
3347.00,0.0196
3346.00,0.0197
3345.00,0.0198
3344.00,0.0198
3343.00,0.0199
3342.00,0.0200
3341.00,0.0201
3340.00,0.0201
3339.00,0.0202
3338.00,0.0203
3337.00,0.0204
3336.00,0.0205
3335.00,0.0206
3334.00,0.0207
3333.00,0.0208
3332.00,0.0209
3331.00,0.0210
3330.00,0.0211
3329.00,0.0212
3328.00,0.0213
3327.00,0.0214
3326.00,0.0215
3325.00,0.0216
3324.00,0.0218
3323.00,0.0219
3322.00,0.0220
3321.00,0.0222
3320.00,0.0223
3319.00,0.0224
3318.00,0.0226
3317.00,0.0227
3316.00,0.0228
3315.00,0.0230
3314.00,0.0231
3313.00,0.0233
3312.00,0.0234
3311.00,0.0236
3310.00,0.0237
3309.00,0.0238
3308.00,0.0240
3307.00,0.0242
3306.00,0.0243
3305.00,0.0245
3304.00,0.0247
3303.00,0.0249
3302.00,0.0251
3301.00,0.0253
3300.00,0.0255
3299.00,0.0257
3298.00,0.0258
3297.00,0.0260
3296.00,0.0262
3295.00,0.0263
3294.00,0.0265
3293.00,0.0267
3292.00,0.0269
3291.00,0.0271
3290.00,0.0273
3289.00,0.0275
3288.00,0.0277
3287.00,0.0279
3286.00,0.0280
3285.00,0.0282
3284.00,0.0283
3283.00,0.0285
3282.00,0.0286
3281.00,0.0287
3280.00,0.0288
3279.00,0.0289
3278.00,0.0289
3277.00,0.0290
3276.00,0.0291
3275.00,0.0291
3274.00,0.0291
3273.00,0.0292
3272.00,0.0292
3271.00,0.0292
3270.00,0.0292
3269.00,0.0292
3268.00,0.0292
3267.00,0.0291
3266.00,0.0291
3265.00,0.0290
3264.00,0.0289
3263.00,0.0288
3262.00,0.0287
3261.00,0.0286
3260.00,0.0284
3259.00,0.0283
3258.00,0.0282
3257.00,0.0280
3256.00,0.0279
3255.00,0.0278
3254.00,0.0276
3253.00,0.0275
3252.00,0.0274
3251.00,0.0272
3250.00,0.0271
3249.00,0.0269
3248.00,0.0267
3247.00,0.0266
3246.00,0.0265
3245.00,0.0263
3244.00,0.0262
3243.00,0.0261
3242.00,0.0260
3241.00,0.0258
3240.00,0.0257
3239.00,0.0256
3238.00,0.0255
3237.00,0.0253
3236.00,0.0252
3235.00,0.0250
3234.00,0.0249
3233.00,0.0248
3232.00,0.0247
3231.00,0.0247
3230.00,0.0246
3229.00,0.0245
3228.00,0.0244
3227.00,0.0243
3226.00,0.0242
3225.00,0.0241
3224.00,0.0240
3223.00,0.0240
3222.00,0.0239
3221.00,0.0238
3220.00,0.0237
3219.00,0.0237
3218.00,0.0236
3217.00,0.0235
3216.00,0.0234
3215.00,0.0234
3214.00,0.0233
3213.00,0.0232
3212.00,0.0231
3211.00,0.0231
3210.00,0.0230
3209.00,0.0229
3208.00,0.0229
3207.00,0.0228
3206.00,0.0227
3205.00,0.0227
3204.00,0.0226
3203.00,0.0225
3202.00,0.0225
3201.00,0.0224
3200.00,0.0223
3199.00,0.0223
3198.00,0.0222
3197.00,0.0221
3196.00,0.0221
3195.00,0.0220
3194.00,0.0219
3193.00,0.0219
3192.00,0.0218
3191.00,0.0217
3190.00,0.0217
3189.00,0.0216
3188.00,0.0215
3187.00,0.0215
3186.00,0.0214
3185.00,0.0213
3184.00,0.0213
3183.00,0.0212
3182.00,0.0211
3181.00,0.0211
3180.00,0.0210
3179.00,0.0209
3178.00,0.0208
3177.00,0.0208
3176.00,0.0207
3175.00,0.0206
3174.00,0.0205
3173.00,0.0205
3172.00,0.0204
3171.00,0.0204
3170.00,0.0203
3169.00,0.0202
3168.00,0.0202
3167.00,0.0201
3166.00,0.0200
3165.00,0.0199
3164.00,0.0199
3163.00,0.0198
3162.00,0.0197
3161.00,0.0197
3160.00,0.0196
3159.00,0.0195
3158.00,0.0195
3157.00,0.0194
3156.00,0.0193
3155.00,0.0193
3154.00,0.0192
3153.00,0.0191
3152.00,0.0191
3151.00,0.0190
3150.00,0.0190
3149.00,0.0189
3148.00,0.0188
3147.00,0.0188
3146.00,0.0187
3145.00,0.0187
3144.00,0.0186
3143.00,0.0186
3142.00,0.0185
3141.00,0.0185
3140.00,0.0184
3139.00,0.0183
3138.00,0.0183
3137.00,0.0183
3136.00,0.0182
3135.00,0.0182
3134.00,0.0181
3133.00,0.0181
3132.00,0.0180
3131.00,0.0180
3130.00,0.0180
3129.00,0.0179
3128.00,0.0179
3127.00,0.0178
3126.00,0.0178
3125.00,0.0178
3124.00,0.0177
3123.00,0.0177
3122.00,0.0176
3121.00,0.0176
3120.00,0.0175
3119.00,0.0175
3118.00,0.0175
3117.00,0.0175
3116.00,0.0174
3115.00,0.0174
3114.00,0.0174
3113.00,0.0174
3112.00,0.0174
3111.00,0.0174
3110.00,0.0174
3109.00,0.0174
3108.00,0.0174
3107.00,0.0174
3106.00,0.0174
3105.00,0.0174
3104.00,0.0174
3103.00,0.0174
3102.00,0.0173
3101.00,0.0173
3100.00,0.0173
3099.00,0.0174
3098.00,0.0174
3097.00,0.0174
3096.00,0.0174
3095.00,0.0174
3094.00,0.0174
3093.00,0.0174
3092.00,0.0174
3091.00,0.0174
3090.00,0.0174
3089.00,0.0174
3088.00,0.0174
3087.00,0.0174
3086.00,0.0174
3085.00,0.0174
3084.00,0.0174
3083.00,0.0174
3082.00,0.0174
3081.00,0.0174
3080.00,0.0173
3079.00,0.0173
3078.00,0.0174
3077.00,0.0174
3076.00,0.0174
3075.00,0.0175
3074.00,0.0175
3073.00,0.0175
3072.00,0.0175
3071.00,0.0175
3070.00,0.0174
3069.00,0.0174
3068.00,0.0174
3067.00,0.0174
3066.00,0.0174
3065.00,0.0174
3064.00,0.0174
3063.00,0.0174
3062.00,0.0174
3061.00,0.0173
3060.00,0.0173
3059.00,0.0173
3058.00,0.0172
3057.00,0.0172
3056.00,0.0172
3055.00,0.0171
3054.00,0.0171
3053.00,0.0171
3052.00,0.0170
3051.00,0.0170
3050.00,0.0169
3049.00,0.0169
3048.00,0.0169
3047.00,0.0168
3046.00,0.0167
3045.00,0.0167
3044.00,0.0166
3043.00,0.0166
3042.00,0.0165
3041.00,0.0165
3040.00,0.0165
3039.00,0.0165
3038.00,0.0164
3037.00,0.0164
3036.00,0.0163
3035.00,0.0163
3034.00,0.0162
3033.00,0.0162
3032.00,0.0162
3031.00,0.0162
3030.00,0.0162
3029.00,0.0161
3028.00,0.0161
3027.00,0.0160
3026.00,0.0160
3025.00,0.0159
3024.00,0.0159
3023.00,0.0158
3022.00,0.0158
3021.00,0.0157
3020.00,0.0157
3019.00,0.0156
3018.00,0.0156
3017.00,0.0155
3016.00,0.0155
3015.00,0.0154
3014.00,0.0154
3013.00,0.0153
3012.00,0.0153
3011.00,0.0153
3010.00,0.0153
3009.00,0.0153
3008.00,0.0153
3007.00,0.0153
3006.00,0.0153
3005.00,0.0153
3004.00,0.0153
3003.00,0.0153
3002.00,0.0152
3001.00,0.0152
3000.00,0.0152
2999.00,0.0152
2998.00,0.0152
2997.00,0.0152
2996.00,0.0152
2995.00,0.0152
2994.00,0.0152
2993.00,0.0153
2992.00,0.0153
2991.00,0.0153
2990.00,0.0154
2989.00,0.0154
2988.00,0.0155
2987.00,0.0155
2986.00,0.0155
2985.00,0.0156
2984.00,0.0156
2983.00,0.0156
2982.00,0.0157
2981.00,0.0157
2980.00,0.0158
2979.00,0.0158
2978.00,0.0158
2977.00,0.0159
2976.00,0.0159
2975.00,0.0160
2974.00,0.0160
2973.00,0.0160
2972.00,0.0161
2971.00,0.0161
2970.00,0.0161
2969.00,0.0161
2968.00,0.0161
2967.00,0.0161
2966.00,0.0161
2965.00,0.0161
2964.00,0.0161
2963.00,0.0161
2962.00,0.0161
2961.00,0.0161
2960.00,0.0160
2959.00,0.0160
2958.00,0.0160
2957.00,0.0160
2956.00,0.0159
2955.00,0.0159
2954.00,0.0159
2953.00,0.0158
2952.00,0.0158
2951.00,0.0158
2950.00,0.0158
2949.00,0.0158
2948.00,0.0158
2947.00,0.0158
2946.00,0.0159
2945.00,0.0159
2944.00,0.0159
2943.00,0.0159
2942.00,0.0160
2941.00,0.0160
2940.00,0.0160
2939.00,0.0160
2938.00,0.0161
2937.00,0.0161
2936.00,0.0160
2935.00,0.0160
2934.00,0.0160
2933.00,0.0159
2932.00,0.0158
2931.00,0.0158
2930.00,0.0157
2929.00,0.0156
2928.00,0.0156
2927.00,0.0155
2926.00,0.0153
2925.00,0.0152
2924.00,0.0150
2923.00,0.0149
2922.00,0.0147
2921.00,0.0145
2920.00,0.0144
2919.00,0.0142
2918.00,0.0140
2917.00,0.0139
2916.00,0.0139
2915.00,0.0139
2914.00,0.0140
2913.00,0.0142
2912.00,0.0144
2911.00,0.0145
2910.00,0.0146
2909.00,0.0146
2908.00,0.0147
2907.00,0.0147
2906.00,0.0147
2905.00,0.0147
2904.00,0.0147
2903.00,0.0147
2902.00,0.0147
2901.00,0.0147
2900.00,0.0147
2899.00,0.0147
2898.00,0.0147
2897.00,0.0147
2896.00,0.0147
2895.00,0.0147
2894.00,0.0147
2893.00,0.0147
2892.00,0.0147
2891.00,0.0147
2890.00,0.0147
2889.00,0.0148
2888.00,0.0148
2887.00,0.0148
2886.00,0.0149
2885.00,0.0149
2884.00,0.0149
2883.00,0.0149
2882.00,0.0150
2881.00,0.0150
2880.00,0.0150
2879.00,0.0150
2878.00,0.0151
2877.00,0.0151
2876.00,0.0151
2875.00,0.0151
2874.00,0.0151
2873.00,0.0151
2872.00,0.0150
2871.00,0.0150
2870.00,0.0150
2869.00,0.0149
2868.00,0.0149
2867.00,0.0148
2866.00,0.0148
2865.00,0.0147
2864.00,0.0146
2863.00,0.0145
2862.00,0.0144
2861.00,0.0144
2860.00,0.0143
2859.00,0.0142
2858.00,0.0141
2857.00,0.0140
2856.00,0.0139
2855.00,0.0138
2854.00,0.0137
2853.00,0.0135
2852.00,0.0133
2851.00,0.0132
2850.00,0.0130
2849.00,0.0129
2848.00,0.0129
2847.00,0.0130
2846.00,0.0132
2845.00,0.0134
2844.00,0.0135
2843.00,0.0136
2842.00,0.0136
2841.00,0.0137
2840.00,0.0137
2839.00,0.0137
2838.00,0.0137
2837.00,0.0137
2836.00,0.0137
2835.00,0.0137
2834.00,0.0137
2833.00,0.0137
2832.00,0.0136
2831.00,0.0136
2830.00,0.0136
2829.00,0.0136
2828.00,0.0136
2827.00,0.0136
2826.00,0.0135
2825.00,0.0135
2824.00,0.0135
2823.00,0.0135
2822.00,0.0135
2821.00,0.0135
2820.00,0.0135
2819.00,0.0135
2818.00,0.0134
2817.00,0.0134
2816.00,0.0134
2815.00,0.0134
2814.00,0.0134
2813.00,0.0134
2812.00,0.0134
2811.00,0.0134
2810.00,0.0134
2809.00,0.0133
2808.00,0.0133
2807.00,0.0133
2806.00,0.0133
2805.00,0.0133
2804.00,0.0133
2803.00,0.0132
2802.00,0.0132
2801.00,0.0132
2800.00,0.0132
2799.00,0.0132
2798.00,0.0132
2797.00,0.0132
2796.00,0.0132
2795.00,0.0132
2794.00,0.0132
2793.00,0.0131
2792.00,0.0131
2791.00,0.0131
2790.00,0.0131
2789.00,0.0131
2788.00,0.0131
2787.00,0.0131
2786.00,0.0131
2785.00,0.0131
2784.00,0.0130
2783.00,0.0130
2782.00,0.0130
2781.00,0.0130
2780.00,0.0130
2779.00,0.0130
2778.00,0.0130
2777.00,0.0130
2776.00,0.0130
2775.00,0.0129
2774.00,0.0129
2773.00,0.0129
2772.00,0.0129
2771.00,0.0129
2770.00,0.0129
2769.00,0.0129
2768.00,0.0129
2767.00,0.0129
2766.00,0.0128
2765.00,0.0128
2764.00,0.0128
2763.00,0.0128
2762.00,0.0128
2761.00,0.0128
2760.00,0.0128
2759.00,0.0128
2758.00,0.0127
2757.00,0.0127
