Created as New Dataset,Sample 308 By YargerLab Date Sunday, August 18 2024
cm-1,A
4000.00,0.0078
3999.00,0.0077
3998.00,0.0077
3997.00,0.0077
3996.00,0.0077
3995.00,0.0077
3994.00,0.0077
3993.00,0.0077
3992.00,0.0077
3991.00,0.0077
3990.00,0.0078
3989.00,0.0078
3988.00,0.0078
3987.00,0.0078
3986.00,0.0078
3985.00,0.0078
3984.00,0.0077
3983.00,0.0077
3982.00,0.0077
3981.00,0.0077
3980.00,0.0077
3979.00,0.0077
3978.00,0.0077
3977.00,0.0077
3976.00,0.0077
3975.00,0.0077
3974.00,0.0078
3973.00,0.0078
3972.00,0.0078
3971.00,0.0078
3970.00,0.0078
3969.00,0.0078
3968.00,0.0077
3967.00,0.0077
3966.00,0.0077
3965.00,0.0077
3964.00,0.0077
3963.00,0.0077
3962.00,0.0077
3961.00,0.0077
3960.00,0.0077
3959.00,0.0077
3958.00,0.0077
3957.00,0.0077
3956.00,0.0077
3955.00,0.0077
3954.00,0.0077
3953.00,0.0077
3952.00,0.0077
3951.00,0.0077
3950.00,0.0077
3949.00,0.0077
3948.00,0.0077
3947.00,0.0077
3946.00,0.0077
3945.00,0.0077
3944.00,0.0077
3943.00,0.0077
3942.00,0.0077
3941.00,0.0077
3940.00,0.0077
3939.00,0.0077
3938.00,0.0077
3937.00,0.0077
3936.00,0.0077
3935.00,0.0077
3934.00,0.0077
3933.00,0.0077
3932.00,0.0077
3931.00,0.0077
3930.00,0.0077
3929.00,0.0077
3928.00,0.0077
3927.00,0.0077
3926.00,0.0077
3925.00,0.0077
3924.00,0.0077
3923.00,0.0077
3922.00,0.0077
3921.00,0.0077
3920.00,0.0077
3919.00,0.0077
3918.00,0.0077
3917.00,0.0077
3916.00,0.0077
3915.00,0.0077
3914.00,0.0077
3913.00,0.0077
3912.00,0.0077
3911.00,0.0077
3910.00,0.0076
3909.00,0.0076
3908.00,0.0076
3907.00,0.0076
3906.00,0.0076
3905.00,0.0076
3904.00,0.0077
3903.00,0.0077
3902.00,0.0077
3901.00,0.0077
3900.00,0.0077
3899.00,0.0076
3898.00,0.0076
3897.00,0.0076
3896.00,0.0076
3895.00,0.0076
3894.00,0.0076
3893.00,0.0076
3892.00,0.0076
3891.00,0.0076
3890.00,0.0076
3889.00,0.0076
3888.00,0.0076
3887.00,0.0076
3886.00,0.0076
3885.00,0.0076
3884.00,0.0076
3883.00,0.0076
3882.00,0.0076
3881.00,0.0076
3880.00,0.0075
3879.00,0.0075
3878.00,0.0076
3877.00,0.0076
3876.00,0.0076
3875.00,0.0076
3874.00,0.0075
3873.00,0.0075
3872.00,0.0076
3871.00,0.0076
3870.00,0.0076
3869.00,0.0076
3868.00,0.0076
3867.00,0.0076
3866.00,0.0076
3865.00,0.0075
3864.00,0.0075
3863.00,0.0075
3862.00,0.0075
3861.00,0.0075
3860.00,0.0075
3859.00,0.0075
3858.00,0.0075
3857.00,0.0075
3856.00,0.0075
3855.00,0.0075
3854.00,0.0075
3853.00,0.0075
3852.00,0.0075
3851.00,0.0075
3850.00,0.0075
3849.00,0.0075
3848.00,0.0075
3847.00,0.0075
3846.00,0.0075
3845.00,0.0075
3844.00,0.0075
3843.00,0.0075
3842.00,0.0075
3841.00,0.0075
3840.00,0.0075
3839.00,0.0075
3838.00,0.0075
3837.00,0.0075
3836.00,0.0075
3835.00,0.0075
3834.00,0.0074
3833.00,0.0074
3832.00,0.0074
3831.00,0.0074
3830.00,0.0074
3829.00,0.0074
3828.00,0.0074
3827.00,0.0074
3826.00,0.0074
3825.00,0.0074
3824.00,0.0074
3823.00,0.0074
3822.00,0.0074
3821.00,0.0074
3820.00,0.0074
3819.00,0.0074
3818.00,0.0074
3817.00,0.0074
3816.00,0.0074
3815.00,0.0074
3814.00,0.0074
3813.00,0.0074
3812.00,0.0074
3811.00,0.0074
3810.00,0.0074
3809.00,0.0074
3808.00,0.0074
3807.00,0.0074
3806.00,0.0074
3805.00,0.0074
3804.00,0.0074
3803.00,0.0074
3802.00,0.0073
3801.00,0.0073
3800.00,0.0073
3799.00,0.0073
3798.00,0.0073
3797.00,0.0073
3796.00,0.0073
3795.00,0.0073
3794.00,0.0073
3793.00,0.0073
3792.00,0.0073
3791.00,0.0073
3790.00,0.0073
3789.00,0.0073
3788.00,0.0073
3787.00,0.0073
3786.00,0.0073
3785.00,0.0073
3784.00,0.0073
3783.00,0.0073
3782.00,0.0073
3781.00,0.0073
3780.00,0.0073
3779.00,0.0073
3778.00,0.0073
3777.00,0.0073
3776.00,0.0073
3775.00,0.0073
3774.00,0.0073
3773.00,0.0073
3772.00,0.0073
3771.00,0.0073
3770.00,0.0072
3769.00,0.0072
3768.00,0.0072
3767.00,0.0072
3766.00,0.0072
3765.00,0.0072
3764.00,0.0072
3763.00,0.0073
3762.00,0.0073
3761.00,0.0073
3760.00,0.0073
3759.00,0.0073
3758.00,0.0073
3757.00,0.0073
3756.00,0.0073
3755.00,0.0072
3754.00,0.0072
3753.00,0.0072
3752.00,0.0073
3751.00,0.0073
3750.00,0.0073
3749.00,0.0073
3748.00,0.0073
3747.00,0.0073
3746.00,0.0073
3745.00,0.0073
3744.00,0.0073
3743.00,0.0072
3742.00,0.0072
3741.00,0.0072
3740.00,0.0072
3739.00,0.0072
3738.00,0.0072
3737.00,0.0072
3736.00,0.0072
3735.00,0.0071
3734.00,0.0071
3733.00,0.0071
3732.00,0.0071
3731.00,0.0071
3730.00,0.0071
3729.00,0.0071
3728.00,0.0071
3727.00,0.0071
3726.00,0.0071
3725.00,0.0071
3724.00,0.0071
3723.00,0.0071
3722.00,0.0071
3721.00,0.0071
3720.00,0.0070
3719.00,0.0070
3718.00,0.0070
3717.00,0.0070
3716.00,0.0070
3715.00,0.0070
3714.00,0.0070
3713.00,0.0070
3712.00,0.0070
3711.00,0.0070
3710.00,0.0070
3709.00,0.0070
3708.00,0.0070
3707.00,0.0070
3706.00,0.0070
3705.00,0.0069
3704.00,0.0069
3703.00,0.0069
3702.00,0.0068
3701.00,0.0068
3700.00,0.0068
3699.00,0.0069
3698.00,0.0069
3697.00,0.0069
3696.00,0.0069
3695.00,0.0069
3694.00,0.0069
3693.00,0.0069
3692.00,0.0069
3691.00,0.0069
3690.00,0.0068
3689.00,0.0068
3688.00,0.0068
3687.00,0.0068
3686.00,0.0068
3685.00,0.0069
3684.00,0.0069
3683.00,0.0069
3682.00,0.0069
3681.00,0.0069
3680.00,0.0069
3679.00,0.0069
3678.00,0.0069
3677.00,0.0069
3676.00,0.0069
3675.00,0.0069
3674.00,0.0069
3673.00,0.0069
3672.00,0.0069
3671.00,0.0069
3670.00,0.0069
3669.00,0.0069
3668.00,0.0069
3667.00,0.0070
3666.00,0.0070
3665.00,0.0070
3664.00,0.0070
3663.00,0.0070
3662.00,0.0070
3661.00,0.0070
3660.00,0.0070
3659.00,0.0070
3658.00,0.0071
3657.00,0.0071
3656.00,0.0071
3655.00,0.0071
3654.00,0.0071
3653.00,0.0071
3652.00,0.0071
3651.00,0.0071
3650.00,0.0072
3649.00,0.0072
3648.00,0.0072
3647.00,0.0072
3646.00,0.0072
3645.00,0.0073
3644.00,0.0073
3643.00,0.0073
3642.00,0.0073
3641.00,0.0073
3640.00,0.0073
3639.00,0.0073
3638.00,0.0074
3637.00,0.0074
3636.00,0.0074
3635.00,0.0074
3634.00,0.0074
3633.00,0.0074
3632.00,0.0075
3631.00,0.0075
3630.00,0.0075
3629.00,0.0076
3628.00,0.0076
3627.00,0.0076
3626.00,0.0076
3625.00,0.0076
3624.00,0.0076
3623.00,0.0076
3622.00,0.0076
3621.00,0.0076
3620.00,0.0076
3619.00,0.0077
3618.00,0.0077
3617.00,0.0078
3616.00,0.0079
3615.00,0.0079
3614.00,0.0079
3613.00,0.0080
3612.00,0.0080
3611.00,0.0080
3610.00,0.0080
3609.00,0.0080
3608.00,0.0081
3607.00,0.0081
3606.00,0.0081
3605.00,0.0081
3604.00,0.0082
3603.00,0.0082
3602.00,0.0082
3601.00,0.0082
3600.00,0.0082
3599.00,0.0082
3598.00,0.0083
3597.00,0.0083
3596.00,0.0083
3595.00,0.0084
3594.00,0.0084
3593.00,0.0084
3592.00,0.0085
3591.00,0.0085
3590.00,0.0085
3589.00,0.0085
3588.00,0.0085
3587.00,0.0086
3586.00,0.0086
3585.00,0.0087
3584.00,0.0087
3583.00,0.0087
3582.00,0.0087
3581.00,0.0087
3580.00,0.0088
3579.00,0.0088
3578.00,0.0089
3577.00,0.0089
3576.00,0.0089
3575.00,0.0090
3574.00,0.0090
3573.00,0.0090
3572.00,0.0091
3571.00,0.0091
3570.00,0.0092
3569.00,0.0092
3568.00,0.0092
3567.00,0.0093
3566.00,0.0093
3565.00,0.0094
3564.00,0.0094
3563.00,0.0094
3562.00,0.0095
3561.00,0.0095
3560.00,0.0095
3559.00,0.0095
3558.00,0.0096
3557.00,0.0096
3556.00,0.0097
3555.00,0.0097
3554.00,0.0098
3553.00,0.0098
3552.00,0.0098
3551.00,0.0099
3550.00,0.0099
3549.00,0.0100
3548.00,0.0100
3547.00,0.0101
3546.00,0.0101
3545.00,0.0102
3544.00,0.0102
3543.00,0.0102
3542.00,0.0102
3541.00,0.0103
3540.00,0.0103
3539.00,0.0103
3538.00,0.0104
3537.00,0.0104
3536.00,0.0105
3535.00,0.0105
3534.00,0.0105
3533.00,0.0106
3532.00,0.0106
3531.00,0.0106
3530.00,0.0107
3529.00,0.0107
3528.00,0.0108
3527.00,0.0108
3526.00,0.0109
3525.00,0.0109
3524.00,0.0110
3523.00,0.0110
3522.00,0.0110
3521.00,0.0111
3520.00,0.0111
3519.00,0.0111
3518.00,0.0111
3517.00,0.0112
3516.00,0.0112
3515.00,0.0112
3514.00,0.0113
3513.00,0.0113
3512.00,0.0114
3511.00,0.0114
3510.00,0.0114
3509.00,0.0115
3508.00,0.0115
3507.00,0.0116
3506.00,0.0116
3505.00,0.0117
3504.00,0.0117
3503.00,0.0118
3502.00,0.0118
3501.00,0.0118
3500.00,0.0119
3499.00,0.0119
3498.00,0.0120
3497.00,0.0120
3496.00,0.0120
3495.00,0.0121
3494.00,0.0121
3493.00,0.0121
3492.00,0.0122
3491.00,0.0122
3490.00,0.0123
3489.00,0.0123
3488.00,0.0123
3487.00,0.0124
3486.00,0.0124
3485.00,0.0125
3484.00,0.0125
3483.00,0.0125
3482.00,0.0126
3481.00,0.0126
3480.00,0.0127
3479.00,0.0127
3478.00,0.0128
3477.00,0.0128
3476.00,0.0128
3475.00,0.0129
3474.00,0.0129
3473.00,0.0130
3472.00,0.0130
3471.00,0.0131
3470.00,0.0131
3469.00,0.0131
3468.00,0.0132
3467.00,0.0132
3466.00,0.0132
3465.00,0.0133
3464.00,0.0133
3463.00,0.0134
3462.00,0.0134
3461.00,0.0135
3460.00,0.0135
3459.00,0.0135
3458.00,0.0136
3457.00,0.0136
3456.00,0.0136
3455.00,0.0137
3454.00,0.0137
3453.00,0.0138
3452.00,0.0138
3451.00,0.0139
3450.00,0.0139
3449.00,0.0139
3448.00,0.0140
3447.00,0.0140
3446.00,0.0140
3445.00,0.0141
3444.00,0.0141
3443.00,0.0142
3442.00,0.0142
3441.00,0.0143
3440.00,0.0143
3439.00,0.0144
3438.00,0.0144
3437.00,0.0145
3436.00,0.0145
3435.00,0.0145
3434.00,0.0146
3433.00,0.0146
3432.00,0.0147
3431.00,0.0147
3430.00,0.0147
3429.00,0.0148
3428.00,0.0148
3427.00,0.0149
3426.00,0.0149
3425.00,0.0149
3424.00,0.0150
3423.00,0.0150
3422.00,0.0151
3421.00,0.0151
3420.00,0.0152
3419.00,0.0152
3418.00,0.0152
3417.00,0.0153
3416.00,0.0153
3415.00,0.0154
3414.00,0.0154
3413.00,0.0154
3412.00,0.0155
3411.00,0.0155
3410.00,0.0156
3409.00,0.0156
3408.00,0.0156
3407.00,0.0157
3406.00,0.0157
3405.00,0.0157
3404.00,0.0158
3403.00,0.0158
3402.00,0.0159
3401.00,0.0159
3400.00,0.0160
3399.00,0.0160
3398.00,0.0160
3397.00,0.0161
3396.00,0.0161
3395.00,0.0161
3394.00,0.0162
3393.00,0.0162
3392.00,0.0162
3391.00,0.0163
3390.00,0.0163
3389.00,0.0163
3388.00,0.0163
3387.00,0.0164
3386.00,0.0164
3385.00,0.0165
3384.00,0.0165
3383.00,0.0165
3382.00,0.0166
3381.00,0.0166
3380.00,0.0167
3379.00,0.0167
3378.00,0.0168
3377.00,0.0168
3376.00,0.0168
3375.00,0.0169
3374.00,0.0169
3373.00,0.0169
3372.00,0.0170
3371.00,0.0170
3370.00,0.0171
3369.00,0.0171
3368.00,0.0172
3367.00,0.0172
3366.00,0.0173
3365.00,0.0173
3364.00,0.0174
3363.00,0.0174
3362.00,0.0175
3361.00,0.0175
3360.00,0.0176
3359.00,0.0176
3358.00,0.0177
3357.00,0.0178
3356.00,0.0178
3355.00,0.0179
3354.00,0.0180
3353.00,0.0180
3352.00,0.0181
3351.00,0.0181
3350.00,0.0182
3349.00,0.0183
3348.00,0.0183
3347.00,0.0184
3346.00,0.0185
3345.00,0.0185
3344.00,0.0186
3343.00,0.0187
3342.00,0.0187
3341.00,0.0188
3340.00,0.0189
3339.00,0.0190
3338.00,0.0190
3337.00,0.0191
3336.00,0.0192
3335.00,0.0193
3334.00,0.0194
3333.00,0.0195
3332.00,0.0196
3331.00,0.0197
3330.00,0.0198
3329.00,0.0199
3328.00,0.0199
3327.00,0.0200
3326.00,0.0201
3325.00,0.0203
3324.00,0.0204
3323.00,0.0205
3322.00,0.0206
3321.00,0.0207
3320.00,0.0208
3319.00,0.0209
3318.00,0.0211
3317.00,0.0212
3316.00,0.0213
3315.00,0.0214
3314.00,0.0216
3313.00,0.0217
3312.00,0.0218
3311.00,0.0219
3310.00,0.0221
3309.00,0.0222
3308.00,0.0223
3307.00,0.0225
3306.00,0.0226
3305.00,0.0228
3304.00,0.0230
3303.00,0.0231
3302.00,0.0233
3301.00,0.0234
3300.00,0.0236
3299.00,0.0237
3298.00,0.0239
3297.00,0.0240
3296.00,0.0242
3295.00,0.0243
3294.00,0.0245
3293.00,0.0246
3292.00,0.0248
3291.00,0.0249
3290.00,0.0251
3289.00,0.0253
3288.00,0.0254
3287.00,0.0255
3286.00,0.0256
3285.00,0.0258
3284.00,0.0259
3283.00,0.0260
3282.00,0.0261
3281.00,0.0262
3280.00,0.0262
3279.00,0.0263
3278.00,0.0264
3277.00,0.0264
3276.00,0.0264
3275.00,0.0265
3274.00,0.0265
3273.00,0.0265
3272.00,0.0265
3271.00,0.0265
3270.00,0.0265
3269.00,0.0264
3268.00,0.0264
3267.00,0.0263
3266.00,0.0263
3265.00,0.0262
3264.00,0.0261
3263.00,0.0260
3262.00,0.0259
3261.00,0.0258
3260.00,0.0257
3259.00,0.0256
3258.00,0.0255
3257.00,0.0253
3256.00,0.0252
3255.00,0.0251
3254.00,0.0250
3253.00,0.0249
3252.00,0.0247
3251.00,0.0246
3250.00,0.0245
3249.00,0.0243
3248.00,0.0242
3247.00,0.0241
3246.00,0.0239
3245.00,0.0238
3244.00,0.0237
3243.00,0.0236
3242.00,0.0235
3241.00,0.0234
3240.00,0.0233
3239.00,0.0232
3238.00,0.0231
3237.00,0.0230
3236.00,0.0229
3235.00,0.0228
3234.00,0.0227
3233.00,0.0226
3232.00,0.0225
3231.00,0.0224
3230.00,0.0223
3229.00,0.0223
3228.00,0.0222
3227.00,0.0221
3226.00,0.0220
3225.00,0.0220
3224.00,0.0219
3223.00,0.0218
3222.00,0.0217
3221.00,0.0216
3220.00,0.0216
3219.00,0.0215
3218.00,0.0215
3217.00,0.0214
3216.00,0.0213
3215.00,0.0213
3214.00,0.0212
3213.00,0.0211
3212.00,0.0211
3211.00,0.0210
3210.00,0.0210
3209.00,0.0209
3208.00,0.0208
3207.00,0.0208
3206.00,0.0207
3205.00,0.0207
3204.00,0.0206
3203.00,0.0205
3202.00,0.0205
3201.00,0.0204
3200.00,0.0203
3199.00,0.0203
3198.00,0.0202
3197.00,0.0202
3196.00,0.0201
3195.00,0.0201
3194.00,0.0200
3193.00,0.0199
3192.00,0.0199
3191.00,0.0198
3190.00,0.0197
3189.00,0.0197
3188.00,0.0196
3187.00,0.0195
3186.00,0.0195
3185.00,0.0195
3184.00,0.0194
3183.00,0.0193
3182.00,0.0193
3181.00,0.0192
3180.00,0.0191
3179.00,0.0190
3178.00,0.0190
3177.00,0.0189
3176.00,0.0188
3175.00,0.0188
3174.00,0.0187
3173.00,0.0186
3172.00,0.0186
3171.00,0.0185
3170.00,0.0184
3169.00,0.0184
3168.00,0.0183
3167.00,0.0182
3166.00,0.0182
3165.00,0.0181
3164.00,0.0180
3163.00,0.0180
3162.00,0.0179
3161.00,0.0178
3160.00,0.0178
3159.00,0.0177
3158.00,0.0176
3157.00,0.0176
3156.00,0.0175
3155.00,0.0175
3154.00,0.0174
3153.00,0.0173
3152.00,0.0173
3151.00,0.0172
3150.00,0.0172
3149.00,0.0171
3148.00,0.0171
3147.00,0.0170
3146.00,0.0169
3145.00,0.0169
3144.00,0.0168
3143.00,0.0168
3142.00,0.0167
3141.00,0.0167
3140.00,0.0166
3139.00,0.0166
3138.00,0.0165
3137.00,0.0165
3136.00,0.0165
3135.00,0.0164
3134.00,0.0164
3133.00,0.0163
3132.00,0.0163
3131.00,0.0162
3130.00,0.0162
3129.00,0.0162
3128.00,0.0161
3127.00,0.0161
3126.00,0.0161
3125.00,0.0160
3124.00,0.0160
3123.00,0.0159
3122.00,0.0159
3121.00,0.0159
3120.00,0.0158
3119.00,0.0158
3118.00,0.0158
3117.00,0.0158
3116.00,0.0158
3115.00,0.0157
3114.00,0.0157
3113.00,0.0157
3112.00,0.0157
3111.00,0.0157
3110.00,0.0157
3109.00,0.0157
3108.00,0.0156
3107.00,0.0156
3106.00,0.0156
3105.00,0.0156
3104.00,0.0156
3103.00,0.0156
3102.00,0.0156
3101.00,0.0156
3100.00,0.0156
3099.00,0.0156
3098.00,0.0156
3097.00,0.0156
3096.00,0.0156
3095.00,0.0156
3094.00,0.0156
3093.00,0.0156
3092.00,0.0156
3091.00,0.0156
3090.00,0.0156
3089.00,0.0156
3088.00,0.0156
3087.00,0.0156
3086.00,0.0156
3085.00,0.0156
3084.00,0.0156
3083.00,0.0156
3082.00,0.0156
3081.00,0.0156
3080.00,0.0156
3079.00,0.0156
3078.00,0.0156
3077.00,0.0156
3076.00,0.0157
3075.00,0.0157
3074.00,0.0157
3073.00,0.0157
3072.00,0.0156
3071.00,0.0156
3070.00,0.0156
3069.00,0.0156
3068.00,0.0156
3067.00,0.0156
3066.00,0.0156
3065.00,0.0155
3064.00,0.0155
3063.00,0.0155
3062.00,0.0155
3061.00,0.0155
3060.00,0.0155
3059.00,0.0154
3058.00,0.0154
3057.00,0.0154
3056.00,0.0153
3055.00,0.0153
3054.00,0.0153
3053.00,0.0152
3052.00,0.0152
3051.00,0.0152
3050.00,0.0151
3049.00,0.0151
3048.00,0.0151
3047.00,0.0150
3046.00,0.0149
3045.00,0.0149
3044.00,0.0148
3043.00,0.0148
3042.00,0.0147
3041.00,0.0147
3040.00,0.0147
3039.00,0.0147
3038.00,0.0146
3037.00,0.0146
3036.00,0.0145
3035.00,0.0145
3034.00,0.0144
3033.00,0.0144
3032.00,0.0144
3031.00,0.0143
3030.00,0.0143
3029.00,0.0143
3028.00,0.0143
3027.00,0.0142
3026.00,0.0142
3025.00,0.0141
3024.00,0.0141
3023.00,0.0140
3022.00,0.0140
3021.00,0.0140
3020.00,0.0139
3019.00,0.0139
3018.00,0.0138
3017.00,0.0137
3016.00,0.0137
3015.00,0.0136
3014.00,0.0136
3013.00,0.0136
3012.00,0.0136
3011.00,0.0136
3010.00,0.0136
3009.00,0.0136
3008.00,0.0136
3007.00,0.0136
3006.00,0.0135
3005.00,0.0135
3004.00,0.0135
3003.00,0.0135
3002.00,0.0135
3001.00,0.0135
3000.00,0.0134
2999.00,0.0134
2998.00,0.0134
2997.00,0.0134
2996.00,0.0135
2995.00,0.0135
2994.00,0.0135
2993.00,0.0135
2992.00,0.0136
2991.00,0.0136
2990.00,0.0136
2989.00,0.0137
2988.00,0.0137
2987.00,0.0138
2986.00,0.0138
2985.00,0.0138
2984.00,0.0139
2983.00,0.0139
2982.00,0.0140
2981.00,0.0140
2980.00,0.0140
2979.00,0.0141
2978.00,0.0141
2977.00,0.0141
2976.00,0.0142
2975.00,0.0142
2974.00,0.0142
2973.00,0.0143
2972.00,0.0143
2971.00,0.0143
2970.00,0.0143
2969.00,0.0143
2968.00,0.0143
2967.00,0.0143
2966.00,0.0143
2965.00,0.0143
2964.00,0.0143
2963.00,0.0143
2962.00,0.0143
2961.00,0.0142
2960.00,0.0142
2959.00,0.0142
2958.00,0.0142
2957.00,0.0142
2956.00,0.0141
2955.00,0.0141
2954.00,0.0141
2953.00,0.0141
2952.00,0.0141
2951.00,0.0141
2950.00,0.0141
2949.00,0.0141
2948.00,0.0141
2947.00,0.0141
2946.00,0.0141
2945.00,0.0141
2944.00,0.0142
2943.00,0.0142
2942.00,0.0142
2941.00,0.0143
2940.00,0.0143
2939.00,0.0143
2938.00,0.0143
2937.00,0.0143
2936.00,0.0143
2935.00,0.0143
2934.00,0.0143
2933.00,0.0142
2932.00,0.0141
2931.00,0.0141
2930.00,0.0140
2929.00,0.0139
2928.00,0.0138
2927.00,0.0137
2926.00,0.0136
2925.00,0.0135
2924.00,0.0133
2923.00,0.0132
2922.00,0.0130
2921.00,0.0128
2920.00,0.0126
2919.00,0.0124
2918.00,0.0123
2917.00,0.0122
2916.00,0.0121
2915.00,0.0122
2914.00,0.0123
2913.00,0.0125
2912.00,0.0127
2911.00,0.0128
2910.00,0.0129
2909.00,0.0129
2908.00,0.0130
2907.00,0.0130
2906.00,0.0130
2905.00,0.0130
2904.00,0.0130
2903.00,0.0130
2902.00,0.0130
2901.00,0.0130
2900.00,0.0130
2899.00,0.0130
2898.00,0.0130
2897.00,0.0130
2896.00,0.0130
2895.00,0.0130
2894.00,0.0130
2893.00,0.0130
2892.00,0.0130
2891.00,0.0130
2890.00,0.0130
2889.00,0.0130
2888.00,0.0130
2887.00,0.0131
2886.00,0.0131
2885.00,0.0131
2884.00,0.0132
2883.00,0.0132
2882.00,0.0132
2881.00,0.0132
2880.00,0.0132
2879.00,0.0133
2878.00,0.0133
2877.00,0.0133
2876.00,0.0133
2875.00,0.0133
2874.00,0.0133
2873.00,0.0133
2872.00,0.0132
2871.00,0.0132
2870.00,0.0132
2869.00,0.0131
2868.00,0.0130
2867.00,0.0130
2866.00,0.0129
2865.00,0.0129
2864.00,0.0128
2863.00,0.0127
2862.00,0.0126
2861.00,0.0126
2860.00,0.0125
2859.00,0.0124
2858.00,0.0123
2857.00,0.0122
2856.00,0.0121
2855.00,0.0120
2854.00,0.0119
2853.00,0.0117
2852.00,0.0116
2851.00,0.0114
2850.00,0.0112
2849.00,0.0111
2848.00,0.0111
2847.00,0.0112
2846.00,0.0114
2845.00,0.0115
2844.00,0.0117
2843.00,0.0118
2842.00,0.0118
2841.00,0.0119
2840.00,0.0119
2839.00,0.0119
2838.00,0.0119
2837.00,0.0119
2836.00,0.0119
2835.00,0.0118
2834.00,0.0118
2833.00,0.0118
2832.00,0.0118
2831.00,0.0118
2830.00,0.0118
2829.00,0.0118
2828.00,0.0117
2827.00,0.0117
2826.00,0.0117
2825.00,0.0117
2824.00,0.0117
2823.00,0.0117
2822.00,0.0116
2821.00,0.0116
2820.00,0.0116
2819.00,0.0116
2818.00,0.0116
2817.00,0.0116
2816.00,0.0115
2815.00,0.0115
2814.00,0.0115
2813.00,0.0115
2812.00,0.0115
2811.00,0.0115
2810.00,0.0115
2809.00,0.0115
2808.00,0.0115
2807.00,0.0114
2806.00,0.0114
2805.00,0.0114
2804.00,0.0114
2803.00,0.0114
2802.00,0.0114
2801.00,0.0113
2800.00,0.0113
2799.00,0.0113
2798.00,0.0113
2797.00,0.0113
2796.00,0.0113
2795.00,0.0113
2794.00,0.0113
2793.00,0.0113
2792.00,0.0112
2791.00,0.0112
2790.00,0.0112
2789.00,0.0112
2788.00,0.0112
2787.00,0.0112
2786.00,0.0112
2785.00,0.0112
2784.00,0.0112
2783.00,0.0112
2782.00,0.0112
2781.00,0.0111
2780.00,0.0111
2779.00,0.0111
2778.00,0.0111
2777.00,0.0111
2776.00,0.0111
2775.00,0.0110
2774.00,0.0110
2773.00,0.0110
2772.00,0.0110
2771.00,0.0110
2770.00,0.0110
2769.00,0.0110
2768.00,0.0110
2767.00,0.0109
2766.00,0.0109
2765.00,0.0109
2764.00,0.0109
2763.00,0.0109
2762.00,0.0109
2761.00,0.0109
2760.00,0.0109
2759.00,0.0108
2758.00,0.0108
2757.00,0.0108
