CLOSED
Version	0.4
Run	866
Instrument	2950 TGA       V5.4A
Module	TGA 1000 øC
Sample	2023_07_10_Ni_calibration_1cpm
Size	14.9670	mg
Method	250C to 400C 1 cpm
Operator	SBK
Comment	2023_07_10_Ni_calibration_1cpm
Xcomment	Pan: Platinum           Gas1: Nitrogen  40          Gas2: Nitrogen  40
Text	2023_07_10_Ni_calibration_1cpm
Text	Calibration with nickel foam and magnet
Kcell	1.00000
TempCal	2	pts	158.19	152.50,	363.28	354.00
Thresholds	0.050	0.0000
Controls	Gas 1  Event Off  Sampling 2.0 sec/pt
Nsig	3
Sig1	Time (min)
Sig2	Temperature (øC)
Sig3	Weight (mg)
Date	10-Jul-23
Time	10:49
File	C:\TA\Data\TGA\Skyler\2023_07_10_Ni_calibration_1cpm.001
OrgFile	C:\TA\Data\TGA\Skyler\2023_07_10_Ni_calibration_1cpm.001
StartOfData
0.0000000	250.0392	15.01818
0.03266667	250.0470	15.01818
0.06683332	250.0590	15.01808
0.1010000	250.0780	15.01802
0.1343333	250.0977	15.01804
0.1676666	250.1188	15.01797
0.2010000	250.1425	15.01784
0.2351666	250.1668	15.01792
0.2693334	250.1903	15.01780
0.3026666	250.2180	15.01769
0.3360000	250.2446	15.01766
0.3693333	250.2716	15.01761
0.4035000	250.3010	15.01751
0.4376666	250.3300	15.01757
0.4710000	250.3578	15.01759
0.5043333	250.3874	15.01750
0.5376668	250.4177	15.01741
0.5726666	250.4499	15.01739
0.6076668	250.4803	15.01732
0.6410000	250.5108	15.01731
0.6743334	250.5423	15.01726
0.7076668	250.5735	15.01721
0.7418334	250.6049	15.01708
0.7760000	250.6410	15.01712
0.8093334	250.6738	15.01719
0.8426668	250.7054	15.01710
0.8760001	250.7386	15.01706
0.9101666	250.7694	15.01697
0.9443332	250.8040	15.01695
0.9776666	250.8364	15.01691
1.010833	250.8688	15.01677
1.044167	250.9022	15.01680
1.078334	250.9347	15.01682
1.112500	250.9700	15.01672
1.146167	251.0032	15.01669
1.179500	251.0354	15.01665
1.212834	251.0685	15.01664
1.247834	251.1026	15.01655
1.282833	251.1381	15.01650
1.316167	251.1713	15.01649
1.349500	251.2055	15.01654
1.382834	251.2360	15.01652
1.417000	251.2705	15.01639
1.451167	251.3054	15.01635
1.484500	251.3387	15.01628
1.517833	251.3722	15.01624
1.551167	251.4048	15.01616
1.585334	251.4404	15.01610
1.619500	251.4746	15.01609
1.652834	251.5062	15.01608
1.686166	251.5402	15.01597
1.719333	251.5740	15.01593
1.754334	251.6090	15.01597
1.789334	251.6432	15.01601
1.822666	251.6768	15.01604
1.856000	251.7118	15.01604
1.889334	251.7467	15.01601
1.923500	251.7808	15.01584
1.957666	251.8156	15.01570
1.991000	251.8501	15.01561
2.024333	251.8822	15.01555
2.057667	251.9138	15.01539
2.091833	251.9496	15.01538
2.126000	251.9834	15.01548
2.159333	252.0163	15.01547
2.192667	252.0493	15.01544
2.226000	252.0808	15.01534
2.260166	252.1149	15.01528
2.294333	252.1481	15.01528
2.327667	252.1815	15.01518
2.361000	252.2144	15.01509
2.394333	252.2475	15.01504
2.429334	252.2830	15.01499
2.464333	252.3170	15.01501
2.497666	252.3509	15.01491
2.531000	252.3840	15.01485
2.564334	252.4160	15.01478
2.598500	252.4500	15.01468
2.632666	252.4858	15.01479
2.666000	252.5174	15.01482
2.699334	252.5499	15.01471
2.732666	252.5830	15.01470
2.766833	252.6165	15.01468
2.801000	252.6511	15.01464
2.834334	252.6840	15.01464
2.867666	252.7182	15.01455
2.901000	252.7510	15.01453
2.935166	252.7834	15.01444
2.969334	252.8168	15.01436
3.002666	252.8496	15.01436
3.036000	252.8847	15.01430
3.069333	252.9184	15.01440
3.104334	252.9516	15.01451
3.139334	252.9858	15.01433
3.172666	253.0184	15.01421
3.206000	253.0506	15.01409
3.239334	253.0824	15.01410
3.273500	253.1178	15.01404
3.307666	253.1515	15.01400
3.341000	253.1830	15.01394
3.374333	253.2169	15.01386
3.407666	253.2503	15.01389
3.441833	253.2842	15.01390
3.476000	253.3172	15.01392
3.509334	253.3490	15.01378
3.542666	253.3829	15.01374
3.576000	253.4164	15.01374
3.610166	253.4516	15.01368
3.644333	253.4865	15.01368
3.677500	253.5180	15.01360
3.710834	253.5523	15.01350
3.744166	253.5858	15.01344
3.778333	253.6202	15.01337
3.812833	253.6556	15.01339
3.846167	253.6905	15.01334
3.879500	253.7231	15.01343
3.912833	253.7556	15.01329
3.947833	253.7908	15.01322
3.982834	253.8250	15.01314
4.016167	253.8588	15.01308
4.049500	253.8919	15.01300
4.082833	253.9260	15.01298
4.117000	253.9598	15.01294
4.151166	253.9935	15.01289
4.184500	254.0256	15.01284
4.217834	254.0585	15.01279
4.251167	254.0923	15.01278
4.285333	254.1260	15.01276
4.319500	254.1602	15.01268
4.352833	254.1930	15.01267
4.386166	254.2265	15.01267
4.419334	254.2589	15.01260
4.454334	254.2956	15.01252
4.489334	254.3300	15.01248
4.522666	254.3636	15.01238
4.556000	254.3965	15.01234
4.589334	254.4301	15.01229
4.623500	254.4658	15.01225
4.657666	254.4984	15.01226
4.691000	254.5301	15.01213
4.724333	254.5630	15.01202
4.757666	254.5972	15.01202
4.791666	254.6311	15.01204
4.825833	254.6659	15.01204
4.859500	254.6978	15.01207
4.892833	254.7316	15.01197
4.926166	254.7662	15.01195
4.960333	254.8012	15.01189
4.994333	254.8368	15.01187
5.027666	254.8698	15.01191
5.061000	254.9031	15.01186
5.094333	254.9368	15.01176
5.129334	254.9712	15.01179
5.164334	255.0061	15.01163
5.197666	255.0410	15.01171
5.231000	255.0730	15.01173
5.264334	255.1055	15.01173
5.298500	255.1395	15.01170
5.332500	255.1729	15.01162
5.365832	255.2055	15.01153
5.399500	255.2384	15.01142
5.432832	255.2716	15.01137
5.467000	255.3060	15.01134
5.501168	255.3384	15.01136
5.534332	255.3714	15.01130
5.567666	255.4052	15.01130
5.601000	255.4370	15.01123
5.635166	255.4725	15.01112
5.669334	255.5051	15.01113
5.702666	255.5404	15.01100
5.736000	255.5733	15.01106
5.769334	255.6082	15.01104
5.803500	255.6424	15.01113
5.837666	255.6746	15.01099
5.871000	255.7073	15.01087
5.904168	255.7400	15.01086
5.937500	255.7722	15.01082
5.972832	255.8080	15.01075
6.007832	255.8422	15.01064
6.041168	255.8758	15.01061
6.074500	255.9080	15.01059
6.107666	255.9422	15.01055
6.141834	255.9766	15.01056
6.176000	256.0096	15.01049
6.209334	256.0424	15.01037
6.242666	256.0746	15.01034
6.276000	256.1090	15.01024
6.310168	256.1440	15.01025
6.344334	256.1783	15.01028
6.377666	256.2108	15.01020
6.411000	256.2441	15.01016
6.444166	256.2781	15.01008
6.478332	256.3106	15.01003
6.512832	256.3450	15.00988
6.546168	256.3792	15.00989
6.579500	256.4118	15.00995
6.612832	256.4468	15.00994
6.647666	256.4793	15.01005
6.682666	256.5134	15.00991
6.716000	256.5466	15.00983
6.749334	256.5812	15.00980
6.782666	256.6134	15.00981
6.816000	256.6473	15.00978
6.849334	256.6805	15.00971
6.882666	256.7148	15.00969
6.916000	256.7483	15.00970
6.949168	256.7808	15.00966
6.982500	256.8142	15.00961
7.015832	256.8478	15.00957
7.049500	256.8814	15.00944
7.082832	256.9148	15.00938
7.116168	256.9483	15.00940
7.149500	256.9811	15.00939
7.182832	257.0158	15.00928
7.216000	257.0496	15.00923
7.249334	257.0819	15.00919
7.282666	257.1150	15.00916
7.316000	257.1477	15.00912
7.349334	257.1814	15.00906
7.382666	257.2148	15.00901
7.416000	257.2470	15.00901
7.449334	257.2810	15.00894
7.482666	257.3152	15.00889
7.516000	257.3485	15.00886
7.549334	257.3832	15.00886
7.582666	257.4156	15.00889
7.615832	257.4502	15.00872
7.649168	257.4839	15.00862
7.682832	257.5172	15.00872
7.716168	257.5490	15.00858
7.749500	257.5838	15.00836
7.782832	257.6168	15.00842
7.816168	257.6496	15.00843
7.849334	257.6824	15.00838
7.882666	257.7165	15.00839
7.916000	257.7482	15.00838
7.949334	257.7811	15.00824
7.982666	257.8148	15.00822
8.016000	257.8484	15.00821
8.049334	257.8825	15.00813
8.082666	257.9153	15.00808
8.116000	257.9465	15.00806
8.149334	257.9816	15.00813
8.182666	258.0140	15.00813
8.215834	258.0480	15.00790
8.249168	258.0811	15.00792
8.282500	258.1150	15.00796
8.316168	258.1489	15.00791
8.349500	258.1820	15.00785
8.382834	258.2150	15.00786
8.416168	258.2486	15.00785
8.449500	258.2809	15.00780
8.482832	258.3140	15.00773
8.516168	258.3467	15.00762
8.549334	258.3816	15.00763
8.582666	258.4143	15.00766
8.616000	258.4475	15.00762
8.649334	258.4806	15.00758
8.682668	258.5146	15.00751
8.716000	258.5470	15.00746
8.749334	258.5796	15.00743
8.782666	258.6118	15.00739
8.816000	258.6462	15.00729
8.849334	258.6794	15.00724
8.882668	258.7116	15.00721
8.916000	258.7436	15.00708
8.949334	258.7778	15.00702
8.982668	258.8098	15.00706
9.016000	258.8430	15.00698
9.049334	258.8760	15.00698
9.082666	258.9099	15.00697
9.116000	258.9442	15.00696
9.149334	258.9754	15.00689
9.182668	259.0098	15.00684
9.216000	259.0437	15.00682
9.249334	259.0762	15.00678
9.282666	259.1103	15.00676
9.316000	259.1445	15.00669
9.350166	259.1780	15.00664
9.384334	259.2127	15.00659
9.417499	259.2453	15.00654
9.450832	259.2785	15.00654
9.484168	259.3123	15.00644
9.518666	259.3484	15.00636
9.552832	259.3827	15.00635
9.586166	259.4139	15.00631
9.619500	259.4484	15.00626
9.652832	259.4827	15.00622
9.687834	259.5190	15.00627
9.722832	259.5532	15.00622
9.756166	259.5850	15.00599
9.789501	259.6190	15.00604
9.822832	259.6520	15.00603
9.856834	259.6856	15.00596
9.891000	259.7195	15.00591
9.924334	259.7529	15.00582
9.957666	259.7871	15.00582
9.991000	259.8190	15.00582
10.02517	259.8552	15.00576
10.05933	259.8880	15.00568
10.09267	259.9206	15.00565
10.12600	259.9535	15.00560
10.15933	259.9860	15.00555
10.19350	260.0218	15.00549
10.22767	260.0554	15.00555
10.26100	260.0882	15.00548
10.29433	260.1196	15.00542
10.32767	260.1531	15.00511
10.36183	260.1930	15.00530
10.39600	260.2248	15.00564
10.42933	260.2574	15.00541
10.46267	260.2914	15.00527
10.49600	260.3244	15.00524
10.53100	260.3594	15.00514
10.56600	260.3943	15.00507
10.59934	260.4274	15.00500
10.63267	260.4622	15.00501
10.66600	260.4952	15.00506
10.70016	260.5295	15.00494
10.73434	260.5611	15.00494
10.76766	260.5947	15.00477
10.80100	260.6280	15.00482
10.83434	260.6619	15.00482
10.86850	260.6948	15.00478
10.90267	260.7297	15.00474
10.93600	260.7633	15.00474
10.96934	260.7953	15.00475
11.00266	260.8283	15.00464
11.03766	260.8636	15.00454
11.07267	260.8983	15.00451
11.10600	260.9315	15.00438
11.13934	260.9670	15.00442
11.17267	260.9999	15.00441
11.20684	261.0342	15.00439
11.24100	261.0673	15.00441
11.27434	261.1000	15.00430
11.30767	261.1336	15.00426
11.34100	261.1668	15.00419
11.37517	261.2023	15.00417
11.40934	261.2358	15.00412
11.44266	261.2684	15.00404
11.47600	261.3032	15.00404
11.50934	261.3348	15.00407
11.54350	261.3683	15.00399
11.57766	261.4037	15.00395
11.61100	261.4366	15.00402
11.64434	261.4697	15.00398
11.67766	261.5032	15.00394
11.71266	261.5402	15.00397
11.74766	261.5730	15.00388
11.78100	261.6058	15.00385
11.81433	261.6408	15.00383
11.84767	261.6762	15.00388
11.88184	261.7120	15.00376
11.91600	261.7461	15.00371
11.94934	261.7789	15.00367
11.98267	261.8131	15.00354
12.01600	261.8466	15.00360
12.05017	261.8798	15.00354
12.08434	261.9147	15.00339
12.11766	261.9480	15.00344
12.15083	261.9812	15.00339
12.18416	262.0141	15.00336
12.21834	262.0485	15.00334
12.25250	262.0834	15.00332
12.28617	262.1171	15.00329
12.31950	262.1491	15.00319
12.35283	262.1827	15.00308
12.38700	262.2170	15.00324
12.42116	262.2524	15.00322
12.45450	262.2851	15.00318
12.48783	262.3186	15.00311
12.52117	262.3523	15.00302
12.55617	262.3872	15.00295
12.59100	262.4217	15.00292
12.62434	262.4539	15.00288
12.65766	262.4871	15.00288
12.69100	262.5202	15.00283
12.72516	262.5534	15.00272
12.75934	262.5884	15.00263
12.79266	262.6213	15.00264
12.82600	262.6542	15.00260
12.85933	262.6880	15.00255
12.89350	262.7225	15.00256
12.92767	262.7572	15.00258
12.96084	262.7908	15.00256
12.99416	262.8252	15.00244
13.02783	262.8577	15.00240
13.06284	262.8934	15.00230
13.09783	262.9284	15.00225
13.13116	262.9622	15.00232
13.16434	262.9949	15.00231
13.19767	263.0286	15.00227
13.23184	263.0617	15.00219
13.26600	263.0960	15.00213
13.29934	263.1304	15.00214
13.33266	263.1616	15.00211
13.36600	263.1940	15.00206
13.40016	263.2296	15.00202
13.43433	263.2639	15.00199
13.46750	263.2964	15.00205
13.50083	263.3276	15.00192
13.53450	263.3613	15.00180
13.56866	263.3958	15.00184
13.60283	263.4310	15.00181
13.63617	263.4644	15.00182
13.66950	263.4959	15.00173
13.70266	263.5293	15.00162
13.73767	263.5642	15.00163
13.77267	263.5994	15.00161
13.80600	263.6321	15.00163
13.83934	263.6647	15.00158
13.87267	263.6986	15.00153
13.90684	263.7316	15.00149
13.94100	263.7656	15.00146
13.97434	263.8004	15.00151
14.00766	263.8339	15.00155
14.04100	263.8674	15.00146
14.07516	263.9012	15.00143
14.10933	263.9364	15.00139
14.14250	263.9680	15.00136
14.17583	264.0008	15.00128
14.20916	264.0342	15.00123
14.24366	264.0694	15.00126
14.27783	264.1042	15.00125
14.31117	264.1364	15.00121
14.34450	264.1685	15.00111
14.37783	264.2032	15.00109
14.41283	264.2401	15.00116
14.44783	264.2759	15.00119
14.48100	264.3080	15.00120
14.51434	264.3425	15.00114
14.54767	264.3754	15.00118
14.58184	264.4090	15.00111
14.61600	264.4432	15.00112
14.64934	264.4750	15.00104
14.68266	264.5082	15.00085
14.71600	264.5408	15.00072
14.75016	264.5786	15.00072
14.78434	264.6142	15.00092
14.81766	264.6472	15.00100
14.85100	264.6783	15.00081
14.88434	264.7110	15.00058
14.91850	264.7460	15.00060
14.95266	264.7792	15.00068
14.98600	264.8124	15.00068
15.01934	264.8456	15.00067
15.05267	264.8780	15.00058
15.08684	264.9126	15.00052
15.12100	264.9468	15.00056
15.15434	264.9785	15.00058
15.18766	265.0129	15.00054
15.22100	265.0447	15.00056
15.25434	265.0811	15.00038
15.28766	265.1136	15.00049
15.32100	265.1484	15.00057
15.35434	265.1798	15.00062
15.38766	265.2130	15.00044
15.42100	265.2436	15.00032
15.45434	265.2830	15.00023
15.48767	265.3135	15.00059
15.52100	265.3537	15.00044
15.55417	265.3746	15.00060
15.58750	265.4130	15.00022
15.62117	265.4451	15.00024
15.65450	265.4770	15.00013
15.68784	265.5126	15.00008
15.72117	265.5460	15.00014
15.75450	265.5796	15.00016
15.78783	265.6142	15.00023
15.82100	265.6453	15.00017
15.85434	265.6799	15.00009
15.88766	265.7131	15.00004
15.92100	265.7460	15.00000
15.95434	265.7802	14.99999
15.98767	265.8130	15.00001
16.02100	265.8459	14.99999
16.05434	265.8796	14.99996
16.08767	265.9127	14.99998
16.12100	265.9459	14.99993
16.15434	265.9784	14.99990
16.18766	266.0116	14.99980
16.22083	266.0445	14.99982
16.25417	266.0782	14.99981
16.28784	266.1122	14.99982
16.32117	266.1460	14.99983
16.35450	266.1795	14.99979
16.38783	266.2122	14.99971
16.42117	266.2456	14.99971
16.45450	266.2793	14.99971
16.48767	266.3133	14.99966
16.52100	266.3463	14.99969
16.55434	266.3794	14.99966
16.58767	266.4126	14.99960
16.62100	266.4453	14.99952
16.65434	266.4817	14.99954
16.68766	266.5150	14.99967
16.72100	266.5470	14.99962
16.75434	266.5798	14.99960
16.78766	266.6136	14.99961
16.82100	266.6470	14.99960
16.85434	266.6816	14.99966
16.88750	266.7146	14.99967
16.92084	266.7506	14.99956
16.95416	266.7846	14.99962
16.98783	266.8186	14.99964
17.02116	266.8516	14.99954
17.05450	266.8832	14.99944
17.08783	266.9174	14.99938
17.12117	266.9502	14.99941
17.15450	266.9826	14.99941
17.18784	267.0156	14.99934
17.22117	267.0490	14.99927
17.25450	267.0770	14.99932
17.28784	267.1191	14.99916
17.32117	267.1498	14.99955
17.35450	267.1876	14.99956
17.38766	267.2116	14.99969
17.42100	267.2505	14.99929
17.45434	267.2812	14.99935
17.48767	267.3132	14.99927
17.52100	267.3478	14.99916
17.55434	267.3814	14.99920
17.58767	267.4155	14.99917
17.62100	267.4490	14.99912
17.65434	267.4822	14.99909
17.68766	267.5148	14.99907
17.72100	267.5487	14.99903
17.75434	267.5825	14.99902
17.78850	267.6161	14.99907
17.82266	267.6504	14.99911
17.85600	267.6848	14.99914
17.88934	267.7179	14.99913
17.92267	267.7510	14.99915
17.95684	267.7844	14.99912
17.99100	267.8186	14.99909
18.02434	267.8522	14.99910
18.05766	267.8851	14.99908
18.09100	267.9186	14.99903
18.12516	267.9520	14.99902
18.15916	267.9859	14.99897
18.19250	268.0200	14.99888
18.22583	268.0538	14.99893
18.25917	268.0860	14.99896
18.29334	268.1211	14.99899
18.32750	268.1553	14.99903
18.36084	268.1882	14.99896
18.39450	268.2217	14.99891
18.42784	268.2545	14.99890
18.46200	268.2879	14.99885
18.49617	268.3222	14.99882
18.52950	268.3553	14.99886
18.56284	268.3894	14.99895
18.59617	268.4214	14.99891
18.63100	268.4559	14.99886
18.66600	268.4908	14.99881
18.69934	268.5244	14.99880
18.73266	268.5571	14.99872
18.76600	268.5900	14.99869
18.80017	268.6252	14.99870
18.83434	268.6596	14.99879
18.86766	268.6938	14.99881
18.90100	268.7270	14.99880
18.93434	268.7614	14.99871
18.96850	268.7975	14.99872
19.00267	268.8326	14.99867
19.03600	268.8660	14.99860
19.06934	268.9004	14.99862
19.10267	268.9332	14.99858
19.13600	268.9660	14.99857
19.16916	268.9996	14.99858
19.20250	269.0320	14.99855
19.23617	269.0672	14.99854
19.26950	269.1004	14.99860
19.30284	269.1336	14.99866
19.33617	269.1662	14.99861
19.36950	269.1998	14.99854
19.40284	269.2324	14.99848
19.43617	269.2661	14.99852
19.46950	269.2983	14.99856
19.50267	269.3299	14.99853
19.53600	269.3646	14.99846
19.56934	269.3982	14.99846
19.60267	269.4308	14.99848
19.63600	269.4648	14.99849
19.66934	269.4983	14.99847
19.70267	269.5327	14.99839
19.73600	269.5652	14.99833
19.76934	269.5982	14.99828
19.80266	269.6317	14.99827
19.83600	269.6650	14.99827
19.86934	269.6980	14.99829
19.90266	269.7319	14.99830
19.93600	269.7639	14.99828
19.96934	269.7984	14.99830
20.00267	269.8305	14.99830
20.03600	269.8641	14.99823
20.06934	269.8982	14.99821
20.10250	269.9307	14.99821
20.13584	269.9635	14.99822
20.16950	269.9970	14.99823
20.20284	270.0295	14.99824
20.23617	270.0647	14.99819
20.26950	270.0974	14.99824
20.30284	270.1290	14.99828
20.33600	270.1612	14.99820
20.36934	270.1970	14.99814
20.40266	270.2295	14.99825
20.43600	270.2624	14.99819
20.46934	270.2953	14.99823
20.50266	270.3281	14.99814
20.53600	270.3615	14.99802
20.56934	270.3940	14.99804
20.60266	270.4272	14.99807
20.63600	270.4608	14.99806
20.66934	270.4960	14.99801
20.70266	270.5283	14.99806
20.73600	270.5625	14.99807
20.76934	270.5942	14.99806
20.80250	270.6265	14.99804
20.83583	270.6601	14.99802
20.86917	270.6937	14.99800
20.90284	270.7272	14.99792
20.93617	270.7592	14.99787
20.96950	270.7938	14.99790
21.00283	270.8266	14.99796
21.03617	270.8601	14.99791
21.06950	270.8937	14.99790
21.10283	270.9270	14.99794
21.13617	270.9610	14.99796
21.16934	270.9940	14.99789
21.20266	271.0251	14.99785
21.23600	271.0615	14.99780
21.26934	271.0952	14.99781
21.30266	271.1282	14.99789
21.33600	271.1618	14.99789
21.36934	271.1928	14.99794
21.40266	271.2270	14.99780
21.43600	271.2624	14.99786
21.46934	271.2956	14.99793
21.50266	271.3283	14.99798
21.53600	271.3604	14.99783
21.56917	271.3920	14.99770
21.60250	271.4262	14.99748
21.63617	271.4594	14.99755
21.66950	271.4950	14.99762
21.70284	271.5278	14.99785
21.73617	271.5598	14.99776
21.76950	271.5935	14.99774
21.80284	271.6260	14.99778
21.83767	271.6609	14.99774
21.87266	271.6962	14.99765
21.90600	271.7302	14.99772
21.93934	271.7630	14.99774
21.97266	271.7954	14.99767
22.00684	271.8295	14.99754
22.04100	271.8662	14.99765
22.07434	271.8991	14.99772
22.10766	271.9345	14.99782
22.14083	271.9675	14.99808
22.17500	271.9990	14.99793
22.20950	272.0371	14.99774
22.24284	272.0707	14.99766
22.27617	272.1043	14.99764
22.30934	272.1373	14.99770
22.34350	272.1709	14.99763
22.37766	272.2041	14.99758
22.41100	272.2376	14.99756
22.44434	272.2711	14.99759
22.47766	272.3045	14.99760
22.51184	272.3390	14.99763
22.54600	272.3730	14.99763
22.57934	272.4065	14.99760
22.61267	272.4392	14.99759
22.64584	272.4730	14.99756
22.68083	272.5088	14.99755
22.71584	272.5432	14.99755
22.74950	272.5755	14.99758
22.78284	272.6099	14.99758
22.81616	272.6442	14.99759
22.85034	272.6777	14.99756
22.88450	272.7121	14.99755
22.91766	272.7452	14.99760
22.95100	272.7775	14.99763
22.98433	272.8115	14.99757
23.01850	272.8462	14.99757
