CLOSED
Version	0.4
Run	873
Instrument	2950 TGA       V5.4A
Module	TGA 1000 øC
Sample	2023_07_12_CBD_powder_1cpm
Size	6.56300	mg
Method	50C to 300C at 1 cpm
Operator	SBK
Comment	2023_07_12_CBD_powder_1cpm
Xcomment	Pan: Platinum           Gas1: Nitrogen  40          Gas2: Nitrogen  40
Text	2023_07_12_CBD_powder_1cpm
Text	First run with CBD powder after new calib
Kcell	1.00000
TempCal	2	pts	156.68	152.50,	376.53	354.00
Thresholds	0.050	0.0000
Controls	Gas 1  Event Off  Sampling 2.0 sec/pt
Nsig	3
Sig1	Time (min)
Sig2	Temperature (øC)
Sig3	Weight (mg)
Date	12-Jul-23
Time	11:54
File	C:\TA\Data\TGA\Skyler\2023_07_12_CBD_powder_1cpm.001
OrgFile	C:\TA\Data\TGA\Skyler\2023_07_12_CBD_powder_1cpm.001
StartOfData
0.0000000	50.09705	6.554302
0.03283334	50.09874	6.554280
0.06616668	50.10364	6.554200
0.09950000	50.11250	6.554172
0.1328334	50.12196	6.554221
0.1661667	50.13380	6.554236
0.1995000	50.14729	6.554253
0.2328333	50.16363	6.554222
0.2661666	50.18122	6.554238
0.2995000	50.19950	6.554238
0.3328333	50.21804	6.554268
0.3661667	50.23816	6.554298
0.3995000	50.25868	6.554272
0.4328333	50.28041	6.554262
0.4661667	50.30390	6.554243
0.4991667	50.32609	6.554199
0.5325000	50.35131	6.554181
0.5658332	50.37656	6.554168
0.5991668	50.40220	6.554144
0.6325000	50.43058	6.554132
0.6658334	50.45870	6.554125
0.6991668	50.48789	6.554111
0.7325000	50.51524	6.554053
0.7658334	50.54441	6.553978
0.7995000	50.57460	6.553909
0.8328334	50.60510	6.553866
0.8661668	50.63596	6.553874
0.8995000	50.66668	6.553862
0.9328332	50.69766	6.553816
0.9661668	50.72990	6.553801
0.9995000	50.76244	6.553780
1.032833	50.79503	6.553702
1.066167	50.82791	6.553701
1.099500	50.86049	6.553712
1.132834	50.89492	6.553735
1.166167	50.92727	6.553716
1.199500	50.96119	6.553658
1.232834	50.99481	6.553661
1.266167	51.02590	6.553671
1.299500	51.05911	6.553624
1.332833	51.09368	6.553549
1.366167	51.12842	6.553594
1.399500	51.16296	6.553638
1.432833	51.19774	6.553634
1.466166	51.23410	6.553565
1.499500	51.26746	6.553626
1.532833	51.30020	6.553657
1.566167	51.33531	6.553547
1.599500	51.37016	6.553521
1.632833	51.40420	6.553549
1.666167	51.43801	6.553588
1.699500	51.47266	6.553565
1.732834	51.50609	6.553558
1.766167	51.53942	6.553538
1.799500	51.57234	6.553512
1.832833	51.60641	6.553505
1.866167	51.64044	6.553490
1.899500	51.67402	6.553428
1.932833	51.70634	6.553412
1.966167	51.73848	6.553406
1.999500	51.77176	6.553435
2.032833	51.80612	6.553360
2.066167	51.84044	6.553332
2.099333	51.87302	6.553350
2.132666	51.90429	6.553387
2.166000	51.93612	6.553360
2.199333	51.96704	6.553250
2.232667	52.00058	6.553188
2.266000	52.03306	6.553181
2.299333	52.06654	6.553213
2.332666	52.09892	6.553210
2.366000	52.13144	6.553175
2.399333	52.16266	6.553193
2.432667	52.19510	6.553195
2.466000	52.22642	6.553174
2.499333	52.25987	6.553228
2.532667	52.29394	6.553196
2.566000	52.32736	6.553223
2.600333	52.36172	6.553218
2.634500	52.39567	6.553168
2.667833	52.42846	6.553110
2.701166	52.46180	6.553120
2.734500	52.49500	6.553110
2.767833	52.52932	6.553144
2.800833	52.56250	6.553172
2.834167	52.59625	6.553168
2.867666	52.62916	6.553150
2.901000	52.66088	6.553113
2.935166	52.69458	6.553108
2.969334	52.72653	6.553082
3.002666	52.75990	6.552972
3.036000	52.79317	6.553008
3.069333	52.82642	6.553021
3.103500	52.85984	6.553046
3.137666	52.89342	6.553037
3.171000	52.92639	6.552942
3.204334	52.95908	6.552936
3.237666	52.99220	6.552930
3.272666	53.02802	6.552918
3.307666	53.06231	6.552926
3.341000	53.09611	6.552981
3.374333	53.12906	6.552976
3.407666	53.16260	6.552984
3.441833	53.19462	6.552989
3.476000	53.22558	6.552954
3.509334	53.25690	6.552957
3.542666	53.28796	6.552953
3.576000	53.31919	6.552942
3.609334	53.35084	6.552898
3.642666	53.38226	6.552848
3.676000	53.41307	6.552810
3.709334	53.44710	6.552836
3.742666	53.48069	6.552851
3.776834	53.51576	6.552838
3.811000	53.55078	6.552837
3.844333	53.58355	6.552840
3.877667	53.61662	6.552859
3.911000	53.65043	6.552843
3.945166	53.68542	6.552826
3.979334	53.71892	6.552807
4.012666	53.75088	6.552731
4.046000	53.78300	6.552729
4.079334	53.81602	6.552774
4.113500	53.84887	6.552729
4.147666	53.88384	6.552705
4.181000	53.91692	6.552734
4.214334	53.95051	6.552746
4.247667	53.98398	6.552682
4.282666	54.01996	6.552638
4.317666	54.05546	6.552660
4.351000	54.08910	6.552698
4.384333	54.12312	6.552666
4.417666	54.15678	6.552650
4.451834	54.19093	6.552639
4.486000	54.22512	6.552624
4.519333	54.25880	6.552609
4.552666	54.29260	6.552608
4.586000	54.32550	6.552570
4.619333	54.35795	6.552603
4.652666	54.39082	6.552621
4.686000	54.42412	6.552612
4.719333	54.45765	6.552662
4.752666	54.49277	6.552664
4.785834	54.52654	6.552720
4.819166	54.55997	6.552735
4.852500	54.59476	6.552714
4.885834	54.63101	6.552713
4.919166	54.66586	6.552690
4.952500	54.70126	6.552700
4.985833	54.73528	6.552664
5.019166	54.77055	6.552650
5.052500	54.80622	6.552612
5.085834	54.84140	6.552630
5.119167	54.87563	6.552616
5.152500	54.91040	6.552634
5.186000	54.94504	6.552608
5.219334	54.97870	6.552580
5.252666	55.01130	6.552572
5.286000	55.04354	6.552536
5.319334	55.07520	6.552505
5.352666	55.10918	6.552495
5.386000	55.14380	6.552495
5.419334	55.17959	6.552484
5.452666	55.21252	6.552447
5.486000	55.24537	6.552432
5.519334	55.27984	6.552377
5.552666	55.31240	6.552300
5.586000	55.34664	6.552312
5.619334	55.37950	6.552350
5.652500	55.41359	6.552329
5.685832	55.44727	6.552339
5.719166	55.47912	6.552316
5.752500	55.51232	6.552280
5.786168	55.54590	6.552348
5.819500	55.57841	6.552331
5.852832	55.61188	6.552320
5.886166	55.64399	6.552282
5.919500	55.67707	6.552266
5.952832	55.70890	6.552241
5.986166	55.74099	6.552200
6.019500	55.77276	6.552231
6.052832	55.80500	6.552257
6.086168	55.83858	6.552185
6.119500	55.86922	6.552222
6.152832	55.90193	6.552228
6.186168	55.93334	6.552208
6.219500	55.96674	6.552271
6.252832	55.99990	6.552264
6.286168	56.03324	6.552192
6.319500	56.06608	6.552180
6.352832	56.09887	6.552192
6.386166	56.13152	6.552192
6.419500	56.16416	6.552208
6.452832	56.19701	6.552271
6.486166	56.22980	6.552256
6.519500	56.26314	6.552194
6.552832	56.29632	6.552210
6.586168	56.32985	6.552185
6.619332	56.36300	6.552201
6.652666	56.39581	6.552158
6.686000	56.42992	6.552136
6.719332	56.46308	6.552079
6.752666	56.49618	6.552062
6.786000	56.52924	6.552110
6.819334	56.56222	6.552121
6.852668	56.59568	6.552092
6.886000	56.62865	6.552058
6.919334	56.66330	6.552039
6.952666	56.69738	6.552030
6.986000	56.72949	6.552032
7.019334	56.76201	6.552041
7.052666	56.79724	6.552000
7.086168	56.83068	6.551982
7.119500	56.86429	6.551985
7.152832	56.89747	6.551938
7.186166	56.93032	6.552031
7.219500	56.96460	6.552014
7.252832	56.99766	6.552020
7.286166	57.03114	6.552071
7.319500	57.06363	6.552080
7.352832	57.09832	6.552100
7.385832	57.13301	6.552100
7.419166	57.16645	6.552047
7.452500	57.19928	6.552020
7.485832	57.23157	6.551962
7.519166	57.26426	6.551903
7.552500	57.29885	6.551754
7.585834	57.33196	6.551744
7.619166	57.36526	6.551865
7.652500	57.39912	6.551875
7.685834	57.43360	6.551771
7.719166	57.46770	6.551753
7.752500	57.50139	6.551698
7.785834	57.53618	6.551742
7.819166	57.56920	6.551793
7.852500	57.60266	6.551846
7.885832	57.63637	6.551780
7.919166	57.66920	6.551794
7.952500	57.70348	6.551740
7.986668	57.73809	6.551660
8.021000	57.77240	6.551750
8.054334	57.80618	6.551795
8.087666	57.84018	6.551782
8.121000	57.87344	6.551826
8.155166	57.90700	6.551772
8.189332	57.93985	6.551650
8.222668	57.97356	6.551670
8.256000	58.00634	6.551684
8.289334	58.03943	6.551650
8.324334	58.07324	6.551747
8.359332	58.10837	6.551744
8.392668	58.14230	6.551728
8.426000	58.17747	6.551718
8.459334	58.21352	6.551610
8.493500	58.24808	6.551630
8.527668	58.28349	6.551650
8.561000	58.31694	6.551614
8.594334	58.35024	6.551575
8.627668	58.38287	6.551604
8.661834	58.41750	6.551615
8.696000	58.45222	6.551563
8.729332	58.48662	6.551593
8.762666	58.52166	6.551606
8.795999	58.55632	6.551600
8.830168	58.59020	6.551618
8.864334	58.62441	6.551597
8.897668	58.65769	6.551582
8.931000	58.69000	6.551548
8.964334	58.72366	6.551520
8.999334	58.75839	6.551451
9.034332	58.79345	6.551394
9.067668	58.82727	6.551433
9.101000	58.86184	6.551424
9.134334	58.89382	6.551400
9.167668	58.92649	6.551436
9.201000	58.96022	6.551450
9.234332	58.99488	6.551421
9.267668	59.02844	6.551431
9.301000	59.06096	6.551407
9.335168	59.09240	6.551443
9.369332	59.12463	6.551438
9.402668	59.15787	6.551372
9.436166	59.19200	6.551404
9.469500	59.22504	6.551464
9.503668	59.25844	6.551492
9.537832	59.29203	6.551446
9.571168	59.32426	6.551444
9.604500	59.35498	6.551368
9.637832	59.38626	6.551314
9.672000	59.41746	6.551324
9.705834	59.44985	6.551284
9.739166	59.48223	6.551274
9.772500	59.51422	6.551279
9.805832	59.54775	6.551245
9.839334	59.58176	6.551190
9.872666	59.61516	6.551228
9.906000	59.64838	6.551287
9.939332	59.68200	6.551262
9.972668	59.71450	6.551291
10.00600	59.74714	6.551277
10.03933	59.78198	6.551230
10.07267	59.81558	6.551238
10.10600	59.84995	6.551309
10.13933	59.88390	6.551274
10.17267	59.91700	6.551274
10.20600	59.95222	6.551230
10.23933	59.98671	6.551162
10.27267	60.01984	6.551101
10.30600	60.05276	6.551135
10.33933	60.08640	6.551154
10.37267	60.11994	6.551120
10.40600	60.15361	6.551137
10.43933	60.18764	6.551120
10.47267	60.22306	6.551130
10.50600	60.25642	6.551096
10.53934	60.28964	6.551038
10.57267	60.32264	6.551010
10.60600	60.35764	6.551019
10.63934	60.39096	6.551062
10.67267	60.42421	6.551128
10.70600	60.45611	6.551099
10.73934	60.48845	6.551079
10.77267	60.51976	6.551114
10.80600	60.55341	6.551104
10.83934	60.58709	6.551100
10.87266	60.62056	6.551098
10.90600	60.65442	6.551049
10.93933	60.68706	6.551041
10.97267	60.71826	6.551002
11.00600	60.75064	6.550910
11.03934	60.78428	6.550868
11.07267	60.81586	6.550900
11.10617	60.84894	6.550910
11.13950	60.88129	6.550904
11.17283	60.91379	6.550863
11.20616	60.94618	6.550848
11.23950	60.97882	6.550850
11.27283	61.01168	6.550891
11.30617	61.04564	6.550959
11.33916	61.07765	6.550935
11.37250	61.11093	6.550874
11.40600	61.14549	6.550850
11.43933	61.17875	6.550863
11.47267	61.21433	6.550867
11.50600	61.24885	6.550850
11.53934	61.28380	6.550762
11.57267	61.31750	6.550789
11.60600	61.35265	6.550800
11.63934	61.38616	6.550793
11.67267	61.42207	6.550762
11.70600	61.45613	6.550719
11.73934	61.48988	6.550726
11.77267	61.52314	6.550719
11.80600	61.55496	6.550696
11.83934	61.58745	6.550663
11.87266	61.62010	6.550636
11.90600	61.65547	6.550610
11.93950	61.69060	6.550632
11.97283	61.72539	6.550644
12.00616	61.75863	6.550610
12.03950	61.79132	6.550582
12.07283	61.82282	6.550552
12.10617	61.85457	6.550587
12.13917	61.88731	6.550618
12.17250	61.91992	6.550528
12.20584	61.95418	6.550506
12.23934	61.98860	6.550421
12.27267	62.02350	6.550368
12.30600	62.05548	6.550420
12.33934	62.09058	6.550414
12.37266	62.12474	6.550378
12.40600	62.15742	6.550363
12.43933	62.18994	6.550390
12.47267	62.22375	6.550374
12.50600	62.25668	6.550412
12.54017	62.28972	6.550298
12.57434	62.32320	6.550248
12.60767	62.35369	6.550302
12.64100	62.38663	6.550316
12.67450	62.42076	6.550328
12.70783	62.45370	6.550332
12.74117	62.48709	6.550287
12.77450	62.52090	6.550190
12.80750	62.55466	6.550230
12.84100	62.58882	6.550176
12.87600	62.62442	6.550135
12.91100	62.66052	6.550137
12.94434	62.69620	6.550151
12.97767	62.72989	6.550138
13.01100	62.76318	6.550105
13.04434	62.79633	6.550090
13.07766	62.82920	6.550082
13.11100	62.86429	6.550043
13.14434	62.89851	6.550037
13.17767	62.93322	6.549956
13.21184	62.96704	6.549908
13.24617	63.00108	6.550059
13.27950	63.03450	6.549988
13.31284	63.06684	6.549930
13.34617	63.10074	6.549951
13.38033	63.13449	6.550041
13.41450	63.16882	6.550064
13.44750	63.20265	6.550021
13.48084	63.23782	6.550051
13.51434	63.27182	6.550048
13.54934	63.30838	6.550005
13.58434	63.34264	6.550100
13.61766	63.37622	6.550122
13.65100	63.40964	6.550146
13.68433	63.44312	6.550072
13.71850	63.47750	6.549970
13.75267	63.51147	6.549868
13.78600	63.54589	6.549804
13.81934	63.57932	6.549849
13.85267	63.61206	6.549808
13.88600	63.64566	6.549840
13.91934	63.67793	6.549878
13.95266	63.70986	6.549813
13.98600	63.74242	6.549834
14.01950	63.77455	6.549780
14.05367	63.80718	6.549762
14.08783	63.83997	6.549770
14.12117	63.87406	6.549758
14.15450	63.90582	6.549665
14.18784	63.94101	6.549714
14.22200	63.97554	6.549804
14.25584	64.01104	6.549813
14.28916	64.04498	6.549835
14.32250	64.07978	6.549844
14.35600	64.11562	6.549802
14.39100	64.15270	6.549809
14.42600	64.18822	6.549810
14.45934	64.22172	6.549745
14.49266	64.25286	6.549756
14.52600	64.28458	6.549778
14.55933	64.31766	6.549799
14.59266	64.34961	6.549759
14.62600	64.38144	6.549649
14.65934	64.41250	6.549636
14.69266	64.44450	6.549614
14.72684	64.47716	6.549630
14.76117	64.51154	6.549635
14.79450	64.54504	6.549656
14.82783	64.57784	6.549615
14.86117	64.61284	6.549576
14.89534	64.64678	6.549616
14.92950	64.68157	6.549633
14.96250	64.71424	6.549657
14.99583	64.74746	6.549643
15.02934	64.77854	6.549613
15.06266	64.81162	6.549616
15.09600	64.84308	6.549555
15.12934	64.87562	6.549459
15.16266	64.90926	6.549468
15.19600	64.94343	6.549518
15.22934	64.97771	6.549510
15.26266	65.01238	6.549511
15.29600	65.04890	6.549551
15.32934	65.08278	6.549466
15.36267	65.11640	6.549411
15.39600	65.15110	6.549387
15.42934	65.18503	6.549338
15.46266	65.21851	6.549301
15.49600	65.25415	6.549214
15.52934	65.28863	6.549160
15.56266	65.32256	6.549201
15.59617	65.35682	6.549220
15.62950	65.38964	6.549160
15.66283	65.42208	6.549198
15.69617	65.45418	6.549157
15.72950	65.48624	6.549172
15.76284	65.51995	6.549226
15.79617	65.55224	6.549293
15.82950	65.58482	6.549268
15.86283	65.61841	6.549247
15.89617	65.65244	6.549244
15.92917	65.68634	6.549176
15.96250	65.72138	6.549092
15.99600	65.75696	6.549143
16.02934	65.79020	6.549199
16.06266	65.82366	6.549084
16.09600	65.85813	6.549114
16.12934	65.89457	6.549040
16.16266	65.92920	6.549037
16.19600	65.96366	6.548873
16.22934	65.99738	6.548872
16.26266	66.03008	6.548871
16.29600	66.06490	6.548822
16.32934	66.09856	6.548778
16.36267	66.13136	6.548718
16.39600	66.16515	6.548629
16.42934	66.19756	6.548590
16.46267	66.23166	6.548562
16.49600	66.26510	6.548496
16.52934	66.29834	6.548437
16.56266	66.33192	6.548354
16.59600	66.36543	6.548243
16.62950	66.39792	6.548250
16.66284	66.43097	6.548214
16.69617	66.46431	6.548130
16.72950	66.49757	6.548125
16.76283	66.53042	6.548196
16.79617	66.56314	6.548064
16.82950	66.59746	6.547985
16.86283	66.62992	6.547982
16.89584	66.66212	6.547986
16.92917	66.69482	6.548022
16.96250	66.72855	6.548101
16.99600	66.76012	6.548054
17.02934	66.79319	6.548018
17.06266	66.82502	6.547964
17.09600	66.85751	6.547938
17.12934	66.88999	6.547962
17.16266	66.92262	6.547918
17.19600	66.95610	6.547900
17.22934	66.98905	6.547940
17.26266	67.02388	6.547866
17.29600	67.05766	6.547850
17.32934	67.09087	6.547864
17.36267	67.12495	6.547885
17.39600	67.16049	6.547852
17.42934	67.19330	6.547865
17.46267	67.22666	6.547839
17.49600	67.26063	6.547830
17.52934	67.29587	6.547770
17.56266	67.32881	6.547761
17.59600	67.36389	6.547769
17.62934	67.39770	6.547743
17.66266	67.43184	6.547744
17.69600	67.46494	6.547724
17.72934	67.49737	6.547669
17.76266	67.53160	6.547712
17.79600	67.56320	6.547739
17.82934	67.59614	6.547712
17.86267	67.62778	6.547671
17.89600	67.65826	6.547613
17.92934	67.68968	6.547605
17.96267	67.72055	6.547637
17.99600	67.75243	6.547735
18.02934	67.78512	6.547705
18.06266	67.81766	6.547669
18.09766	67.85261	6.547645
18.13267	67.88824	6.547660
18.16600	67.92158	6.547656
18.19934	67.95514	6.547635
18.23284	67.98944	6.547651
18.26700	68.02229	6.547646
18.30116	68.05522	6.547609
18.33450	68.08766	6.547566
18.36784	68.12045	6.547561
18.40117	68.15245	6.547578
18.43450	68.18497	6.547534
18.46784	68.21814	6.547520
18.50117	68.25144	6.547468
18.53450	68.28521	6.547426
18.56784	68.31868	6.547504
18.60167	68.35304	6.547504
18.63584	68.38750	6.547498
18.66916	68.42180	6.547553
18.70250	68.45497	6.547532
18.73584	68.48844	6.547568
18.77034	68.52449	6.547598
18.80450	68.55860	6.547586
18.83783	68.59312	6.547482
18.87117	68.62819	6.547410
18.90450	68.66314	6.547332
18.93867	68.69812	6.547316
18.97284	68.73460	6.547341
19.00616	68.77016	6.547342
19.03950	68.80402	6.547296
19.07250	68.83809	6.547261
19.10750	68.87384	6.547190
19.14250	68.90925	6.547234
19.17583	68.94358	6.547180
19.20934	68.97749	6.547187
19.24266	69.01074	6.547206
19.27683	69.04538	6.547174
19.31100	69.07934	6.547105
19.34434	69.11290	6.547098
19.37767	69.14541	6.547078
19.41100	69.17760	6.547045
19.44434	69.21209	6.547118
19.47767	69.24456	6.547150
19.51100	69.27755	6.547113
19.54434	69.30854	6.547053
19.57767	69.34180	6.547027
19.61184	69.37600	6.547100
19.64600	69.40919	6.547099
19.67934	69.44090	6.547082
19.71267	69.47266	6.547082
19.74600	69.50500	6.547053
19.78100	69.54144	6.547004
19.81600	69.57703	6.547070
19.84934	69.61026	6.547006
19.88267	69.64314	6.546922
19.91600	69.67655	6.546978
19.95016	69.71088	6.546961
19.98433	69.74505	6.546931
20.01766	69.77947	6.546895
20.05100	69.81296	6.546876
20.08434	69.84694	6.546858
20.11850	69.87885	6.546894
20.15266	69.91288	6.546870
20.18600	69.94503	6.546876
20.21934	69.97816	6.546832
20.25267	70.01088	6.546894
20.28600	70.04337	6.546824
20.31934	70.07659	6.546777
20.35267	70.11036	6.546765
20.38600	70.14161	6.546760
20.41934	70.17412	6.546713
20.45267	70.20794	6.546724
20.48600	70.24110	6.546713
20.51934	70.27344	6.546682
20.55266	70.30747	6.546668
20.58600	70.34047	6.546691
20.61934	70.37536	6.546720
20.65266	70.40764	6.546752
20.68600	70.44001	6.546783
20.71934	70.47262	6.546750
20.75266	70.50640	6.546734
20.78600	70.53932	6.546717
20.81934	70.57200	6.546684
20.85266	70.60542	6.546648
20.88600	70.63824	6.546650
20.91934	70.66888	6.546622
20.95266	70.69756	6.546534
20.98600	70.72831	6.546528
21.01934	70.75950	6.546536
21.05266	70.79339	6.546560
21.08617	70.82524	6.546582
21.11950	70.85801	6.546607
21.15284	70.88906	6.546636
21.18617	70.92154	6.546616
21.21950	70.95345	6.546626
21.25283	70.98743	6.546592
21.28617	71.02050	6.546670
21.31950	71.05187	6.546690
21.35283	71.08422	6.546658
21.38617	71.11743	6.546666
21.41950	71.15118	6.546686
21.45284	71.18464	6.546703
21.48617	71.21956	6.546662
21.51950	71.25429	6.546707
21.55284	71.28801	6.546726
21.58617	71.32207	6.546660
21.61950	71.35534	6.546588
21.65284	71.38913	6.546608
21.68617	71.42282	6.546601
21.71950	71.45782	6.546601
21.75283	71.49270	6.546516
21.78617	71.52884	6.546426
21.81950	71.56312	6.546496
21.85283	71.59856	6.546576
21.88617	71.63356	6.546644
21.91917	71.66730	6.546670
21.95250	71.69960	6.546503
21.98584	71.73325	6.546450
22.01917	71.76684	6.546552
22.05266	71.80130	6.546606
22.08600	71.83512	6.546630
22.11934	71.86987	6.546614
22.15266	71.90550	6.546682
22.18600	71.93995	6.546591
22.21934	71.97438	6.546487
22.25266	72.00708	6.546436
22.28600	72.03900	6.546425
22.31934	72.07169	6.546424
22.35266	72.10501	6.546430
22.38600	72.13840	6.546550
22.41934	72.17125	6.546538
22.45266	72.20576	6.546344
22.48600	72.23929	6.546240
22.51934	72.27197	6.546342
22.55266	72.30376	6.546414
22.58600	72.33674	6.546426
22.61934	72.36931	6.546430
22.65266	72.40394	6.546472
22.68600	72.43859	6.546490
22.71934	72.47481	6.546371
22.75266	72.51030	6.546339
22.78600	72.54371	6.546322
22.81934	72.57852	6.546308
22.85266	72.61394	6.546259
22.88600	72.64650	6.546306
22.91934	72.67994	6.546232
