CLOSED
Version	0.4
Run	869
Instrument	2950 TGA       V5.4A
Module	TGA 1000 øC
Sample	2023_07_11_Ni_calib_1cpm
Size	14.4900	mg
Method	270C to 400C 1CPM
Operator	SBK
Comment	2023_07_11_Ni_calib_1cpm
Xcomment	Pan: Platinum           Gas1: Nitrogen  40          Gas2: Nitrogen  40
Text	2023_07_11_Ni_calib_1cpm
Text	Calibration with nickel foam and magnet
Kcell	1.00000
TempCal	0	pts
Thresholds	0.050	0.0000
Controls	Gas 1  Event Off  Sampling 2.0 sec/pt
Nsig	3
Sig1	Time (min)
Sig2	Temperature (øC)
Sig3	Weight (mg)
Date	11-Jul-23
Time	10:42
File	C:\TA\Data\TGA\Skyler\2023_07_11_Ni_calib_1cpm.002
OrgFile	C:\TA\Data\TGA\Skyler\2023_07_11_Ni_calib_1cpm.002
StartOfData
0.0000000	269.9831	14.53189
0.03283334	269.9932	14.53181
0.06783334	270.0120	14.53193
0.1028333	270.0300	14.53198
0.1361667	270.0504	14.53187
0.1695000	270.0725	14.53177
0.2028334	270.0950	14.53174
0.2370000	270.1195	14.53178
0.2711666	270.1450	14.53166
0.3045000	270.1687	14.53152
0.3378334	270.1980	14.53146
0.3711667	270.2227	14.53158
0.4053333	270.2510	14.53156
0.4395000	270.2793	14.53148
0.4728333	270.3074	14.53139
0.5061666	270.3375	14.53141
0.5395000	270.3660	14.53149
0.5736668	270.3954	14.53145
0.6078332	270.4274	14.53147
0.6411668	270.4575	14.53147
0.6745000	270.4887	14.53130
0.7078332	270.5200	14.53118
0.7428332	270.5530	14.53108
0.7778334	270.5860	14.53096
0.8111668	270.6150	14.53093
0.8445000	270.6471	14.53081
0.8778332	270.6784	14.53077
0.9120000	270.7106	14.53075
0.9461668	270.7423	14.53070
0.9795000	270.7771	14.53075
1.012833	270.8070	14.53082
1.046333	270.8391	14.53069
1.080500	270.8718	14.53063
1.114667	270.9046	14.53051
1.148000	270.9355	14.53036
1.181333	270.9687	14.53030
1.214667	271.0010	14.53028
1.248833	271.0318	14.53028
1.283000	271.0641	14.53009
1.316000	271.0964	14.53000
1.349334	271.1271	14.52995
1.382666	271.1578	14.52989
1.417666	271.1934	14.52984
1.452666	271.2276	14.52980
1.486000	271.2602	14.52974
1.519334	271.2924	14.52964
1.552666	271.3249	14.52970
1.586834	271.3579	14.52965
1.621000	271.3902	14.52951
1.654500	271.4237	14.52950
1.687834	271.4570	14.52949
1.721167	271.4878	14.52945
1.754500	271.5217	14.52947
1.787834	271.5528	14.52940
1.821167	271.5840	14.52928
1.854334	271.6167	14.52919
1.887666	271.6490	14.52914
1.921000	271.6823	14.52906
1.954334	271.7146	14.52912
1.987666	271.7462	14.52909
2.021000	271.7774	14.52894
2.054334	271.8106	14.52888
2.087666	271.8430	14.52882
2.121000	271.8770	14.52871
2.154333	271.9080	14.52859
2.187666	271.9414	14.52864
2.221000	271.9726	14.52872
2.254333	272.0072	14.52866
2.287666	272.0406	14.52856
2.321000	272.0737	14.52848
2.354334	272.1066	14.52842
2.387666	272.1390	14.52842
2.421000	272.1719	14.52845
2.454333	272.2053	14.52842
2.487666	272.2374	14.52831
2.521167	272.2702	14.52816
2.554500	272.3032	14.52811
2.587833	272.3365	14.52800
2.621167	272.3688	14.52786
2.654500	272.4018	14.52781
2.687833	272.4346	14.52777
2.721167	272.4670	14.52780
2.754500	272.4990	14.52768
2.787833	272.5339	14.52756
2.821167	272.5679	14.52755
2.854500	272.5991	14.52752
2.887833	272.6318	14.52744
2.921167	272.6657	14.52739
2.954500	272.6992	14.52742
2.987833	272.7315	14.52743
3.021167	272.7657	14.52734
3.054500	272.8012	14.52741
3.087833	272.8348	14.52740
3.121167	272.8684	14.52720
3.154500	272.9011	14.52710
3.187666	272.9332	14.52700
3.221000	272.9685	14.52699
3.254333	273.0014	14.52695
3.287666	273.0344	14.52678
3.321000	273.0679	14.52677
3.354667	273.1022	14.52671
3.388000	273.1349	14.52666
3.421333	273.1686	14.52658
3.454666	273.2014	14.52654
3.488000	273.2346	14.52652
3.521333	273.2683	14.52645
3.554667	273.3022	14.52647
3.588000	273.3343	14.52648
3.621333	273.3667	14.52640
3.654666	273.3996	14.52624
3.688000	273.4328	14.52606
3.721333	273.4659	14.52600
3.754666	273.4977	14.52596
3.788000	273.5303	14.52580
3.821333	273.5645	14.52582
3.854667	273.5988	14.52579
3.888000	273.6310	14.52584
3.921333	273.6611	14.52566
3.954666	273.6955	14.52542
3.988000	273.7293	14.52540
4.021333	273.7629	14.52535
4.054666	273.7966	14.52533
4.088000	273.8300	14.52534
4.121334	273.8628	14.52530
4.154667	273.8964	14.52523
4.188000	273.9305	14.52523
4.221334	273.9634	14.52524
4.254667	273.9972	14.52518
4.288000	274.0305	14.52506
4.321334	274.0634	14.52500
4.354667	274.0963	14.52482
4.388000	274.1308	14.52476
4.421334	274.1644	14.52469
4.455500	274.1978	14.52466
4.489666	274.2312	14.52459
4.523000	274.2660	14.52453
4.556334	274.2984	14.52450
4.589667	274.3328	14.52436
4.623833	274.3670	14.52433
4.658000	274.4022	14.52422
4.691334	274.4342	14.52412
4.724667	274.4681	14.52414
4.758000	274.5012	14.52410
4.792666	274.5370	14.52400
4.827667	274.5708	14.52398
4.861000	274.6051	14.52390
4.894333	274.6384	14.52380
4.927666	274.6731	14.52373
4.962000	274.7070	14.52370
4.996166	274.7411	14.52356
5.029500	274.7741	14.52350
5.062833	274.8080	14.52359
5.096166	274.8400	14.52352
5.130333	274.8733	14.52335
5.164500	274.9088	14.52332
5.197834	274.9417	14.52324
5.231167	274.9764	14.52324
5.264500	275.0098	14.52325
5.298666	275.0428	14.52321
5.332832	275.0772	14.52313
5.366168	275.1108	14.52304
5.399500	275.1448	14.52292
5.432832	275.1773	14.52284
5.467834	275.2122	14.52285
5.502832	275.2475	14.52289
5.536168	275.2808	14.52281
5.569668	275.3138	14.52278
5.603000	275.3459	14.52264
5.637168	275.3820	14.52251
5.671332	275.4162	14.52244
5.704668	275.4494	14.52237
5.738000	275.4836	14.52228
5.771000	275.5160	14.52225
5.805166	275.5482	14.52210
5.839334	275.5829	14.52188
5.872832	275.6170	14.52187
5.906166	275.6499	14.52190
5.939500	275.6831	14.52187
5.973668	275.7170	14.52180
6.007832	275.7508	14.52170
6.041168	275.7850	14.52166
6.074500	275.8186	14.52167
6.107832	275.8505	14.52160
6.142000	275.8851	14.52145
6.176166	275.9203	14.52144
6.209500	275.9550	14.52136
6.242832	275.9878	14.52139
6.276166	276.0200	14.52131
6.311168	276.0542	14.52115
6.346166	276.0904	14.52112
6.379500	276.1240	14.52104
6.412832	276.1584	14.52102
6.446166	276.1932	14.52099
6.480500	276.2276	14.52100
6.514668	276.2607	14.52094
6.548000	276.2934	14.52088
6.581332	276.3237	14.52087
6.614334	276.3603	14.52060
6.647666	276.3927	14.52059
6.681000	276.4277	14.52061
6.714500	276.4563	14.52029
6.747832	276.4910	14.52040
6.781168	276.5276	14.52052
6.814500	276.5569	14.52032
6.847832	276.5894	14.52002
6.881166	276.6222	14.51987
6.914500	276.6580	14.51981
6.947832	276.6912	14.51978
6.981168	276.7249	14.51976
7.014500	276.7574	14.51965
7.047832	276.7890	14.51958
7.081168	276.8234	14.51959
7.114500	276.8560	14.51954
7.147832	276.8888	14.51950
7.181334	276.9240	14.51944
7.214668	276.9596	14.51945
7.248000	276.9907	14.51949
7.281332	277.0242	14.51930
7.314668	277.0580	14.51922
7.347668	277.0895	14.51906
7.381000	277.1245	14.51895
7.414500	277.1588	14.51913
7.447832	277.1924	14.51903
7.481168	277.2248	14.51897
7.514500	277.2598	14.51888
7.547832	277.2944	14.51901
7.581168	277.3262	14.51895
7.614500	277.3581	14.51879
7.647832	277.3916	14.51856
7.681168	277.4240	14.51837
7.714500	277.4592	14.51840
7.747832	277.4932	14.51843
7.781332	277.5262	14.51832
7.814668	277.5587	14.51819
7.848000	277.5924	14.51804
7.881000	277.6258	14.51798
7.914334	277.6583	14.51796
7.947832	277.6933	14.51783
7.981168	277.7252	14.51775
8.014500	277.7588	14.51766
8.047832	277.7926	14.51766
8.081166	277.8262	14.51761
8.114500	277.8589	14.51752
8.147832	277.8928	14.51746
8.181168	277.9256	14.51736
8.214500	277.9594	14.51728
8.247832	277.9923	14.51719
8.281168	278.0260	14.51712
8.314668	278.0590	14.51714
8.348000	278.0928	14.51708
8.381332	278.1259	14.51710
8.414334	278.1580	14.51702
8.447668	278.1918	14.51686
8.481168	278.2238	14.51679
8.514500	278.2576	14.51672
8.547832	278.2910	14.51672
8.581166	278.3250	14.51671
8.614501	278.3592	14.51665
8.647832	278.3914	14.51656
8.681168	278.4252	14.51651
8.714501	278.4599	14.51652
8.747832	278.4929	14.51656
8.781168	278.5265	14.51633
8.814500	278.5607	14.51611
8.847832	278.5935	14.51599
8.881332	278.6262	14.51592
8.914668	278.6601	14.51590
8.947999	278.6930	14.51583
8.981334	278.7261	14.51567
9.014334	278.7600	14.51562
9.047668	278.7931	14.51568
9.081000	278.8282	14.51555
9.114501	278.8628	14.51556
9.147832	278.8945	14.51539
9.181168	278.9269	14.51522
9.214501	278.9604	14.51516
9.247832	278.9938	14.51514
9.281168	279.0260	14.51509
9.314500	279.0588	14.51506
9.348666	279.0913	14.51502
9.382834	279.1270	14.51477
9.416168	279.1607	14.51485
9.449500	279.1950	14.51480
9.483000	279.2291	14.51479
9.517999	279.2630	14.51452
9.553000	279.2963	14.51434
9.586334	279.3296	14.51431
9.619668	279.3627	14.51430
9.652668	279.3966	14.51426
9.686834	279.4308	14.51414
9.721000	279.4642	14.51406
9.754501	279.4985	14.51395
9.787832	279.5320	14.51389
9.821168	279.5645	14.51392
9.855332	279.5982	14.51384
9.889500	279.6342	14.51379
9.922832	279.6685	14.51372
9.956166	279.7015	14.51366
9.989501	279.7350	14.51361
10.02367	279.7702	14.51360
10.05783	279.8040	14.51363
10.09117	279.8373	14.51353
10.12450	279.8702	14.51340
10.15783	279.9024	14.51331
10.19300	279.9392	14.51314
10.22800	279.9735	14.51318
10.26133	280.0068	14.51312
10.29467	280.0402	14.51306
10.32767	280.0730	14.51310
10.36183	280.1090	14.51296
10.39617	280.1420	14.51294
10.42950	280.1745	14.51292
10.46283	280.2082	14.51282
10.49616	280.2425	14.51270
10.53033	280.2768	14.51262
10.56450	280.3110	14.51258
10.59783	280.3440	14.51236
10.63116	280.3782	14.51228
10.66450	280.4124	14.51221
10.69867	280.4454	14.51218
10.73283	280.4800	14.51218
10.76634	280.5125	14.51212
10.79967	280.5452	14.51204
10.83300	280.5795	14.51200
10.86800	280.6142	14.51192
10.90300	280.6485	14.51173
10.93600	280.6830	14.51172
10.96950	280.7150	14.51164
11.00283	280.7484	14.51155
11.03700	280.7828	14.51149
11.07117	280.8164	14.51148
11.10450	280.8498	14.51142
11.13783	280.8825	14.51136
11.17116	280.9148	14.51126
11.20533	280.9498	14.51133
11.23950	280.9856	14.51140
11.27283	281.0190	14.51125
11.30634	281.0522	14.51111
11.33967	281.0858	14.51095
11.37383	281.1208	14.51087
11.40800	281.1546	14.51081
11.44100	281.1882	14.51076
11.47434	281.2217	14.51068
11.50784	281.2558	14.51052
11.54283	281.2919	14.51044
11.57783	281.3269	14.51047
11.61117	281.3602	14.51039
11.64450	281.3934	14.51031
11.67783	281.4264	14.51027
11.71200	281.4611	14.51019
11.74616	281.4946	14.51015
11.77967	281.5266	14.51006
11.81300	281.5613	14.51001
11.84633	281.5934	14.51004
11.88050	281.6275	14.51000
11.91434	281.6614	14.50990
11.94767	281.6955	14.50978
11.98117	281.7280	14.50970
12.01450	281.7604	14.50962
12.04867	281.7950	14.50962
12.08283	281.8294	14.50957
12.11617	281.8635	14.50947
12.14950	281.8952	14.50936
12.18284	281.9289	14.50928
12.21783	281.9640	14.50921
12.25283	281.9992	14.50906
12.28633	282.0313	14.50895
12.31967	282.0654	14.50882
12.35300	282.0984	14.50882
12.38717	282.1330	14.50872
12.42133	282.1685	14.50863
12.45434	282.2013	14.50863
12.48783	282.2348	14.50852
12.52117	282.2674	14.50850
12.55450	282.3014	14.50858
12.58783	282.3346	14.50854
12.62116	282.3694	14.50853
12.65450	282.4026	14.50843
12.68784	282.4367	14.50841
12.72117	282.4715	14.50835
12.75450	282.5032	14.50816
12.78800	282.5364	14.50798
12.82133	282.5686	14.50790
12.85466	282.6022	14.50779
12.88800	282.6356	14.50778
12.92100	282.6686	14.50773
12.95434	282.7010	14.50765
12.98767	282.7348	14.50764
13.02117	282.7686	14.50755
13.05450	282.8024	14.50745
13.08783	282.8350	14.50738
13.12117	282.8672	14.50730
13.15450	282.9012	14.50729
13.18784	282.9342	14.50729
13.22117	282.9678	14.50725
13.25450	283.0008	14.50718
13.28783	283.0333	14.50712
13.32117	283.0658	14.50702
13.35450	283.0992	14.50690
13.38784	283.1332	14.50689
13.42133	283.1657	14.50681
13.45467	283.1987	14.50666
13.48800	283.2320	14.50662
13.52133	283.2650	14.50652
13.55434	283.2980	14.50644
13.58766	283.3314	14.50640
13.62117	283.3651	14.50633
13.65450	283.3978	14.50626
13.68784	283.4317	14.50624
13.72117	283.4646	14.50623
13.75450	283.4984	14.50614
13.78783	283.5315	14.50603
13.82117	283.5651	14.50596
13.85450	283.5990	14.50584
13.88784	283.6304	14.50571
13.92133	283.6664	14.50574
13.95467	283.6995	14.50567
13.98800	283.7321	14.50555
14.02133	283.7674	14.50562
14.05466	283.7985	14.50561
14.08766	283.8320	14.50549
14.12100	283.8646	14.50533
14.15450	283.8984	14.50521
14.18784	283.9314	14.50510
14.22117	283.9652	14.50516
14.25450	283.9989	14.50516
14.28783	284.0326	14.50514
14.32117	284.0654	14.50505
14.35450	284.0982	14.50498
14.38784	284.1315	14.50493
14.42133	284.1641	14.50486
14.45467	284.1982	14.50468
14.48800	284.2311	14.50459
14.52133	284.2640	14.50450
14.55434	284.2971	14.50436
14.58766	284.3306	14.50432
14.62117	284.3642	14.50434
14.65450	284.3985	14.50441
14.68784	284.4332	14.50445
14.72117	284.4665	14.50440
14.75450	284.5001	14.50438
14.78783	284.5332	14.50430
14.82117	284.5671	14.50397
14.85450	284.6014	14.50391
14.88784	284.6346	14.50387
14.92133	284.6672	14.50371
14.95467	284.7030	14.50370
14.98800	284.7373	14.50378
15.02133	284.7699	14.50378
15.05466	284.8024	14.50362
15.08766	284.8354	14.50351
15.12100	284.8684	14.50342
15.15434	284.9010	14.50331
15.18784	284.9359	14.50328
15.22117	284.9681	14.50324
15.25533	285.0022	14.50318
15.28950	285.0370	14.50314
15.32283	285.0709	14.50314
15.35617	285.1041	14.50310
15.38950	285.1368	14.50300
15.42367	285.1706	14.50286
15.45784	285.2058	14.50282
15.49133	285.2395	14.50282
15.52467	285.2720	14.50282
15.55800	285.3074	14.50280
15.59300	285.3422	14.50273
15.62767	285.3770	14.50256
15.66100	285.4108	14.50240
15.69450	285.4455	14.50236
15.72783	285.4775	14.50237
15.76200	285.5103	14.50229
15.79617	285.5448	14.50221
15.82950	285.5791	14.50216
15.86283	285.6128	14.50204
15.89617	285.6447	14.50194
15.93033	285.6792	14.50186
15.96450	285.7121	14.50181
15.99783	285.7454	14.50175
16.03134	285.7790	14.50166
16.06467	285.8119	14.50159
16.09883	285.8454	14.50148
16.13300	285.8803	14.50142
16.16634	285.9135	14.50133
16.19934	285.9459	14.50124
16.23266	285.9783	14.50122
16.26784	286.0132	14.50110
16.30283	286.0492	14.50106
16.33617	286.0818	14.50108
16.36950	286.1152	14.50098
16.40284	286.1496	14.50091
16.43700	286.1831	14.50083
16.47117	286.2174	14.50073
16.50450	286.2510	14.50064
16.53784	286.2844	14.50058
16.57117	286.3172	14.50062
16.60534	286.3524	14.50045
16.63966	286.3852	14.50027
16.67300	286.4188	14.50018
16.70633	286.4514	14.50009
16.73966	286.4850	14.49999
16.77384	286.5188	14.49982
16.80800	286.5525	14.49971
16.84100	286.5862	14.49965
16.87433	286.6206	14.49962
16.90767	286.6534	14.49957
16.94284	286.6885	14.49945
16.97783	286.7240	14.49934
17.01117	286.7588	14.49928
17.04450	286.7918	14.49918
17.07784	286.8248	14.49922
17.11200	286.8580	14.49911
17.14616	286.8948	14.49912
17.17950	286.9271	14.49906
17.21283	286.9588	14.49896
17.24617	286.9935	14.49889
17.28034	287.0288	14.49894
17.31450	287.0628	14.49891
17.34784	287.0958	14.49872
17.38116	287.1289	14.49868
17.41450	287.1628	14.49869
17.44884	287.1980	14.49872
17.48300	287.2337	14.49868
17.51633	287.2670	14.49857
17.54967	287.2991	14.49825
17.58300	287.3342	14.49819
17.61800	287.3686	14.49824
17.65300	287.4027	14.49817
17.68633	287.4360	14.49818
17.71966	287.4697	14.49822
17.75300	287.4975	14.49801
17.78684	287.5380	14.49753
17.82100	287.5722	14.49772
17.85434	287.6050	14.49774
17.88766	287.6390	14.49804
17.92100	287.6696	14.49763
17.95534	287.7028	14.49743
17.98950	287.7386	14.49729
18.02284	287.7722	14.49723
18.05617	287.8044	14.49705
18.08950	287.8394	14.49700
18.12367	287.8736	14.49695
18.15784	287.9090	14.49691
18.19116	287.9396	14.49672
18.22450	287.9740	14.49660
18.25784	288.0050	14.49667
18.29284	288.0408	14.49654
18.32784	288.0752	14.49651
18.36117	288.1094	14.49646
18.39466	288.1444	14.49649
18.42800	288.1790	14.49566
18.46216	288.2110	14.49400
18.49634	288.2414	14.49291
18.52966	288.2726	14.49255
18.56266	288.3053	14.49245
18.59600	288.3389	14.49247
18.62934	288.3682	14.49214
18.66284	288.4064	14.49220
18.69617	288.4385	14.49217
18.72950	288.4739	14.49235
18.76283	288.5035	14.49199
18.79617	288.5368	14.49185
18.82950	288.5701	14.49179
18.86283	288.6054	14.49172
18.89616	288.6400	14.49178
18.92950	288.6728	14.49176
18.96283	288.7056	14.49166
18.99617	288.7402	14.49156
19.02950	288.7724	14.49144
19.06284	288.8042	14.49124
19.09617	288.8384	14.49122
19.12967	288.8722	14.49118
19.16300	288.9064	14.49105
19.19633	288.9432	14.49114
19.22966	288.9748	14.49132
19.26300	289.0087	14.49110
19.29600	289.0410	14.49102
19.32934	289.0750	14.49093
19.36283	289.1080	14.49096
19.39616	289.1422	14.49084
19.42950	289.1768	14.49075
19.46283	289.2106	14.49073
19.49617	289.2406	14.49061
19.52950	289.2740	14.49035
19.56284	289.3070	14.49042
19.59617	289.3404	14.49025
19.62950	289.3756	14.49022
19.66284	289.4088	14.49010
19.69617	289.4424	14.49004
19.72950	289.4755	14.49012
19.76283	289.5088	14.49011
19.79617	289.5430	14.49004
19.82950	289.5778	14.49004
19.86283	289.6110	14.48989
19.89616	289.6438	14.48974
19.92950	289.6756	14.48953
19.96283	289.7102	14.48929
19.99617	289.7448	14.48936
20.02950	289.7779	14.48928
20.06284	289.8113	14.48922
20.09617	289.8453	14.48924
20.12950	289.8786	14.48923
20.16284	289.9120	14.48913
20.19617	289.9448	14.48903
20.22950	289.9782	14.48889
20.26283	290.0122	14.48885
20.29617	290.0436	14.48878
20.32966	290.0772	14.48873
20.36300	290.1104	14.48870
20.39633	290.1430	14.48865
20.42966	290.1768	14.48851
20.46300	290.2102	14.48842
20.49634	290.2428	14.48826
20.52966	290.2774	14.48814
20.56266	290.3094	14.48810
20.59600	290.3418	14.48802
20.62934	290.3766	14.48795
20.66266	290.4126	14.48806
20.69617	290.4444	14.48808
20.72950	290.4780	14.48802
20.76283	290.5113	14.48790
20.79617	290.5443	14.48780
20.82950	290.5779	14.48772
20.86283	290.6105	14.48763
20.89616	290.6447	14.48753
20.92950	290.6785	14.48745
20.96283	290.7116	14.48741
20.99617	290.7442	14.48733
21.02950	290.7779	14.48728
21.06284	290.8113	14.48722
21.09617	290.8425	14.48714
21.12950	290.8750	14.48706
21.16284	290.9095	14.48681
21.19617	290.9430	14.48682
21.22950	290.9772	14.48686
21.26283	291.0119	14.48687
21.29617	291.0437	14.48672
21.33034	291.0780	14.48658
21.36450	291.1138	14.48654
21.39783	291.1465	14.48657
21.43117	291.1792	14.48646
21.46450	291.2120	14.48637
21.49783	291.2449	14.48633
21.53117	291.2780	14.48624
21.56450	291.3116	14.48621
21.59783	291.3443	14.48604
21.63117	291.3781	14.48586
21.66450	291.4117	14.48577
21.69783	291.4465	14.48572
21.73117	291.4772	14.48586
21.76450	291.5096	14.48573
21.79783	291.5438	14.48565
21.83117	291.5756	14.48562
21.86450	291.6087	14.48545
21.89783	291.6448	14.48543
21.93117	291.6765	14.48545
21.96450	291.7108	14.48537
21.99783	291.7430	14.48527
22.03117	291.7755	14.48510
22.06450	291.8091	14.48500
22.09783	291.8422	14.48491
22.13117	291.8766	14.48488
22.16450	291.9095	14.48488
22.19783	291.9426	14.48478
22.23133	291.9768	14.48478
22.26467	292.0098	14.48480
22.29800	292.0416	14.48467
22.33133	292.0738	14.48442
22.36467	292.1092	14.48433
22.39800	292.1418	14.48433
22.43133	292.1768	14.48420
22.46467	292.2130	14.48411
22.49800	292.2457	14.48427
22.53133	292.2765	14.48406
22.56467	292.3100	14.48394
22.59800	292.3436	14.48392
22.63133	292.3776	14.48378
22.66467	292.4126	14.48372
22.69800	292.4451	14.48379
22.73133	292.4776	14.48372
22.76434	292.5102	14.48365
22.79766	292.5444	14.48356
22.83100	292.5768	14.48345
22.86434	292.6108	14.48330
22.89766	292.6428	14.48330
22.93100	292.6766	14.48312
22.96434	292.7108	14.48303
22.99766	292.7462	14.48310
23.03100	292.7781	14.48303
