CLOSED
Version	0.4
Run	870
Instrument	2950 TGA       V5.4A
Module	TGA 1000 øC
Sample	2023_07_11_alumel_calib_1cpm
Size	59.7340	mg
Method	50C to 300C at 1 cpm
Operator	SBK
Comment	2023_07_11_alumel_calib_1cpm
Xcomment	Pan: Platinum           Gas1: Nitrogen  40          Gas2: Nitrogen  40
Text	2023_07_11_alumel_calib_1cpm
Text	Calibration with alumel wire and magnet
Kcell	1.00000
TempCal	2	pts	156.68	152.50,	376.53	354.00
Thresholds	0.050	0.0000
Controls	Gas 1  Event Off  Sampling 2.0 sec/pt
Nsig	3
Sig1	Time (min)
Sig2	Temperature (øC)
Sig3	Weight (mg)
Date	11-Jul-23
Time	14:21
File	C:\TA\Data\TGA\Skyler\2023_07_11_alumel_calib_1cpm.001
OrgFile	C:\TA\Data\TGA\Skyler\2023_07_11_alumel_calib_1cpm.001
StartOfData
0.0000000	50.08008	59.73291
0.03266667	50.08370	59.73313
0.06600000	50.08762	59.73330
0.09933334	50.09665	59.73342
0.1326666	50.10689	59.73350
0.1660000	50.11981	59.73362
0.1993334	50.13346	59.73362
0.2325000	50.14994	59.73374
0.2658333	50.16781	59.73375
0.2991667	50.18600	59.73370
0.3325000	50.20650	59.73386
0.3658333	50.22872	59.73381
0.3991667	50.24922	59.73386
0.4325000	50.27421	59.73389
0.4658333	50.29890	59.73383
0.4991667	50.32553	59.73379
0.5325000	50.35067	59.73379
0.5658332	50.37744	59.73374
0.5991668	50.40434	59.73377
0.6325000	50.43137	59.73380
0.6658334	50.46033	59.73390
0.6991668	50.48989	59.73390
0.7325000	50.51938	59.73386
0.7658334	50.54898	59.73384
0.7991668	50.58048	59.73386
0.8325000	50.61098	59.73384
0.8658334	50.64171	59.73374
0.8991668	50.67224	59.73371
0.9325000	50.70393	59.73383
0.9658332	50.73662	59.73388
0.9991668	50.76964	59.73380
1.032500	50.80264	59.73386
1.066167	50.83480	59.73388
1.099500	50.86728	59.73387
1.132834	50.90009	59.73383
1.166167	50.93288	59.73378
1.199500	50.96637	59.73382
1.232834	50.99910	59.73385
1.266167	51.03138	59.73380
1.299500	51.06384	59.73383
1.332833	51.09800	59.73383
1.366167	51.13086	59.73388
1.399500	51.16347	59.73394
1.432833	51.19618	59.73388
1.466166	51.22878	59.73388
1.499500	51.26362	59.73388
1.532833	51.29829	59.73385
1.566167	51.33156	59.73381
1.599334	51.36478	59.73380
1.633500	51.39813	59.73386
1.667666	51.43238	59.73391
1.701000	51.46516	59.73389
1.734333	51.49842	59.73394
1.767666	51.53216	59.73392
1.802666	51.56869	59.73389
1.837666	51.60356	59.73385
1.871000	51.63648	59.73386
1.904334	51.67024	59.73389
1.937666	51.70154	59.73384
1.971834	51.73522	59.73381
2.006000	51.76894	59.73384
2.039334	51.79992	59.73389
2.072666	51.83170	59.73392
2.106000	51.86418	59.73391
2.140167	51.89710	59.73394
2.174333	51.93194	59.73394
2.207666	51.96381	59.73390
2.241000	51.99602	59.73391
2.274333	52.02919	59.73389
2.308500	52.06143	59.73394
2.342666	52.09496	59.73394
2.376000	52.12791	59.73394
2.409333	52.15969	59.73388
2.442833	52.19150	59.73389
2.477833	52.22535	59.73388
2.512834	52.25933	59.73394
2.546167	52.29184	59.73404
2.579500	52.32422	59.73404
2.612833	52.35670	59.73398
2.647000	52.39078	59.73403
2.681167	52.42416	59.73400
2.714500	52.45691	59.73395
2.747833	52.48982	59.73400
2.781166	52.52406	59.73403
2.815333	52.55962	59.73416
2.849500	52.59414	59.73410
2.882833	52.62755	59.73394
2.916167	52.66132	59.73393
2.949500	52.69574	59.73388
2.983667	52.73032	59.73386
3.017833	52.76470	59.73396
3.051167	52.79887	59.73404
3.084500	52.83401	59.73401
3.117833	52.86724	59.73399
3.152833	52.90278	59.73398
3.187833	52.93787	59.73400
3.221000	52.97260	59.73408
3.254333	53.00604	59.73414
3.287666	53.03896	59.73413
3.321834	53.07504	59.73418
3.356000	53.11048	59.73422
3.389334	53.14426	59.73420
3.422666	53.17840	59.73422
3.456000	53.21266	59.73422
3.490166	53.24684	59.73418
3.524333	53.28004	59.73416
3.557666	53.31062	59.73412
3.591000	53.34217	59.73413
3.624333	53.37502	59.73416
3.658500	53.40718	59.73418
3.692666	53.43882	59.73418
3.726000	53.47127	59.73421
3.759334	53.50492	59.73422
3.792666	53.53760	59.73429
3.827667	53.57160	59.73426
3.862666	53.60693	59.73424
3.896000	53.64038	59.73426
3.929334	53.67344	59.73426
3.962666	53.70797	59.73428
3.996000	53.74212	59.73430
4.029333	53.77491	59.73420
4.062667	53.80875	59.73432
4.096000	53.84180	59.73432
4.129334	53.87672	59.73428
4.162666	53.91003	59.73438
4.196000	53.94328	59.73430
4.229334	53.97860	59.73430
4.262666	54.01284	59.73436
4.296000	54.04539	59.73438
4.329334	54.07870	59.73438
4.362666	54.11192	59.73437
4.396000	54.14500	59.73435
4.429333	54.17822	59.73438
4.462666	54.21192	59.73434
4.496000	54.24446	59.73434
4.529333	54.27690	59.73435
4.562667	54.31096	59.73440
4.596000	54.34375	59.73438
4.629334	54.37769	59.73448
4.662666	54.41140	59.73451
4.696000	54.44500	59.73450
4.729334	54.47654	59.73441
4.762666	54.50922	59.73435
4.796167	54.54253	59.73438
4.829500	54.57660	59.73440
4.862833	54.61054	59.73440
4.896167	54.64526	59.73437
4.929500	54.67800	59.73437
4.962833	54.71023	59.73428
4.996166	54.74329	59.73435
5.029500	54.77744	59.73447
5.062833	54.81082	59.73448
5.096166	54.84379	59.73437
5.129500	54.87681	59.73437
5.162833	54.90997	59.73442
5.196166	54.94244	59.73448
5.229500	54.97379	59.73460
5.262832	55.00724	59.73455
5.296168	55.04052	59.73449
5.329500	55.07317	59.73442
5.362832	55.10657	59.73434
5.396168	55.13995	59.73430
5.429500	55.17416	59.73432
5.462832	55.20801	59.73438
5.496166	55.24270	59.73445
5.529500	55.27666	59.73442
5.562832	55.30991	59.73438
5.595832	55.34438	59.73440
5.629500	55.37776	59.73447
5.662832	55.41199	59.73448
5.696166	55.44478	59.73446
5.729500	55.47900	59.73452
5.762832	55.51318	59.73450
5.796168	55.54817	59.73446
5.829500	55.58072	59.73448
5.862832	55.61506	59.73450
5.896168	55.64874	59.73449
5.929500	55.68159	59.73450
5.962832	55.71574	59.73458
5.996166	55.74841	59.73453
6.029500	55.78108	59.73455
6.062832	55.81465	59.73457
6.096166	55.84768	59.73457
6.129500	55.88196	59.73457
6.162832	55.91650	59.73455
6.196166	55.94941	59.73455
6.229500	55.98303	59.73461
6.262832	56.01530	59.73461
6.296168	56.04844	59.73457
6.329500	56.08236	59.73462
6.362832	56.11704	59.73464
6.396168	56.15016	59.73463
6.429500	56.18135	59.73461
6.462832	56.21344	59.73460
6.495834	56.24605	59.73461
6.529166	56.27876	59.73465
6.562500	56.31260	59.73472
6.595834	56.34476	59.73484
6.629166	56.37757	59.73476
6.662500	56.41204	59.73476
6.695832	56.44621	59.73476
6.729334	56.48026	59.73479
6.762666	56.51254	59.73480
6.796000	56.54700	59.73484
6.829334	56.57945	59.73482
6.862666	56.61246	59.73490
6.896000	56.64702	59.73486
6.929334	56.68025	59.73480
6.962666	56.71448	59.73476
6.996000	56.74814	59.73478
7.029334	56.78282	59.73482
7.062668	56.81634	59.73485
7.096000	56.84724	59.73487
7.129334	56.87960	59.73490
7.162668	56.91363	59.73487
7.196000	56.94714	59.73490
7.229334	56.98081	59.73493
7.262666	57.01310	59.73488
7.296000	57.04539	59.73490
7.329334	57.07864	59.73496
7.362666	57.11116	59.73500
7.396000	57.14368	59.73497
7.429334	57.17470	59.73494
7.462666	57.20815	59.73496
7.496000	57.24134	59.73502
7.529334	57.27489	59.73501
7.562668	57.30625	59.73502
7.596000	57.33931	59.73500
7.629334	57.37295	59.73514
7.662668	57.40396	59.73504
7.696000	57.43658	59.73501
7.729334	57.46994	59.73496
7.762666	57.50326	59.73496
7.796000	57.53762	59.73497
7.829334	57.57039	59.73508
7.862666	57.60369	59.73514
7.896000	57.63876	59.73510
7.929334	57.67280	59.73506
7.962500	57.70644	59.73511
7.995834	57.73948	59.73515
8.029166	57.77266	59.73509
8.062500	57.80892	59.73510
8.096168	57.84343	59.73518
8.129500	57.87718	59.73511
8.162832	57.91010	59.73504
8.196168	57.94141	59.73504
8.229500	57.97350	59.73508
8.262832	58.00524	59.73511
8.296166	58.03840	59.73509
8.329500	58.07214	59.73510
8.362832	58.10446	59.73518
8.396168	58.13821	59.73522
8.429500	58.17240	59.73521
8.462832	58.20608	59.73524
8.496166	58.23874	59.73516
8.529500	58.27008	59.73524
8.562834	58.30382	59.73528
8.596168	58.33744	59.73528
8.629501	58.36970	59.73528
8.662832	58.40350	59.73523
8.696168	58.43661	59.73523
8.729500	58.47220	59.73521
8.762832	58.50634	59.73520
8.796166	58.53930	59.73526
8.829500	58.57266	59.73534
8.862832	58.60593	59.73541
8.896168	58.64059	59.73550
8.929500	58.67370	59.73551
8.962832	58.70812	59.73550
8.996166	58.74232	59.73540
9.029500	58.77624	59.73546
9.062834	58.80909	59.73550
9.096168	58.84238	59.73542
9.129501	58.87570	59.73540
9.162832	58.90968	59.73536
9.196168	58.94265	59.73538
9.229500	58.97428	59.73542
9.262832	59.00761	59.73542
9.295999	59.03976	59.73535
9.329334	59.07226	59.73545
9.362668	59.10509	59.73536
9.396834	59.13861	59.73536
9.431000	59.16991	59.73536
9.464334	59.20079	59.73536
9.497666	59.23186	59.73540
9.531000	59.26407	59.73540
9.565168	59.29769	59.73535
9.599334	59.33220	59.73530
9.632668	59.36672	59.73537
9.666000	59.40084	59.73550
9.699334	59.43532	59.73560
9.733499	59.46996	59.73574
9.767668	59.50449	59.73570
9.801000	59.53706	59.73562
9.834334	59.56952	59.73552
9.867668	59.60352	59.73559
9.902668	59.63736	59.73556
9.937668	59.67351	59.73564
9.971000	59.70739	59.73572
10.00433	59.74158	59.73568
10.03767	59.77780	59.73559
10.07183	59.81310	59.73567
10.10600	59.84769	59.73570
10.13933	59.88172	59.73565
10.17267	59.91421	59.73570
10.20600	59.94598	59.73562
10.24017	59.98007	59.73556
10.27433	60.01498	59.73558
10.30767	60.04861	59.73557
10.34100	60.08324	59.73562
10.37433	60.11842	59.73562
10.40850	60.15344	59.73562
10.44267	60.18720	59.73559
10.47600	60.22066	59.73550
10.50934	60.25416	59.73568
10.54266	60.28770	59.73576
10.57766	60.32351	59.73590
10.61267	60.36084	59.73582
10.64600	60.39318	59.73582
10.67934	60.42504	59.73580
10.71266	60.45955	59.73570
10.74684	60.49402	59.73566
10.78100	60.52678	59.73568
10.81433	60.55948	59.73560
10.84767	60.59340	59.73557
10.88100	60.62735	59.73579
10.91517	60.66223	59.73576
10.94934	60.69546	59.73565
10.98267	60.72988	59.73567
11.01600	60.76321	59.73566
11.04934	60.79539	59.73562
11.08350	60.82969	59.73569
11.11766	60.86480	59.73567
11.15100	60.89868	59.73575
11.18434	60.93172	59.73572
11.21766	60.96432	59.73565
11.25266	60.99796	59.73569
11.28766	61.03348	59.73575
11.32100	61.06780	59.73582
11.35433	61.10056	59.73585
11.38766	61.13471	59.73576
11.42184	61.16916	59.73574
11.45600	61.20447	59.73568
11.48934	61.23845	59.73574
11.52267	61.27129	59.73586
11.55600	61.30440	59.73586
11.59017	61.33984	59.73582
11.62434	61.37574	59.73578
11.65766	61.40892	59.73585
11.69100	61.44384	59.73597
11.72434	61.47747	59.73600
11.75850	61.51224	59.73589
11.79266	61.54610	59.73590
11.82600	61.57883	59.73590
11.85934	61.61224	59.73590
11.89266	61.64610	59.73585
11.92600	61.68079	59.73586
11.95934	61.71474	59.73590
11.99266	61.74905	59.73590
12.02600	61.78376	59.73589
12.05934	61.81684	59.73606
12.09266	61.84920	59.73610
12.12600	61.88294	59.73596
12.15934	61.91507	59.73593
12.19266	61.94778	59.73596
12.22600	61.97974	59.73598
12.25934	62.01215	59.73596
12.29266	62.04530	59.73588
12.32600	62.07900	59.73601
12.35934	62.11280	59.73610
12.39266	62.14605	59.73604
12.42600	62.17868	59.73606
12.45934	62.21187	59.73606
12.49266	62.24494	59.73609
12.52600	62.27955	59.73606
12.55934	62.31330	59.73598
12.59266	62.34644	59.73606
12.62600	62.37890	59.73605
12.65934	62.41141	59.73601
12.69266	62.44201	59.73594
12.72600	62.47621	59.73601
12.75934	62.51129	59.73605
12.79283	62.54422	59.73609
12.82617	62.57766	59.73614
12.85950	62.61060	59.73616
12.89284	62.64456	59.73615
12.92616	62.67782	59.73613
12.95950	62.71268	59.73614
12.99283	62.74550	59.73608
13.02617	62.78018	59.73612
13.05950	62.81360	59.73620
13.09283	62.84710	59.73626
13.12616	62.88135	59.73628
13.15950	62.91474	59.73629
13.19283	62.94961	59.73624
13.22617	62.98312	59.73620
13.25950	63.01574	59.73616
13.29283	63.04840	59.73610
13.32617	63.08312	59.73602
13.35950	63.11684	59.73601
13.39284	63.14924	59.73606
13.42616	63.18298	59.73600
13.45950	63.21690	59.73603
13.49283	63.25033	59.73612
13.52617	63.28422	59.73609
13.55933	63.31586	59.73616
13.59266	63.34901	59.73623
13.62600	63.38305	59.73623
13.65934	63.41613	59.73632
13.69266	63.45027	59.73639
13.72600	63.48364	59.73628
13.75934	63.51530	59.73622
13.79266	63.54884	59.73623
13.82600	63.58191	59.73629
13.85933	63.61462	59.73629
13.89266	63.64844	59.73628
13.92600	63.68212	59.73622
13.95934	63.71492	59.73623
13.99266	63.74798	59.73630
14.02600	63.78268	59.73629
14.05933	63.81613	59.73645
14.09266	63.84984	59.73645
14.12600	63.88276	59.73634
14.15934	63.91548	59.73638
14.19266	63.94877	59.73642
14.22600	63.98084	59.73639
14.25917	64.01370	59.73641
14.29250	64.04550	59.73644
14.32617	64.07932	59.73638
14.35950	64.11410	59.73646
14.39284	64.14900	59.73654
14.42616	64.18150	59.73648
14.45950	64.21296	59.73638
14.49283	64.24664	59.73630
14.52617	64.27854	59.73634
14.55950	64.31232	59.73637
14.59283	64.34662	59.73641
14.62616	64.38196	59.73644
14.65950	64.41479	59.73656
14.69283	64.44805	59.73646
14.72617	64.48072	59.73644
14.75950	64.51480	59.73646
14.79450	64.54824	59.73650
14.82950	64.58337	59.73657
14.86283	64.61720	59.73650
14.89617	64.65126	59.73649
14.92950	64.68525	59.73652
14.96367	64.71954	59.73658
14.99783	64.75307	59.73672
15.03117	64.78601	59.73672
15.06450	64.82028	59.73676
15.09783	64.85468	59.73676
15.13200	64.88806	59.73675
15.16600	64.92125	59.73668
15.19934	64.95214	59.73671
15.23267	64.98314	59.73668
15.26600	65.01732	59.73668
15.30017	65.05090	59.73675
15.33434	65.08360	59.73679
15.36766	65.11716	59.73682
15.40100	65.15235	59.73682
15.43433	65.18564	59.73684
15.46934	65.21921	59.73674
15.50434	65.25532	59.73666
15.53766	65.28926	59.73672
15.57100	65.32272	59.73670
15.60434	65.35656	59.73672
15.63867	65.39124	59.73691
15.67283	65.42364	59.73699
15.70616	65.45596	59.73674
15.73950	65.48788	59.73661
15.77283	65.52042	59.73668
15.80700	65.55386	59.73676
15.84117	65.58886	59.73684
15.87450	65.62509	59.73680
15.90784	65.65972	59.73680
15.94117	65.69381	59.73686
15.97516	65.72766	59.73688
16.00933	65.76160	59.73690
16.04266	65.79384	59.73682
16.07600	65.82644	59.73676
16.10933	65.86068	59.73680
16.14434	65.89541	59.73694
16.17934	65.93171	59.73694
16.21267	65.96614	59.73692
16.24600	65.99976	59.73686
16.27934	66.03374	59.73676
16.31350	66.06814	59.73670
16.34766	66.10200	59.73678
16.38100	66.13710	59.73678
16.41434	66.17226	59.73693
16.44766	66.20600	59.73696
16.48184	66.24072	59.73688
16.51600	66.27450	59.73680
16.54934	66.31030	59.73662
16.58266	66.34390	59.73661
16.61600	66.37824	59.73672
16.65017	66.41201	59.73692
16.68434	66.44308	59.73706
16.71766	66.47401	59.73706
16.75100	66.50618	59.73705
16.78434	66.53919	59.73710
16.81934	66.57349	59.73707
16.85434	66.60805	59.73702
16.88766	66.64069	59.73711
16.92100	66.67439	59.73709
16.95434	66.70791	59.73705
16.98850	66.74189	59.73705
17.02267	66.77465	59.73700
17.05600	66.80810	59.73699
17.08933	66.84118	59.73704
17.12267	66.87400	59.73699
17.15684	66.90844	59.73700
17.19100	66.94256	59.73704
17.22434	66.97532	59.73707
17.25767	67.00806	59.73713
17.29100	67.04116	59.73720
17.32516	67.07459	59.73720
17.35933	67.10922	59.73713
17.39266	67.14244	59.73708
17.42600	67.17510	59.73704
17.45934	67.20808	59.73719
17.49434	67.24221	59.73738
17.52934	67.27675	59.73743
17.56266	67.30782	59.73750
17.59600	67.34048	59.73730
17.62934	67.37290	59.73726
17.66350	67.40520	59.73722
17.69766	67.43878	59.73720
17.73100	67.47094	59.73717
17.76434	67.50515	59.73728
17.79767	67.53894	59.73728
17.83184	67.57388	59.73713
17.86617	67.60899	59.73710
17.89950	67.64292	59.73716
17.93283	67.67550	59.73730
17.96617	67.70766	59.73734
18.00034	67.74219	59.73736
18.03450	67.77684	59.73730
18.06784	67.81190	59.73730
18.10116	67.84534	59.73736
18.13450	67.87834	59.73732
18.16934	67.91472	59.73738
18.20434	67.95171	59.73738
18.23767	67.98546	59.73738
18.27100	68.01916	59.73745
18.30434	68.05372	59.73753
18.33850	68.09006	59.73750
18.37267	68.12574	59.73742
18.40600	68.16080	59.73734
18.43933	68.19428	59.73730
18.47266	68.22776	59.73730
18.50684	68.26209	59.73719
18.54100	68.29410	59.73730
18.57434	68.32708	59.73748
18.60766	68.36218	59.73752
18.64100	68.39616	59.73750
18.67517	68.42922	59.73748
18.70934	68.46250	59.73750
18.74266	68.49586	59.73754
18.77600	68.52866	59.73754
18.80934	68.56208	59.73754
18.84434	68.59741	59.73760
18.87934	68.63071	59.73785
18.91250	68.66310	59.73782
18.94583	68.69634	59.73769
18.97916	68.72985	59.73760
19.01283	68.76287	59.73772
19.04617	68.79606	59.73774
19.07950	68.82884	59.73774
19.11283	68.86291	59.73778
19.14616	68.89674	59.73770
19.18034	68.93103	59.73768
19.21433	68.96540	59.73779
19.24767	68.99846	59.73783
19.28100	69.03182	59.73786
19.31433	69.06606	59.73782
19.34850	69.09976	59.73780
19.38267	69.13366	59.73780
19.41600	69.16593	59.73782
19.44934	69.19915	59.73777
19.48266	69.23144	59.73774
19.51684	69.26504	59.73777
19.55100	69.29922	59.73778
19.58434	69.33115	59.73777
19.61766	69.36468	59.73789
19.65100	69.39739	59.73783
19.68600	69.43124	59.73784
19.72100	69.46518	59.73792
19.75417	69.49970	59.73789
19.78750	69.53258	59.73796
19.82083	69.56556	59.73803
19.85450	69.59954	59.73804
19.88783	69.63299	59.73812
19.92117	69.66597	59.73797
19.95450	69.70034	59.73796
19.98783	69.73286	59.73789
20.02200	69.76732	59.73800
20.05617	69.80085	59.73799
20.08950	69.83350	59.73794
20.12267	69.86725	59.73789
20.15600	69.90009	59.73785
20.19017	69.93468	59.73789
20.22434	69.96930	59.73793
20.25767	70.00280	59.73804
20.29100	70.03732	59.73805
20.32434	70.06884	59.73805
20.35850	70.10312	59.73811
20.39266	70.13721	59.73814
20.42600	70.17082	59.73818
20.45934	70.20403	59.73829
20.49266	70.23856	59.73832
20.52600	70.27197	59.73832
20.55934	70.30430	59.73832
20.59266	70.33955	59.73822
20.62600	70.37346	59.73820
20.65934	70.40653	59.73828
20.69266	70.43991	59.73828
20.72600	70.47085	59.73993
20.75917	70.50299	59.74224
20.79250	70.53394	59.74324
20.82583	70.56578	59.74366
20.85917	70.59869	59.74402
20.89250	70.63324	59.74425
20.92617	70.66524	59.74443
20.95950	70.69688	59.74446
20.99284	70.72969	59.74449
21.02617	70.76403	59.74450
21.05950	70.79861	59.74446
21.09283	70.83149	59.74456
21.12617	70.86780	59.74459
21.15950	70.90132	59.74456
21.19283	70.93566	59.74453
21.22600	70.96887	59.74458
21.25933	71.00355	59.74456
21.29266	71.03706	59.74467
21.32600	71.07110	59.74476
21.35933	71.10376	59.74468
21.39266	71.13813	59.74457
21.42600	71.17116	59.74463
21.45934	71.20384	59.74485
21.49266	71.23658	59.74500
21.52600	71.26936	59.74503
21.55934	71.30243	59.74504
21.59266	71.33710	59.74520
21.62600	71.37109	59.74520
21.65934	71.40447	59.74521
21.69266	71.43907	59.74515
21.72583	71.47382	59.74522
21.75917	71.50555	59.74516
21.79283	71.53852	59.74528
21.82617	71.57141	59.74528
21.85950	71.60426	59.74551
21.89284	71.63822	59.74555
21.92617	71.67309	59.74550
21.95950	71.70688	59.74551
21.99284	71.74120	59.74535
22.02600	71.77539	59.74516
22.05934	71.80828	59.74516
22.09266	71.84240	59.74510
22.12600	71.87622	59.74512
22.15934	71.91032	59.74511
22.19266	71.94324	59.74512
22.22600	71.97648	59.74505
22.25933	72.01012	59.74494
22.29266	72.04316	59.74488
22.32600	72.07651	59.74496
22.35933	72.11034	59.74507
22.39266	72.14350	59.74521
22.42600	72.17694	59.74520
22.45934	72.21025	59.74524
22.49266	72.24372	59.74512
22.52600	72.27750	59.74515
22.55934	72.31131	59.74516
22.59266	72.34516	59.74508
22.62600	72.38006	59.74507
22.65934	72.41363	59.74503
22.69266	72.44770	59.74497
22.72600	72.48034	59.74511
22.75933	72.51230	59.74511
22.79266	72.54562	59.74511
22.82600	72.57866	59.74524
22.85933	72.61040	59.74524
22.89266	72.64422	59.74530
22.92600	72.67805	59.74530
22.95934	72.71021	59.74519
