Created as New Dataset,Sample 805 By YargerLab Date Wednesday, July 09 2025
cm-1,A
4000.00,0.0018
3999.00,0.0018
3998.00,0.0018
3997.00,0.0018
3996.00,0.0018
3995.00,0.0018
3994.00,0.0018
3993.00,0.0018
3992.00,0.0018
3991.00,0.0018
3990.00,0.0018
3989.00,0.0018
3988.00,0.0018
3987.00,0.0018
3986.00,0.0018
3985.00,0.0018
3984.00,0.0018
3983.00,0.0018
3982.00,0.0018
3981.00,0.0018
3980.00,0.0018
3979.00,0.0018
3978.00,0.0018
3977.00,0.0018
3976.00,0.0018
3975.00,0.0018
3974.00,0.0018
3973.00,0.0018
3972.00,0.0019
3971.00,0.0019
3970.00,0.0019
3969.00,0.0019
3968.00,0.0019
3967.00,0.0020
3966.00,0.0020
3965.00,0.0020
3964.00,0.0020
3963.00,0.0020
3962.00,0.0020
3961.00,0.0020
3960.00,0.0020
3959.00,0.0020
3958.00,0.0020
3957.00,0.0019
3956.00,0.0019
3955.00,0.0019
3954.00,0.0019
3953.00,0.0020
3952.00,0.0020
3951.00,0.0020
3950.00,0.0019
3949.00,0.0019
3948.00,0.0019
3947.00,0.0019
3946.00,0.0019
3945.00,0.0019
3944.00,0.0019
3943.00,0.0019
3942.00,0.0019
3941.00,0.0019
3940.00,0.0019
3939.00,0.0018
3938.00,0.0018
3937.00,0.0018
3936.00,0.0018
3935.00,0.0018
3934.00,0.0018
3933.00,0.0018
3932.00,0.0018
3931.00,0.0018
3930.00,0.0018
3929.00,0.0018
3928.00,0.0018
3927.00,0.0018
3926.00,0.0018
3925.00,0.0018
3924.00,0.0018
3923.00,0.0018
3922.00,0.0018
3921.00,0.0018
3920.00,0.0018
3919.00,0.0018
3918.00,0.0018
3917.00,0.0018
3916.00,0.0018
3915.00,0.0017
3914.00,0.0017
3913.00,0.0017
3912.00,0.0017
3911.00,0.0017
3910.00,0.0017
3909.00,0.0017
3908.00,0.0017
3907.00,0.0017
3906.00,0.0017
3905.00,0.0017
3904.00,0.0017
3903.00,0.0017
3902.00,0.0016
3901.00,0.0016
3900.00,0.0016
3899.00,0.0016
3898.00,0.0016
3897.00,0.0016
3896.00,0.0016
3895.00,0.0016
3894.00,0.0016
3893.00,0.0016
3892.00,0.0016
3891.00,0.0016
3890.00,0.0016
3889.00,0.0015
3888.00,0.0015
3887.00,0.0015
3886.00,0.0015
3885.00,0.0016
3884.00,0.0016
3883.00,0.0016
3882.00,0.0015
3881.00,0.0015
3880.00,0.0015
3879.00,0.0015
3878.00,0.0015
3877.00,0.0015
3876.00,0.0015
3875.00,0.0015
3874.00,0.0015
3873.00,0.0015
3872.00,0.0015
3871.00,0.0015
3870.00,0.0015
3869.00,0.0015
3868.00,0.0015
3867.00,0.0015
3866.00,0.0014
3865.00,0.0014
3864.00,0.0015
3863.00,0.0015
3862.00,0.0015
3861.00,0.0014
3860.00,0.0014
3859.00,0.0015
3858.00,0.0015
3857.00,0.0015
3856.00,0.0015
3855.00,0.0014
3854.00,0.0014
3853.00,0.0014
3852.00,0.0013
3851.00,0.0013
3850.00,0.0014
3849.00,0.0014
3848.00,0.0014
3847.00,0.0015
3846.00,0.0015
3845.00,0.0015
3844.00,0.0015
3843.00,0.0015
3842.00,0.0015
3841.00,0.0014
3840.00,0.0014
3839.00,0.0014
3838.00,0.0014
3837.00,0.0014
3836.00,0.0014
3835.00,0.0013
3834.00,0.0013
3833.00,0.0013
3832.00,0.0014
3831.00,0.0014
3830.00,0.0014
3829.00,0.0014
3828.00,0.0014
3827.00,0.0014
3826.00,0.0014
3825.00,0.0014
3824.00,0.0014
3823.00,0.0014
3822.00,0.0014
3821.00,0.0014
3820.00,0.0013
3819.00,0.0013
3818.00,0.0012
3817.00,0.0012
3816.00,0.0012
3815.00,0.0012
3814.00,0.0012
3813.00,0.0013
3812.00,0.0013
3811.00,0.0013
3810.00,0.0014
3809.00,0.0014
3808.00,0.0013
3807.00,0.0013
3806.00,0.0013
3805.00,0.0012
3804.00,0.0012
3803.00,0.0011
3802.00,0.0011
3801.00,0.0011
3800.00,0.0011
3799.00,0.0011
3798.00,0.0011
3797.00,0.0012
3796.00,0.0012
3795.00,0.0012
3794.00,0.0012
3793.00,0.0012
3792.00,0.0013
3791.00,0.0013
3790.00,0.0013
3789.00,0.0013
3788.00,0.0013
3787.00,0.0013
3786.00,0.0013
3785.00,0.0013
3784.00,0.0013
3783.00,0.0013
3782.00,0.0013
3781.00,0.0013
3780.00,0.0013
3779.00,0.0013
3778.00,0.0013
3777.00,0.0013
3776.00,0.0013
3775.00,0.0013
3774.00,0.0013
3773.00,0.0012
3772.00,0.0012
3771.00,0.0012
3770.00,0.0012
3769.00,0.0012
3768.00,0.0012
3767.00,0.0012
3766.00,0.0012
3765.00,0.0012
3764.00,0.0013
3763.00,0.0013
3762.00,0.0012
3761.00,0.0012
3760.00,0.0012
3759.00,0.0012
3758.00,0.0012
3757.00,0.0012
3756.00,0.0012
3755.00,0.0012
3754.00,0.0012
3753.00,0.0011
3752.00,0.0011
3751.00,0.0011
3750.00,0.0011
3749.00,0.0011
3748.00,0.0011
3747.00,0.0011
3746.00,0.0011
3745.00,0.0011
3744.00,0.0011
3743.00,0.0011
3742.00,0.0011
3741.00,0.0011
3740.00,0.0011
3739.00,0.0011
3738.00,0.0010
3737.00,0.0010
3736.00,0.0010
3735.00,0.0010
3734.00,0.0010
3733.00,0.0009
3732.00,0.0009
3731.00,0.0009
3730.00,0.0010
3729.00,0.0010
3728.00,0.0010
3727.00,0.0010
3726.00,0.0010
3725.00,0.0010
3724.00,0.0010
3723.00,0.0011
3722.00,0.0011
3721.00,0.0011
3720.00,0.0011
3719.00,0.0011
3718.00,0.0010
3717.00,0.0010
3716.00,0.0010
3715.00,0.0010
3714.00,0.0010
3713.00,0.0011
3712.00,0.0010
3711.00,0.0010
3710.00,0.0010
3709.00,0.0010
3708.00,0.0010
3707.00,0.0011
3706.00,0.0011
3705.00,0.0011
3704.00,0.0011
3703.00,0.0011
3702.00,0.0011
3701.00,0.0010
3700.00,0.0010
3699.00,0.0010
3698.00,0.0010
3697.00,0.0010
3696.00,0.0011
3695.00,0.0011
3694.00,0.0011
3693.00,0.0011
3692.00,0.0011
3691.00,0.0011
3690.00,0.0011
3689.00,0.0010
3688.00,0.0010
3687.00,0.0010
3686.00,0.0010
3685.00,0.0010
3684.00,0.0011
3683.00,0.0011
3682.00,0.0011
3681.00,0.0011
3680.00,0.0011
3679.00,0.0011
3678.00,0.0011
3677.00,0.0011
3676.00,0.0010
3675.00,0.0010
3674.00,0.0010
3673.00,0.0010
3672.00,0.0010
3671.00,0.0010
3670.00,0.0010
3669.00,0.0010
3668.00,0.0010
3667.00,0.0011
3666.00,0.0011
3665.00,0.0011
3664.00,0.0011
3663.00,0.0011
3662.00,0.0012
3661.00,0.0012
3660.00,0.0012
3659.00,0.0012
3658.00,0.0012
3657.00,0.0012
3656.00,0.0012
3655.00,0.0012
3654.00,0.0011
3653.00,0.0011
3652.00,0.0011
3651.00,0.0011
3650.00,0.0011
3649.00,0.0011
3648.00,0.0011
3647.00,0.0011
3646.00,0.0012
3645.00,0.0012
3644.00,0.0012
3643.00,0.0012
3642.00,0.0013
3641.00,0.0013
3640.00,0.0013
3639.00,0.0014
3638.00,0.0014
3637.00,0.0014
3636.00,0.0014
3635.00,0.0014
3634.00,0.0014
3633.00,0.0014
3632.00,0.0014
3631.00,0.0014
3630.00,0.0014
3629.00,0.0014
3628.00,0.0014
3627.00,0.0015
3626.00,0.0015
3625.00,0.0016
3624.00,0.0017
3623.00,0.0018
3622.00,0.0018
3621.00,0.0019
3620.00,0.0019
3619.00,0.0019
3618.00,0.0019
3617.00,0.0020
3616.00,0.0020
3615.00,0.0021
3614.00,0.0021
3613.00,0.0021
3612.00,0.0022
3611.00,0.0022
3610.00,0.0022
3609.00,0.0022
3608.00,0.0021
3607.00,0.0021
3606.00,0.0021
3605.00,0.0022
3604.00,0.0022
3603.00,0.0023
3602.00,0.0023
3601.00,0.0024
3600.00,0.0024
3599.00,0.0024
3598.00,0.0024
3597.00,0.0024
3596.00,0.0024
3595.00,0.0025
3594.00,0.0025
3593.00,0.0026
3592.00,0.0026
3591.00,0.0027
3590.00,0.0027
3589.00,0.0027
3588.00,0.0027
3587.00,0.0028
3586.00,0.0028
3585.00,0.0029
3584.00,0.0030
3583.00,0.0031
3582.00,0.0031
3581.00,0.0032
3580.00,0.0033
3579.00,0.0033
3578.00,0.0034
3577.00,0.0035
3576.00,0.0035
3575.00,0.0036
3574.00,0.0037
3573.00,0.0038
3572.00,0.0039
3571.00,0.0040
3570.00,0.0040
3569.00,0.0041
3568.00,0.0043
3567.00,0.0044
3566.00,0.0045
3565.00,0.0046
3564.00,0.0046
3563.00,0.0047
3562.00,0.0049
3561.00,0.0050
3560.00,0.0051
3559.00,0.0053
3558.00,0.0054
3557.00,0.0055
3556.00,0.0056
3555.00,0.0058
3554.00,0.0059
3553.00,0.0060
3552.00,0.0062
3551.00,0.0064
3550.00,0.0066
3549.00,0.0068
3548.00,0.0070
3547.00,0.0072
3546.00,0.0075
3545.00,0.0077
3544.00,0.0080
3543.00,0.0083
3542.00,0.0085
3541.00,0.0088
3540.00,0.0092
3539.00,0.0095
3538.00,0.0099
3537.00,0.0103
3536.00,0.0108
3535.00,0.0114
3534.00,0.0120
3533.00,0.0126
3532.00,0.0134
3531.00,0.0143
3530.00,0.0153
3529.00,0.0165
3528.00,0.0177
3527.00,0.0190
3526.00,0.0202
3525.00,0.0214
3524.00,0.0224
3523.00,0.0232
3522.00,0.0237
3521.00,0.0240
3520.00,0.0240
3519.00,0.0238
3518.00,0.0235
3517.00,0.0230
3516.00,0.0225
3515.00,0.0219
3514.00,0.0212
3513.00,0.0206
3512.00,0.0201
3511.00,0.0196
3510.00,0.0193
3509.00,0.0190
3508.00,0.0189
3507.00,0.0188
3506.00,0.0188
3505.00,0.0188
3504.00,0.0190
3503.00,0.0191
3502.00,0.0193
3501.00,0.0196
3500.00,0.0198
3499.00,0.0201
3498.00,0.0204
3497.00,0.0207
3496.00,0.0211
3495.00,0.0216
3494.00,0.0220
3493.00,0.0225
3492.00,0.0230
3491.00,0.0235
3490.00,0.0240
3489.00,0.0246
3488.00,0.0252
3487.00,0.0258
3486.00,0.0264
3485.00,0.0270
3484.00,0.0277
3483.00,0.0284
3482.00,0.0291
3481.00,0.0298
3480.00,0.0306
3479.00,0.0313
3478.00,0.0321
3477.00,0.0330
3476.00,0.0339
3475.00,0.0349
3474.00,0.0359
3473.00,0.0370
3472.00,0.0382
3471.00,0.0396
3470.00,0.0411
3469.00,0.0428
3468.00,0.0447
3467.00,0.0467
3466.00,0.0490
3465.00,0.0515
3464.00,0.0542
3463.00,0.0572
3462.00,0.0605
3461.00,0.0642
3460.00,0.0683
3459.00,0.0727
3458.00,0.0774
3457.00,0.0824
3456.00,0.0875
3455.00,0.0926
3454.00,0.0975
3453.00,0.1017
3452.00,0.1051
3451.00,0.1074
3450.00,0.1083
3449.00,0.1079
3448.00,0.1063
3447.00,0.1035
3446.00,0.1000
3445.00,0.0959
3444.00,0.0916
3443.00,0.0872
3442.00,0.0829
3441.00,0.0788
3440.00,0.0751
3439.00,0.0718
3438.00,0.0688
3437.00,0.0661
3436.00,0.0638
3435.00,0.0619
3434.00,0.0601
3433.00,0.0587
3432.00,0.0575
3431.00,0.0564
3430.00,0.0555
3429.00,0.0547
3428.00,0.0540
3427.00,0.0534
3426.00,0.0529
3425.00,0.0525
3424.00,0.0522
3423.00,0.0519
3422.00,0.0517
3421.00,0.0516
3420.00,0.0515
3419.00,0.0514
3418.00,0.0514
3417.00,0.0513
3416.00,0.0513
3415.00,0.0513
3414.00,0.0512
3413.00,0.0512
3412.00,0.0510
3411.00,0.0508
3410.00,0.0505
3409.00,0.0502
3408.00,0.0497
3407.00,0.0492
3406.00,0.0486
3405.00,0.0480
3404.00,0.0473
3403.00,0.0465
3402.00,0.0457
3401.00,0.0449
3400.00,0.0440
3399.00,0.0431
3398.00,0.0422
3397.00,0.0414
3396.00,0.0406
3395.00,0.0398
3394.00,0.0391
3393.00,0.0385
3392.00,0.0378
3391.00,0.0372
3390.00,0.0366
3389.00,0.0360
3388.00,0.0355
3387.00,0.0351
3386.00,0.0346
3385.00,0.0342
3384.00,0.0339
3383.00,0.0335
3382.00,0.0332
3381.00,0.0328
3380.00,0.0325
3379.00,0.0322
3378.00,0.0319
3377.00,0.0316
3376.00,0.0313
3375.00,0.0310
3374.00,0.0308
3373.00,0.0305
3372.00,0.0303
3371.00,0.0300
3370.00,0.0298
3369.00,0.0296
3368.00,0.0294
3367.00,0.0292
3366.00,0.0290
3365.00,0.0288
3364.00,0.0286
3363.00,0.0284
3362.00,0.0282
3361.00,0.0280
3360.00,0.0278
3359.00,0.0276
3358.00,0.0274
3357.00,0.0272
3356.00,0.0271
3355.00,0.0270
3354.00,0.0269
3353.00,0.0268
3352.00,0.0266
3351.00,0.0265
3350.00,0.0264
3349.00,0.0262
3348.00,0.0261
3347.00,0.0259
3346.00,0.0258
3345.00,0.0257
3344.00,0.0255
3343.00,0.0254
3342.00,0.0253
3341.00,0.0252
3340.00,0.0251
3339.00,0.0250
3338.00,0.0249
3337.00,0.0248
3336.00,0.0247
3335.00,0.0246
3334.00,0.0245
3333.00,0.0244
3332.00,0.0243
3331.00,0.0242
3330.00,0.0242
3329.00,0.0241
3328.00,0.0241
3327.00,0.0240
3326.00,0.0240
3325.00,0.0240
3324.00,0.0239
3323.00,0.0239
3322.00,0.0238
3321.00,0.0238
3320.00,0.0238
3319.00,0.0238
3318.00,0.0237
3317.00,0.0237
3316.00,0.0237
3315.00,0.0236
3314.00,0.0236
3313.00,0.0236
3312.00,0.0236
3311.00,0.0236
3310.00,0.0235
3309.00,0.0235
3308.00,0.0235
3307.00,0.0235
3306.00,0.0235
3305.00,0.0235
3304.00,0.0236
3303.00,0.0236
3302.00,0.0237
3301.00,0.0237
3300.00,0.0237
3299.00,0.0237
3298.00,0.0238
3297.00,0.0238
3296.00,0.0238
3295.00,0.0238
3294.00,0.0238
3293.00,0.0239
3292.00,0.0240
3291.00,0.0241
3290.00,0.0242
3289.00,0.0244
3288.00,0.0245
3287.00,0.0246
3286.00,0.0247
3285.00,0.0248
3284.00,0.0249
3283.00,0.0249
3282.00,0.0250
3281.00,0.0251
3280.00,0.0252
3279.00,0.0252
3278.00,0.0253
3277.00,0.0253
3276.00,0.0253
3275.00,0.0253
3274.00,0.0254
3273.00,0.0254
3272.00,0.0255
3271.00,0.0256
3270.00,0.0258
3269.00,0.0260
3268.00,0.0263
3267.00,0.0266
3266.00,0.0268
3265.00,0.0269
3264.00,0.0270
3263.00,0.0271
3262.00,0.0272
3261.00,0.0272
3260.00,0.0273
3259.00,0.0274
3258.00,0.0274
3257.00,0.0274
3256.00,0.0275
3255.00,0.0276
3254.00,0.0278
3253.00,0.0279
3252.00,0.0280
3251.00,0.0281
3250.00,0.0281
3249.00,0.0281
3248.00,0.0282
3247.00,0.0282
3246.00,0.0284
3245.00,0.0286
3244.00,0.0287
3243.00,0.0289
3242.00,0.0290
3241.00,0.0291
3240.00,0.0293
3239.00,0.0294
3238.00,0.0294
3237.00,0.0295
3236.00,0.0295
3235.00,0.0296
3234.00,0.0297
3233.00,0.0299
3232.00,0.0300
3231.00,0.0302
3230.00,0.0303
3229.00,0.0304
3228.00,0.0305
3227.00,0.0306
3226.00,0.0308
3225.00,0.0309
3224.00,0.0310
3223.00,0.0311
3222.00,0.0312
3221.00,0.0314
3220.00,0.0315
3219.00,0.0316
3218.00,0.0317
3217.00,0.0318
3216.00,0.0319
3215.00,0.0320
3214.00,0.0322
3213.00,0.0323
3212.00,0.0325
3211.00,0.0326
3210.00,0.0327
3209.00,0.0329
3208.00,0.0330
3207.00,0.0332
3206.00,0.0333
3205.00,0.0335
3204.00,0.0336
3203.00,0.0337
3202.00,0.0338
3201.00,0.0340
3200.00,0.0341
3199.00,0.0342
3198.00,0.0343
3197.00,0.0344
3196.00,0.0344
3195.00,0.0345
3194.00,0.0345
3193.00,0.0346
3192.00,0.0346
3191.00,0.0347
3190.00,0.0347
3189.00,0.0348
3188.00,0.0349
3187.00,0.0349
3186.00,0.0350
3185.00,0.0351
3184.00,0.0351
3183.00,0.0352
3182.00,0.0352
3181.00,0.0353
3180.00,0.0353
3179.00,0.0354
3178.00,0.0355
3177.00,0.0355
3176.00,0.0355
3175.00,0.0356
3174.00,0.0356
3173.00,0.0356
3172.00,0.0357
3171.00,0.0357
3170.00,0.0357
3169.00,0.0358
3168.00,0.0358
3167.00,0.0358
3166.00,0.0358
3165.00,0.0359
3164.00,0.0359
3163.00,0.0359
3162.00,0.0359
3161.00,0.0358
3160.00,0.0358
3159.00,0.0358
3158.00,0.0358
3157.00,0.0358
3156.00,0.0357
3155.00,0.0356
3154.00,0.0355
3153.00,0.0356
3152.00,0.0357
3151.00,0.0359
3150.00,0.0362
3149.00,0.0364
3148.00,0.0366
3147.00,0.0368
3146.00,0.0370
3145.00,0.0371
3144.00,0.0373
3143.00,0.0373
3142.00,0.0374
3141.00,0.0374
3140.00,0.0375
3139.00,0.0376
3138.00,0.0378
3137.00,0.0380
3136.00,0.0382
3135.00,0.0384
3134.00,0.0385
3133.00,0.0385
3132.00,0.0385
3131.00,0.0386
3130.00,0.0386
3129.00,0.0387
3128.00,0.0389
3127.00,0.0390
3126.00,0.0391
3125.00,0.0391
3124.00,0.0391
3123.00,0.0391
3122.00,0.0391
3121.00,0.0391
3120.00,0.0391
3119.00,0.0392
3118.00,0.0393
3117.00,0.0394
3116.00,0.0395
3115.00,0.0397
3114.00,0.0399
3113.00,0.0401
3112.00,0.0402
3111.00,0.0404
3110.00,0.0405
3109.00,0.0407
3108.00,0.0409
3107.00,0.0410
3106.00,0.0412
3105.00,0.0413
3104.00,0.0414
3103.00,0.0415
3102.00,0.0415
3101.00,0.0416
3100.00,0.0417
3099.00,0.0418
3098.00,0.0418
3097.00,0.0419
3096.00,0.0419
3095.00,0.0419
3094.00,0.0419
3093.00,0.0419
3092.00,0.0419
3091.00,0.0419
3090.00,0.0420
3089.00,0.0420
3088.00,0.0422
3087.00,0.0423
3086.00,0.0424
3085.00,0.0426
3084.00,0.0428
3083.00,0.0431
3082.00,0.0434
3081.00,0.0439
3080.00,0.0444
3079.00,0.0452
3078.00,0.0460
3077.00,0.0470
3076.00,0.0480
3075.00,0.0488
3074.00,0.0495
3073.00,0.0498
3072.00,0.0500
3071.00,0.0498
3070.00,0.0495
3069.00,0.0490
3068.00,0.0484
3067.00,0.0477
3066.00,0.0469
3065.00,0.0460
3064.00,0.0452
3063.00,0.0443
3062.00,0.0435
3061.00,0.0426
3060.00,0.0418
3059.00,0.0410
3058.00,0.0403
3057.00,0.0397
3056.00,0.0392
3055.00,0.0388
3054.00,0.0385
3053.00,0.0382
3052.00,0.0379
3051.00,0.0376
3050.00,0.0374
3049.00,0.0372
3048.00,0.0371
3047.00,0.0369
3046.00,0.0368
3045.00,0.0367
3044.00,0.0367
3043.00,0.0367
3042.00,0.0367
3041.00,0.0368
3040.00,0.0368
3039.00,0.0369
3038.00,0.0369
3037.00,0.0369
3036.00,0.0369
3035.00,0.0370
3034.00,0.0370
3033.00,0.0369
3032.00,0.0368
3031.00,0.0367
3030.00,0.0365
3029.00,0.0363
3028.00,0.0360
3027.00,0.0357
3026.00,0.0354
3025.00,0.0351
3024.00,0.0348
3023.00,0.0346
3022.00,0.0343
3021.00,0.0341
3020.00,0.0339
3019.00,0.0338
3018.00,0.0336
3017.00,0.0335
3016.00,0.0334
3015.00,0.0333
3014.00,0.0333
3013.00,0.0333
3012.00,0.0334
3011.00,0.0335
3010.00,0.0336
3009.00,0.0337
3008.00,0.0338
3007.00,0.0340
3006.00,0.0342
3005.00,0.0343
3004.00,0.0346
3003.00,0.0348
3002.00,0.0350
3001.00,0.0353
3000.00,0.0356
2999.00,0.0360
2998.00,0.0364
2997.00,0.0369
2996.00,0.0375
2995.00,0.0381
2994.00,0.0388
2993.00,0.0395
2992.00,0.0403
2991.00,0.0411
2990.00,0.0418
2989.00,0.0425
2988.00,0.0430
2987.00,0.0434
2986.00,0.0438
2985.00,0.0441
2984.00,0.0447
2983.00,0.0453
2982.00,0.0462
2981.00,0.0474
2980.00,0.0487
2979.00,0.0502
2978.00,0.0518
2977.00,0.0534
2976.00,0.0550
2975.00,0.0566
2974.00,0.0582
2973.00,0.0598
2972.00,0.0614
2971.00,0.0631
2970.00,0.0648
2969.00,0.0665
2968.00,0.0681
2967.00,0.0697
2966.00,0.0713
2965.00,0.0729
2964.00,0.0747
2963.00,0.0767
2962.00,0.0789
2961.00,0.0813
2960.00,0.0837
2959.00,0.0858
2958.00,0.0877
2957.00,0.0891
2956.00,0.0901
2955.00,0.0907
2954.00,0.0909
2953.00,0.0906
2952.00,0.0898
2951.00,0.0886
2950.00,0.0871
2949.00,0.0854
2948.00,0.0838
2947.00,0.0827
2946.00,0.0824
2945.00,0.0829
2944.00,0.0843
2943.00,0.0864
2942.00,0.0891
2941.00,0.0923
2940.00,0.0958
2939.00,0.0995
2938.00,0.1033
2937.00,0.1074
2936.00,0.1118
2935.00,0.1164
2934.00,0.1215
2933.00,0.1269
2932.00,0.1327
2931.00,0.1387
2930.00,0.1447
2929.00,0.1504
2928.00,0.1553
2927.00,0.1592
2926.00,0.1618
2925.00,0.1631
2924.00,0.1632
2923.00,0.1622
2922.00,0.1603
2921.00,0.1578
2920.00,0.1547
2919.00,0.1513
2918.00,0.1476
2917.00,0.1439
2916.00,0.1400
2915.00,0.1359
2914.00,0.1317
2913.00,0.1273
2912.00,0.1227
2911.00,0.1180
2910.00,0.1134
2909.00,0.1088
2908.00,0.1045
2907.00,0.1005
2906.00,0.0969
2905.00,0.0937
2904.00,0.0909
2903.00,0.0884
2902.00,0.0862
2901.00,0.0843
2900.00,0.0825
2899.00,0.0807
2898.00,0.0789
2897.00,0.0772
2896.00,0.0755
2895.00,0.0740
2894.00,0.0727
2893.00,0.0714
2892.00,0.0704
2891.00,0.0695
2890.00,0.0687
2889.00,0.0681
2888.00,0.0677
2887.00,0.0673
2886.00,0.0669
2885.00,0.0666
2884.00,0.0664
2883.00,0.0662
2882.00,0.0661
2881.00,0.0662
2880.00,0.0665
2879.00,0.0671
2878.00,0.0679
2877.00,0.0691
2876.00,0.0706
2875.00,0.0724
2874.00,0.0744
2873.00,0.0764
2872.00,0.0780
2871.00,0.0789
2870.00,0.0789
2869.00,0.0780
2868.00,0.0767
2867.00,0.0753
2866.00,0.0745
2865.00,0.0745
2864.00,0.0755
2863.00,0.0776
2862.00,0.0805
2861.00,0.0841
2860.00,0.0880
2859.00,0.0917
2858.00,0.0948
2857.00,0.0967
2856.00,0.0971
2855.00,0.0960
2854.00,0.0935
2853.00,0.0901
2852.00,0.0860
2851.00,0.0817
2850.00,0.0772
2849.00,0.0730
2848.00,0.0691
2847.00,0.0656
2846.00,0.0627
2845.00,0.0603
2844.00,0.0583
2843.00,0.0566
2842.00,0.0551
2841.00,0.0537
2840.00,0.0526
2839.00,0.0519
2838.00,0.0517
2837.00,0.0520
2836.00,0.0527
2835.00,0.0535
2834.00,0.0542
2833.00,0.0547
2832.00,0.0547
2831.00,0.0540
2830.00,0.0527
2829.00,0.0507
2828.00,0.0482
2827.00,0.0455
2826.00,0.0428
2825.00,0.0404
2824.00,0.0383
2823.00,0.0365
2822.00,0.0350
2821.00,0.0338
2820.00,0.0328
2819.00,0.0319
2818.00,0.0312
2817.00,0.0306
2816.00,0.0300
2815.00,0.0295
2814.00,0.0291
2813.00,0.0287
2812.00,0.0283
2811.00,0.0279
2810.00,0.0276
2809.00,0.0273
2808.00,0.0270
2807.00,0.0267
2806.00,0.0265
2805.00,0.0263
2804.00,0.0261
2803.00,0.0259
2802.00,0.0257
2801.00,0.0255
2800.00,0.0253
2799.00,0.0252
2798.00,0.0250
2797.00,0.0249
2796.00,0.0248
2795.00,0.0247
2794.00,0.0245
2793.00,0.0244
2792.00,0.0243
2791.00,0.0242
2790.00,0.0241
2789.00,0.0240
2788.00,0.0240
2787.00,0.0239
2786.00,0.0239
2785.00,0.0239
2784.00,0.0238
2783.00,0.0238
2782.00,0.0238
2781.00,0.0238
2780.00,0.0239
2779.00,0.0239
2778.00,0.0239
2777.00,0.0240
2776.00,0.0241
2775.00,0.0241
2774.00,0.0242
2773.00,0.0243
2772.00,0.0244
2771.00,0.0245
2770.00,0.0245
2769.00,0.0246
2768.00,0.0247
2767.00,0.0248
2766.00,0.0248
2765.00,0.0249
2764.00,0.0250
2763.00,0.0251
2762.00,0.0252
2761.00,0.0252
2760.00,0.0253
2759.00,0.0254
2758.00,0.0254
2757.00,0.0254
