PE IR       SUBTECH     SPECTRUM    ASCII       PEDS        4.00        
   -1
benzoic acid 5_6_24.ASC
24/05/06
15:03:37.00
24/05/06
15:03:37.00
Yarger Lab
Sample 052 By YargerLab Date Wednesday, May 01 2024
400.000000
#HDR
-1
-1
#GR
cm-1
%T
1.0
0.0
4000.000000
-1.000000
3601
8
96.454055
45.553097
#DATA
4000.000000	96.151969
3999.000000	96.157596
3998.000000	96.162894
3997.000000	96.167988
3996.000000	96.173102
3995.000000	96.178236
3994.000000	96.182994
3993.000000	96.186756
3992.000000	96.189168
3991.000000	96.190488
3990.000000	96.191456
3989.000000	96.192787
3988.000000	96.194667
3987.000000	96.196684
3986.000000	96.198193
3985.000000	96.198794
3984.000000	96.198556
3983.000000	96.197849
3982.000000	96.197116
3981.000000	96.196770
3980.000000	96.197095
3979.000000	96.198047
3978.000000	96.199153
3977.000000	96.199835
3976.000000	96.199972
3975.000000	96.200127
3974.000000	96.201119
3973.000000	96.203282
3972.000000	96.206092
3971.000000	96.208523
3970.000000	96.209821
3969.000000	96.210072
3968.000000	96.209989
3967.000000	96.210088
3966.000000	96.210267
3965.000000	96.210213
3964.000000	96.209995
3963.000000	96.209963
3962.000000	96.210121
3961.000000	96.210037
3960.000000	96.209436
3959.000000	96.208625
3958.000000	96.208194
3957.000000	96.208409
3956.000000	96.209017
3955.000000	96.209422
3954.000000	96.209162
3953.000000	96.208288
3952.000000	96.207269
3951.000000	96.206492
3950.000000	96.205887
3949.000000	96.205049
3948.000000	96.203557
3947.000000	96.201227
3946.000000	96.198485
3945.000000	96.196585
3944.000000	96.196840
3943.000000	96.199215
3942.000000	96.202084
3941.000000	96.203917
3940.000000	96.204641
3939.000000	96.205076
3938.000000	96.205536
3937.000000	96.205511
3936.000000	96.204828
3935.000000	96.204369
3934.000000	96.205306
3933.000000	96.207778
3932.000000	96.210520
3931.000000	96.211981
3930.000000	96.211370
3929.000000	96.208887
3928.000000	96.205510
3927.000000	96.202518
3926.000000	96.200613
3925.000000	96.199274
3924.000000	96.197669
3923.000000	96.196117
3922.000000	96.195898
3921.000000	96.197697
3920.000000	96.200803
3919.000000	96.203783
3918.000000	96.205502
3917.000000	96.205542
3916.000000	96.204263
3915.000000	96.202807
3914.000000	96.202378
3913.000000	96.203535
3912.000000	96.205938
3911.000000	96.208684
3910.000000	96.210972
3909.000000	96.212268
3908.000000	96.212547
3907.000000	96.212245
3906.000000	96.211998
3905.000000	96.211712
3904.000000	96.210290
3903.000000	96.207251
3902.000000	96.204035
3901.000000	96.202999
3900.000000	96.205026
3899.000000	96.208842
3898.000000	96.212629
3897.000000	96.215741
3896.000000	96.218327
3895.000000	96.220648
3894.000000	96.223051
3893.000000	96.226027
3892.000000	96.228776
3891.000000	96.228726
3890.000000	96.224415
3889.000000	96.217471
3888.000000	96.212140
3887.000000	96.211927
3886.000000	96.215132
3885.000000	96.216563
3884.000000	96.214180
3883.000000	96.210670
3882.000000	96.209734
3881.000000	96.212000
3880.000000	96.214470
3879.000000	96.214523
3878.000000	96.212511
3877.000000	96.210855
3876.000000	96.211970
3875.000000	96.215296
3874.000000	96.216894
3873.000000	96.214326
3872.000000	96.210459
3871.000000	96.209642
3870.000000	96.210569
3869.000000	96.208521
3868.000000	96.203262
3867.000000	96.199259
3866.000000	96.199816
3865.000000	96.203486
3864.000000	96.206604
3863.000000	96.208109
3862.000000	96.209214
3861.000000	96.210423
3860.000000	96.211215
3859.000000	96.210367
3858.000000	96.206239
3857.000000	96.197940
3856.000000	96.188564
3855.000000	96.184717
3854.000000	96.186260
3853.000000	96.186046
3852.000000	96.184054
3851.000000	96.185533
3850.000000	96.191859
3849.000000	96.200817
3848.000000	96.209793
3847.000000	96.217624
3846.000000	96.224064
3845.000000	96.228987
3844.000000	96.231956
3843.000000	96.232398
3842.000000	96.230376
3841.000000	96.227660
3840.000000	96.226869
3839.000000	96.228340
3838.000000	96.229505
3837.000000	96.228297
3836.000000	96.225569
3835.000000	96.223447
3834.000000	96.223475
3833.000000	96.226262
3832.000000	96.231104
3831.000000	96.235951
3830.000000	96.238871
3829.000000	96.240107
3828.000000	96.241869
3827.000000	96.245127
3826.000000	96.247382
3825.000000	96.245316
3824.000000	96.239258
3823.000000	96.233962
3822.000000	96.232869
3821.000000	96.232749
3820.000000	96.230057
3819.000000	96.226205
3818.000000	96.225636
3817.000000	96.230930
3816.000000	96.238446
3815.000000	96.243173
3814.000000	96.245239
3813.000000	96.247763
3812.000000	96.251489
3811.000000	96.254011
3810.000000	96.253184
3809.000000	96.250774
3808.000000	96.250166
3807.000000	96.250858
3806.000000	96.249283
3805.000000	96.244387
3804.000000	96.239525
3803.000000	96.239612
3802.000000	96.243865
3801.000000	96.245963
3800.000000	96.244571
3799.000000	96.244508
3798.000000	96.249490
3797.000000	96.258292
3796.000000	96.266230
3795.000000	96.270077
3794.000000	96.270552
3793.000000	96.270321
3792.000000	96.271181
3791.000000	96.273011
3790.000000	96.274517
3789.000000	96.274747
3788.000000	96.274054
3787.000000	96.273733
3786.000000	96.274696
3785.000000	96.276505
3784.000000	96.277667
3783.000000	96.277010
3782.000000	96.274788
3781.000000	96.272738
3780.000000	96.272114
3779.000000	96.272011
3778.000000	96.270838
3777.000000	96.268856
3776.000000	96.268035
3775.000000	96.269332
3774.000000	96.271544
3773.000000	96.273530
3772.000000	96.276118
3771.000000	96.279856
3770.000000	96.282597
3769.000000	96.282223
3768.000000	96.280373
3767.000000	96.280461
3766.000000	96.283189
3765.000000	96.285608
3764.000000	96.284725
3763.000000	96.280784
3762.000000	96.276263
3761.000000	96.273271
3760.000000	96.272222
3759.000000	96.272653
3758.000000	96.273973
3757.000000	96.274866
3756.000000	96.273743
3755.000000	96.269977
3754.000000	96.264443
3753.000000	96.258617
3752.000000	96.253463
3751.000000	96.248997
3750.000000	96.244956
3749.000000	96.240985
3748.000000	96.236528
3747.000000	96.232918
3746.000000	96.234901
3745.000000	96.242585
3744.000000	96.248173
3743.000000	96.249319
3742.000000	96.250561
3741.000000	96.254346
3740.000000	96.259497
3739.000000	96.263530
3738.000000	96.265740
3737.000000	96.266955
3736.000000	96.267193
3735.000000	96.265774
3734.000000	96.263018
3733.000000	96.260110
3732.000000	96.257409
3731.000000	96.254101
3730.000000	96.249132
3729.000000	96.242746
3728.000000	96.236592
3727.000000	96.231435
3726.000000	96.226470
3725.000000	96.222246
3724.000000	96.221400
3723.000000	96.225381
3722.000000	96.231924
3721.000000	96.237374
3720.000000	96.240915
3719.000000	96.245007
3718.000000	96.251709
3717.000000	96.260114
3716.000000	96.267311
3715.000000	96.271334
3714.000000	96.272049
3713.000000	96.270565
3712.000000	96.267850
3711.000000	96.264072
3710.000000	96.259815
3709.000000	96.256586
3708.000000	96.256713
3707.000000	96.260854
3706.000000	96.267345
3705.000000	96.274251
3704.000000	96.281589
3703.000000	96.290146
3702.000000	96.298722
3701.000000	96.304573
3700.000000	96.306749
3699.000000	96.307069
3698.000000	96.307474
3697.000000	96.308487
3696.000000	96.309490
3695.000000	96.310320
3694.000000	96.310647
3693.000000	96.309518
3692.000000	96.306244
3691.000000	96.301563
3690.000000	96.297076
3689.000000	96.293416
3688.000000	96.291535
3687.000000	96.292555
3686.000000	96.296444
3685.000000	96.301579
3684.000000	96.306065
3683.000000	96.308190
3682.000000	96.307449
3681.000000	96.304910
3680.000000	96.301159
3679.000000	96.295218
3678.000000	96.286842
3677.000000	96.279627
3676.000000	96.275902
3675.000000	96.273347
3674.000000	96.270177
3673.000000	96.267122
3672.000000	96.266220
3671.000000	96.267931
3670.000000	96.267443
3669.000000	96.260672
3668.000000	96.250448
3667.000000	96.241744
3666.000000	96.236156
3665.000000	96.232453
3664.000000	96.229631
3663.000000	96.228121
3662.000000	96.228986
3661.000000	96.232525
3660.000000	96.238162
3659.000000	96.245183
3658.000000	96.253220
3657.000000	96.261680
3656.000000	96.269066
3655.000000	96.274163
3654.000000	96.276487
3653.000000	96.276425
3652.000000	96.276070
3651.000000	96.277691
3650.000000	96.281081
3649.000000	96.285203
3648.000000	96.290824
3647.000000	96.298729
3646.000000	96.307859
3645.000000	96.317015
3644.000000	96.326257
3643.000000	96.335582
3642.000000	96.343736
3641.000000	96.349649
3640.000000	96.354327
3639.000000	96.359142
3638.000000	96.363316
3637.000000	96.365224
3636.000000	96.365387
3635.000000	96.365804
3634.000000	96.366488
3633.000000	96.365375
3632.000000	96.361801
3631.000000	96.358862
3630.000000	96.359812
3629.000000	96.361891
3628.000000	96.361278
3627.000000	96.359791
3626.000000	96.360390
3625.000000	96.363134
3624.000000	96.366463
3623.000000	96.368603
3622.000000	96.368511
3621.000000	96.366484
3620.000000	96.363826
3619.000000	96.361329
3618.000000	96.359205
3617.000000	96.358358
3616.000000	96.360587
3615.000000	96.366790
3614.000000	96.374806
3613.000000	96.380836
3612.000000	96.383452
3611.000000	96.384532
3610.000000	96.386107
3609.000000	96.387832
3608.000000	96.388494
3607.000000	96.388067
3606.000000	96.387577
3605.000000	96.387598
3604.000000	96.388206
3603.000000	96.389263
3602.000000	96.390168
3601.000000	96.390382
3600.000000	96.390129
3599.000000	96.390121
3598.000000	96.390115
3597.000000	96.389483
3596.000000	96.388498
3595.000000	96.388354
3594.000000	96.389368
3593.000000	96.390846
3592.000000	96.391933
3591.000000	96.392028
3590.000000	96.391220
3589.000000	96.390719
3588.000000	96.392065
3587.000000	96.395165
3586.000000	96.398486
3585.000000	96.400890
3584.000000	96.402802
3583.000000	96.405103
3582.000000	96.407388
3581.000000	96.408569
3580.000000	96.408265
3579.000000	96.407202
3578.000000	96.405917
3577.000000	96.404857
3576.000000	96.404825
3575.000000	96.406530
3574.000000	96.409412
3573.000000	96.412100
3572.000000	96.413450
3571.000000	96.412653
3570.000000	96.409393
3569.000000	96.404940
3568.000000	96.401987
3567.000000	96.402141
3566.000000	96.404671
3565.000000	96.408359
3564.000000	96.412996
3563.000000	96.418462
3562.000000	96.423418
3561.000000	96.426345
3560.000000	96.427429
3559.000000	96.428208
3558.000000	96.429556
3557.000000	96.431038
3556.000000	96.431980
3555.000000	96.432133
3554.000000	96.431532
3553.000000	96.430616
3552.000000	96.430327
3551.000000	96.431253
3550.000000	96.432935
3549.000000	96.434601
3548.000000	96.436156
3547.000000	96.437678
3546.000000	96.438694
3545.000000	96.438980
3544.000000	96.439291
3543.000000	96.440291
3542.000000	96.441537
3541.000000	96.442390
3540.000000	96.443111
3539.000000	96.443911
3538.000000	96.443909
3537.000000	96.442409
3536.000000	96.440562
3535.000000	96.440252
3534.000000	96.441724
3533.000000	96.443711
3532.000000	96.445309
3531.000000	96.446469
3530.000000	96.447028
3529.000000	96.446751
3528.000000	96.446065
3527.000000	96.445541
3526.000000	96.444970
3525.000000	96.444016
3524.000000	96.443310
3523.000000	96.443679
3522.000000	96.444776
3521.000000	96.445636
3520.000000	96.446204
3519.000000	96.447066
3518.000000	96.448193
3517.000000	96.449254
3516.000000	96.450598
3515.000000	96.452529
3514.000000	96.454055
3513.000000	96.453843
3512.000000	96.452110
3511.000000	96.450248
3510.000000	96.448904
3509.000000	96.447790
3508.000000	96.447003
3507.000000	96.447068
3506.000000	96.447870
3505.000000	96.448745
3504.000000	96.449375
3503.000000	96.449663
3502.000000	96.449247
3501.000000	96.448141
3500.000000	96.447398
3499.000000	96.447977
3498.000000	96.449328
3497.000000	96.450198
3496.000000	96.450316
3495.000000	96.450146
3494.000000	96.449542
3493.000000	96.448025
3492.000000	96.445949
3491.000000	96.444104
3490.000000	96.442553
3489.000000	96.440979
3488.000000	96.439653
3487.000000	96.438919
3486.000000	96.438354
3485.000000	96.437707
3484.000000	96.437990
3483.000000	96.440157
3482.000000	96.443229
3481.000000	96.445262
3480.000000	96.445802
3479.000000	96.445934
3478.000000	96.446403
3477.000000	96.447090
3476.000000	96.447856
3475.000000	96.448519
3474.000000	96.448432
3473.000000	96.447419
3472.000000	96.446663
3471.000000	96.447270
3470.000000	96.448331
3469.000000	96.447769
3468.000000	96.444825
3467.000000	96.440560
3466.000000	96.436504
3465.000000	96.434038
3464.000000	96.434317
3463.000000	96.437128
3462.000000	96.440127
3461.000000	96.440668
3460.000000	96.438237
3459.000000	96.434156
3458.000000	96.429803
3457.000000	96.426292
3456.000000	96.424787
3455.000000	96.425340
3454.000000	96.426014
3453.000000	96.424755
3452.000000	96.421711
3451.000000	96.418500
3450.000000	96.415962
3449.000000	96.413954
3448.000000	96.412420
3447.000000	96.411010
3446.000000	96.408421
3445.000000	96.403880
3444.000000	96.398820
3443.000000	96.395630
3442.000000	96.395210
3441.000000	96.396944
3440.000000	96.400100
3439.000000	96.403558
3438.000000	96.405040
3437.000000	96.402736
3436.000000	96.397510
3435.000000	96.391897
3434.000000	96.387263
3433.000000	96.383392
3432.000000	96.380070
3431.000000	96.377200
3430.000000	96.373691
3429.000000	96.368205
3428.000000	96.361122
3427.000000	96.354335
3426.000000	96.349164
3425.000000	96.345657
3424.000000	96.343549
3423.000000	96.342347
3422.000000	96.340658
3421.000000	96.337005
3420.000000	96.331524
3419.000000	96.325892
3418.000000	96.321849
3417.000000	96.320580
3416.000000	96.322546
3415.000000	96.326420
3414.000000	96.328881
3413.000000	96.327208
3412.000000	96.321839
3411.000000	96.315151
3410.000000	96.308285
3409.000000	96.300739
3408.000000	96.292625
3407.000000	96.285833
3406.000000	96.283275
3405.000000	96.287895
3404.000000	96.300970
3403.000000	96.318967
3402.000000	96.332793
3401.000000	96.333183
3400.000000	96.318071
3399.000000	96.293806
3398.000000	96.269809
3397.000000	96.253522
3396.000000	96.248978
3395.000000	96.256046
3394.000000	96.269017
3393.000000	96.278003
3392.000000	96.274371
3391.000000	96.256009
3390.000000	96.227996
3389.000000	96.198743
3388.000000	96.174893
3387.000000	96.158193
3386.000000	96.146434
3385.000000	96.137380
3384.000000	96.131089
3383.000000	96.127960
3382.000000	96.126112
3381.000000	96.122622
3380.000000	96.116583
3379.000000	96.109024
3378.000000	96.100136
3377.000000	96.088895
3376.000000	96.076211
3375.000000	96.067007
3374.000000	96.068190
3373.000000	96.084076
3372.000000	96.112359
3371.000000	96.143232
3370.000000	96.163508
3369.000000	96.163937
3368.000000	96.143807
3367.000000	96.109244
3366.000000	96.068795
3365.000000	96.031221
3364.000000	96.004084
3363.000000	95.990043
3362.000000	95.984190
3361.000000	95.977874
3360.000000	95.966229
3359.000000	95.950775
3358.000000	95.935319
3357.000000	95.922282
3356.000000	95.914020
3355.000000	95.914659
3354.000000	95.927159
3353.000000	95.947889
3352.000000	95.965426
3351.000000	95.966740
3350.000000	95.946712
3349.000000	95.912945
3348.000000	95.880861
3347.000000	95.862638
3346.000000	95.859612
3345.000000	95.864246
3344.000000	95.868238
3343.000000	95.868799
3342.000000	95.868565
3341.000000	95.870478
3340.000000	95.872490
3339.000000	95.867217
3338.000000	95.848146
3337.000000	95.816717
3336.000000	95.781905
3335.000000	95.752484
3334.000000	95.731015
3333.000000	95.715327
3332.000000	95.703209
3331.000000	95.694221
3330.000000	95.688929
3329.000000	95.688165
3328.000000	95.691416
3327.000000	95.694313
3326.000000	95.689884
3325.000000	95.674633
3324.000000	95.652257
3323.000000	95.629622
3322.000000	95.610444
3321.000000	95.594656
3320.000000	95.581866
3319.000000	95.572293
3318.000000	95.565311
3317.000000	95.559777
3316.000000	95.555569
3315.000000	95.553076
3314.000000	95.552110
3313.000000	95.553452
3312.000000	95.560252
3311.000000	95.575128
3310.000000	95.596105
3309.000000	95.617096
3308.000000	95.631666
3307.000000	95.635005
3306.000000	95.624169
3305.000000	95.599899
3304.000000	95.568176
3303.000000	95.537023
3302.000000	95.511544
3301.000000	95.493249
3300.000000	95.482650
3299.000000	95.479522
3298.000000	95.480967
3297.000000	95.482505
3296.000000	95.481607
3295.000000	95.478077
3294.000000	95.471089
3293.000000	95.458441
3292.000000	95.439490
3291.000000	95.416828
3290.000000	95.394364
3289.000000	95.375145
3288.000000	95.360754
3287.000000	95.350897
3286.000000	95.343284
3285.000000	95.335517
3284.000000	95.327250
3283.000000	95.319438
3282.000000	95.312067
3281.000000	95.304322
3280.000000	95.296639
3279.000000	95.290404
3278.000000	95.285653
3277.000000	95.281012
3276.000000	95.276044
3275.000000	95.271904
3274.000000	95.269083
3273.000000	95.265647
3272.000000	95.257986
3271.000000	95.242741
3270.000000	95.218825
3269.000000	95.189021
3268.000000	95.159050
3267.000000	95.133454
3266.000000	95.112542
3265.000000	95.093959
3264.000000	95.076154
3263.000000	95.058850
3262.000000	95.041412
3261.000000	95.023250
3260.000000	95.005285
3259.000000	94.988807
3258.000000	94.972978
3257.000000	94.955372
3256.000000	94.934776
3255.000000	94.911807
3254.000000	94.887320
3253.000000	94.862174
3252.000000	94.838357
3251.000000	94.818106
3250.000000	94.801392
3249.000000	94.785463
3248.000000	94.767019
3247.000000	94.744085
3246.000000	94.716633
3245.000000	94.686882
3244.000000	94.658334
3243.000000	94.632807
3242.000000	94.608725
3241.000000	94.583475
3240.000000	94.556833
3239.000000	94.530947
3238.000000	94.507964
3237.000000	94.489134
3236.000000	94.474804
3235.000000	94.463107
3234.000000	94.449732
3233.000000	94.431368
3232.000000	94.409054
3231.000000	94.386342
3230.000000	94.364806
3229.000000	94.343368
3228.000000	94.321212
3227.000000	94.298885
3226.000000	94.276905
3225.000000	94.255399
3224.000000	94.234974
3223.000000	94.215934
3222.000000	94.196793
3221.000000	94.175451
3220.000000	94.151753
3219.000000	94.127221
3218.000000	94.102596
3217.000000	94.077260
3216.000000	94.050648
3215.000000	94.022511
3214.000000	93.992208
3213.000000	93.959552
3212.000000	93.925906
3211.000000	93.892857
3210.000000	93.860303
3209.000000	93.827404
3208.000000	93.794664
3207.000000	93.763330
3206.000000	93.733509
3205.000000	93.704728
3204.000000	93.677695
3203.000000	93.653483
3202.000000	93.631579
3201.000000	93.610721
3200.000000	93.591025
3199.000000	93.573392
3198.000000	93.557383
3197.000000	93.541641
3196.000000	93.525837
3195.000000	93.510147
3194.000000	93.493439
3193.000000	93.474206
3192.000000	93.452893
3191.000000	93.431224
3190.000000	93.409540
3189.000000	93.386739
3188.000000	93.362516
3187.000000	93.337796
3186.000000	93.313291
3185.000000	93.289429
3184.000000	93.267097
3183.000000	93.246454
3182.000000	93.225548
3181.000000	93.202029
3180.000000	93.175813
3179.000000	93.148106
3178.000000	93.118479
3177.000000	93.085107
3176.000000	93.047329
3175.000000	93.005889
3174.000000	92.960964
3173.000000	92.912187
3172.000000	92.860638
3171.000000	92.808848
3170.000000	92.759011
3169.000000	92.712810
3168.000000	92.672369
3167.000000	92.639225
3166.000000	92.612754
3165.000000	92.591280
3164.000000	92.574237
3163.000000	92.561392
3162.000000	92.550446
3161.000000	92.537876
3160.000000	92.522041
3159.000000	92.503779
3158.000000	92.484555
3157.000000	92.465751
3156.000000	92.448808
3155.000000	92.433256
3154.000000	92.414850
3153.000000	92.388317
3152.000000	92.352645
3151.000000	92.311887
3150.000000	92.270813
3149.000000	92.231623
3148.000000	92.194507
3147.000000	92.159105
3146.000000	92.124873
