Created as New Dataset,Sample 133 By YargerLab Date Wednesday, June 05 2024
cm-1,A
4000.00,0.0079
3999.00,0.0079
3998.00,0.0079
3997.00,0.0079
3996.00,0.0079
3995.00,0.0079
3994.00,0.0079
3993.00,0.0079
3992.00,0.0079
3991.00,0.0079
3990.00,0.0079
3989.00,0.0079
3988.00,0.0079
3987.00,0.0079
3986.00,0.0079
3985.00,0.0079
3984.00,0.0079
3983.00,0.0079
3982.00,0.0079
3981.00,0.0079
3980.00,0.0079
3979.00,0.0079
3978.00,0.0079
3977.00,0.0079
3976.00,0.0079
3975.00,0.0079
3974.00,0.0079
3973.00,0.0079
3972.00,0.0079
3971.00,0.0079
3970.00,0.0079
3969.00,0.0079
3968.00,0.0079
3967.00,0.0079
3966.00,0.0079
3965.00,0.0079
3964.00,0.0079
3963.00,0.0079
3962.00,0.0079
3961.00,0.0079
3960.00,0.0079
3959.00,0.0079
3958.00,0.0079
3957.00,0.0079
3956.00,0.0079
3955.00,0.0079
3954.00,0.0079
3953.00,0.0079
3952.00,0.0079
3951.00,0.0079
3950.00,0.0080
3949.00,0.0080
3948.00,0.0080
3947.00,0.0081
3946.00,0.0080
3945.00,0.0080
3944.00,0.0080
3943.00,0.0079
3942.00,0.0079
3941.00,0.0079
3940.00,0.0079
3939.00,0.0080
3938.00,0.0080
3937.00,0.0080
3936.00,0.0080
3935.00,0.0081
3934.00,0.0081
3933.00,0.0081
3932.00,0.0081
3931.00,0.0080
3930.00,0.0080
3929.00,0.0080
3928.00,0.0080
3927.00,0.0079
3926.00,0.0079
3925.00,0.0079
3924.00,0.0079
3923.00,0.0079
3922.00,0.0080
3921.00,0.0081
3920.00,0.0081
3919.00,0.0082
3918.00,0.0082
3917.00,0.0081
3916.00,0.0081
3915.00,0.0080
3914.00,0.0080
3913.00,0.0080
3912.00,0.0079
3911.00,0.0079
3910.00,0.0079
3909.00,0.0079
3908.00,0.0079
3907.00,0.0079
3906.00,0.0080
3905.00,0.0081
3904.00,0.0083
3903.00,0.0084
3902.00,0.0085
3901.00,0.0085
3900.00,0.0084
3899.00,0.0083
3898.00,0.0082
3897.00,0.0081
3896.00,0.0081
3895.00,0.0081
3894.00,0.0080
3893.00,0.0080
3892.00,0.0080
3891.00,0.0080
3890.00,0.0080
3889.00,0.0081
3888.00,0.0082
3887.00,0.0083
3886.00,0.0083
3885.00,0.0082
3884.00,0.0082
3883.00,0.0082
3882.00,0.0082
3881.00,0.0082
3880.00,0.0082
3879.00,0.0082
3878.00,0.0082
3877.00,0.0082
3876.00,0.0082
3875.00,0.0081
3874.00,0.0081
3873.00,0.0080
3872.00,0.0082
3871.00,0.0083
3870.00,0.0083
3869.00,0.0083
3868.00,0.0083
3867.00,0.0084
3866.00,0.0084
3865.00,0.0084
3864.00,0.0083
3863.00,0.0082
3862.00,0.0083
3861.00,0.0084
3860.00,0.0083
3859.00,0.0082
3858.00,0.0080
3857.00,0.0078
3856.00,0.0077
3855.00,0.0077
3854.00,0.0078
3853.00,0.0079
3852.00,0.0081
3851.00,0.0082
3850.00,0.0082
3849.00,0.0083
3848.00,0.0083
3847.00,0.0082
3846.00,0.0082
3845.00,0.0082
3844.00,0.0082
3843.00,0.0082
3842.00,0.0082
3841.00,0.0083
3840.00,0.0083
3839.00,0.0083
3838.00,0.0083
3837.00,0.0083
3836.00,0.0083
3835.00,0.0082
3834.00,0.0082
3833.00,0.0083
3832.00,0.0083
3831.00,0.0082
3830.00,0.0082
3829.00,0.0082
3828.00,0.0082
3827.00,0.0081
3826.00,0.0081
3825.00,0.0081
3824.00,0.0082
3823.00,0.0083
3822.00,0.0083
3821.00,0.0083
3820.00,0.0082
3819.00,0.0082
3818.00,0.0083
3817.00,0.0083
3816.00,0.0082
3815.00,0.0081
3814.00,0.0080
3813.00,0.0080
3812.00,0.0080
3811.00,0.0079
3810.00,0.0079
3809.00,0.0079
3808.00,0.0080
3807.00,0.0080
3806.00,0.0081
3805.00,0.0081
3804.00,0.0082
3803.00,0.0083
3802.00,0.0082
3801.00,0.0081
3800.00,0.0080
3799.00,0.0081
3798.00,0.0081
3797.00,0.0081
3796.00,0.0080
3795.00,0.0079
3794.00,0.0079
3793.00,0.0078
3792.00,0.0078
3791.00,0.0077
3790.00,0.0076
3789.00,0.0076
3788.00,0.0076
3787.00,0.0076
3786.00,0.0076
3785.00,0.0077
3784.00,0.0077
3783.00,0.0078
3782.00,0.0078
3781.00,0.0078
3780.00,0.0078
3779.00,0.0078
3778.00,0.0077
3777.00,0.0077
3776.00,0.0078
3775.00,0.0077
3774.00,0.0077
3773.00,0.0077
3772.00,0.0078
3771.00,0.0078
3770.00,0.0079
3769.00,0.0079
3768.00,0.0080
3767.00,0.0080
3766.00,0.0080
3765.00,0.0080
3764.00,0.0079
3763.00,0.0080
3762.00,0.0080
3761.00,0.0080
3760.00,0.0080
3759.00,0.0080
3758.00,0.0081
3757.00,0.0081
3756.00,0.0082
3755.00,0.0082
3754.00,0.0083
3753.00,0.0084
3752.00,0.0084
3751.00,0.0085
3750.00,0.0086
3749.00,0.0086
3748.00,0.0086
3747.00,0.0086
3746.00,0.0086
3745.00,0.0086
3744.00,0.0085
3743.00,0.0084
3742.00,0.0084
3741.00,0.0085
3740.00,0.0086
3739.00,0.0087
3738.00,0.0088
3737.00,0.0088
3736.00,0.0087
3735.00,0.0086
3734.00,0.0085
3733.00,0.0085
3732.00,0.0084
3731.00,0.0082
3730.00,0.0081
3729.00,0.0080
3728.00,0.0080
3727.00,0.0080
3726.00,0.0079
3725.00,0.0079
3724.00,0.0078
3723.00,0.0078
3722.00,0.0078
3721.00,0.0077
3720.00,0.0077
3719.00,0.0076
3718.00,0.0076
3717.00,0.0076
3716.00,0.0077
3715.00,0.0078
3714.00,0.0079
3713.00,0.0079
3712.00,0.0079
3711.00,0.0079
3710.00,0.0079
3709.00,0.0078
3708.00,0.0078
3707.00,0.0077
3706.00,0.0076
3705.00,0.0076
3704.00,0.0075
3703.00,0.0074
3702.00,0.0074
3701.00,0.0073
3700.00,0.0073
3699.00,0.0074
3698.00,0.0074
3697.00,0.0074
3696.00,0.0074
3695.00,0.0074
3694.00,0.0074
3693.00,0.0075
3692.00,0.0075
3691.00,0.0075
3690.00,0.0076
3689.00,0.0077
3688.00,0.0078
3687.00,0.0078
3686.00,0.0077
3685.00,0.0077
3684.00,0.0077
3683.00,0.0077
3682.00,0.0077
3681.00,0.0077
3680.00,0.0077
3679.00,0.0077
3678.00,0.0078
3677.00,0.0080
3676.00,0.0081
3675.00,0.0081
3674.00,0.0081
3673.00,0.0082
3672.00,0.0083
3671.00,0.0083
3670.00,0.0081
3669.00,0.0080
3668.00,0.0079
3667.00,0.0079
3666.00,0.0079
3665.00,0.0078
3664.00,0.0078
3663.00,0.0077
3662.00,0.0077
3661.00,0.0077
3660.00,0.0077
3659.00,0.0078
3658.00,0.0079
3657.00,0.0079
3656.00,0.0080
3655.00,0.0081
3654.00,0.0082
3653.00,0.0084
3652.00,0.0086
3651.00,0.0087
3650.00,0.0087
3649.00,0.0088
3648.00,0.0088
3647.00,0.0087
3646.00,0.0086
3645.00,0.0085
3644.00,0.0084
3643.00,0.0083
3642.00,0.0082
3641.00,0.0081
3640.00,0.0081
3639.00,0.0081
3638.00,0.0081
3637.00,0.0082
3636.00,0.0083
3635.00,0.0083
3634.00,0.0084
3633.00,0.0084
3632.00,0.0085
3631.00,0.0087
3630.00,0.0088
3629.00,0.0089
3628.00,0.0089
3627.00,0.0089
3626.00,0.0090
3625.00,0.0090
3624.00,0.0090
3623.00,0.0089
3622.00,0.0089
3621.00,0.0089
3620.00,0.0089
3619.00,0.0089
3618.00,0.0090
3617.00,0.0091
3616.00,0.0092
3615.00,0.0093
3614.00,0.0094
3613.00,0.0094
3612.00,0.0095
3611.00,0.0096
3610.00,0.0096
3609.00,0.0096
3608.00,0.0095
3607.00,0.0094
3606.00,0.0094
3605.00,0.0094
3604.00,0.0094
3603.00,0.0094
3602.00,0.0094
3601.00,0.0094
3600.00,0.0095
3599.00,0.0095
3598.00,0.0096
3597.00,0.0096
3596.00,0.0097
3595.00,0.0097
3594.00,0.0097
3593.00,0.0098
3592.00,0.0099
3591.00,0.0100
3590.00,0.0101
3589.00,0.0102
3588.00,0.0101
3587.00,0.0101
3586.00,0.0101
3585.00,0.0102
3584.00,0.0102
3583.00,0.0102
3582.00,0.0102
3581.00,0.0101
3580.00,0.0101
3579.00,0.0101
3578.00,0.0102
3577.00,0.0102
3576.00,0.0102
3575.00,0.0103
3574.00,0.0104
3573.00,0.0105
3572.00,0.0106
3571.00,0.0107
3570.00,0.0108
3569.00,0.0110
3568.00,0.0110
3567.00,0.0111
3566.00,0.0111
3565.00,0.0111
3564.00,0.0112
3563.00,0.0112
3562.00,0.0112
3561.00,0.0111
3560.00,0.0111
3559.00,0.0111
3558.00,0.0112
3557.00,0.0112
3556.00,0.0113
3555.00,0.0113
3554.00,0.0114
3553.00,0.0115
3552.00,0.0115
3551.00,0.0116
3550.00,0.0117
3549.00,0.0119
3548.00,0.0120
3547.00,0.0120
3546.00,0.0120
3545.00,0.0121
3544.00,0.0121
3543.00,0.0121
3542.00,0.0121
3541.00,0.0121
3540.00,0.0121
3539.00,0.0122
3538.00,0.0122
3537.00,0.0122
3536.00,0.0123
3535.00,0.0124
3534.00,0.0124
3533.00,0.0125
3532.00,0.0125
3531.00,0.0126
3530.00,0.0126
3529.00,0.0127
3528.00,0.0128
3527.00,0.0129
3526.00,0.0130
3525.00,0.0131
3524.00,0.0131
3523.00,0.0131
3522.00,0.0132
3521.00,0.0132
3520.00,0.0132
3519.00,0.0132
3518.00,0.0133
3517.00,0.0133
3516.00,0.0134
3515.00,0.0134
3514.00,0.0135
3513.00,0.0135
3512.00,0.0136
3511.00,0.0136
3510.00,0.0137
3509.00,0.0137
3508.00,0.0138
3507.00,0.0139
3506.00,0.0140
3505.00,0.0140
3504.00,0.0141
3503.00,0.0141
3502.00,0.0142
3501.00,0.0142
3500.00,0.0143
3499.00,0.0143
3498.00,0.0143
3497.00,0.0144
3496.00,0.0144
3495.00,0.0145
3494.00,0.0145
3493.00,0.0146
3492.00,0.0146
3491.00,0.0147
3490.00,0.0147
3489.00,0.0148
3488.00,0.0148
3487.00,0.0149
3486.00,0.0150
3485.00,0.0150
3484.00,0.0151
3483.00,0.0151
3482.00,0.0152
3481.00,0.0152
3480.00,0.0153
3479.00,0.0154
3478.00,0.0154
3477.00,0.0154
3476.00,0.0155
3475.00,0.0155
3474.00,0.0156
3473.00,0.0156
3472.00,0.0157
3471.00,0.0158
3470.00,0.0159
3469.00,0.0159
3468.00,0.0160
3467.00,0.0160
3466.00,0.0161
3465.00,0.0161
3464.00,0.0161
3463.00,0.0162
3462.00,0.0163
3461.00,0.0163
3460.00,0.0164
3459.00,0.0164
3458.00,0.0164
3457.00,0.0165
3456.00,0.0165
3455.00,0.0166
3454.00,0.0166
3453.00,0.0167
3452.00,0.0168
3451.00,0.0168
3450.00,0.0169
3449.00,0.0169
3448.00,0.0170
3447.00,0.0170
3446.00,0.0171
3445.00,0.0172
3444.00,0.0173
3443.00,0.0173
3442.00,0.0174
3441.00,0.0174
3440.00,0.0175
3439.00,0.0176
3438.00,0.0176
3437.00,0.0177
3436.00,0.0178
3435.00,0.0178
3434.00,0.0179
3433.00,0.0179
3432.00,0.0180
3431.00,0.0181
3430.00,0.0181
3429.00,0.0182
3428.00,0.0182
3427.00,0.0183
3426.00,0.0183
3425.00,0.0184
3424.00,0.0185
3423.00,0.0185
3422.00,0.0186
3421.00,0.0186
3420.00,0.0187
3419.00,0.0188
3418.00,0.0189
3417.00,0.0189
3416.00,0.0190
3415.00,0.0191
3414.00,0.0192
3413.00,0.0192
3412.00,0.0193
3411.00,0.0194
3410.00,0.0194
3409.00,0.0195
3408.00,0.0195
3407.00,0.0196
3406.00,0.0197
3405.00,0.0197
3404.00,0.0198
3403.00,0.0199
3402.00,0.0200
3401.00,0.0201
3400.00,0.0201
3399.00,0.0202
3398.00,0.0203
3397.00,0.0203
3396.00,0.0204
3395.00,0.0205
3394.00,0.0205
3393.00,0.0206
3392.00,0.0207
3391.00,0.0207
3390.00,0.0208
3389.00,0.0209
3388.00,0.0210
3387.00,0.0210
3386.00,0.0211
3385.00,0.0212
3384.00,0.0213
3383.00,0.0214
3382.00,0.0215
3381.00,0.0216
3380.00,0.0217
3379.00,0.0217
3378.00,0.0218
3377.00,0.0219
3376.00,0.0220
3375.00,0.0221
3374.00,0.0222
3373.00,0.0222
3372.00,0.0223
3371.00,0.0224
3370.00,0.0226
3369.00,0.0227
3368.00,0.0228
3367.00,0.0229
3366.00,0.0230
3365.00,0.0231
3364.00,0.0233
3363.00,0.0234
3362.00,0.0235
3361.00,0.0236
3360.00,0.0237
3359.00,0.0238
3358.00,0.0239
3357.00,0.0241
3356.00,0.0242
3355.00,0.0243
3354.00,0.0244
3353.00,0.0245
3352.00,0.0246
3351.00,0.0247
3350.00,0.0249
3349.00,0.0250
3348.00,0.0252
3347.00,0.0253
3346.00,0.0254
3345.00,0.0255
3344.00,0.0257
3343.00,0.0258
3342.00,0.0259
3341.00,0.0261
3340.00,0.0262
3339.00,0.0264
3338.00,0.0265
3337.00,0.0267
3336.00,0.0268
3335.00,0.0270
3334.00,0.0271
3333.00,0.0273
3332.00,0.0274
3331.00,0.0276
3330.00,0.0277
3329.00,0.0279
3328.00,0.0280
3327.00,0.0281
3326.00,0.0283
3325.00,0.0285
3324.00,0.0286
3323.00,0.0288
3322.00,0.0290
3321.00,0.0292
3320.00,0.0293
3319.00,0.0295
3318.00,0.0297
3317.00,0.0298
3316.00,0.0300
3315.00,0.0302
3314.00,0.0303
3313.00,0.0305
3312.00,0.0307
3311.00,0.0308
3310.00,0.0309
3309.00,0.0310
3308.00,0.0312
3307.00,0.0313
3306.00,0.0315
3305.00,0.0317
3304.00,0.0319
3303.00,0.0321
3302.00,0.0323
3301.00,0.0324
3300.00,0.0326
3299.00,0.0327
3298.00,0.0328
3297.00,0.0329
3296.00,0.0331
3295.00,0.0332
3294.00,0.0333
3293.00,0.0334
3292.00,0.0336
3291.00,0.0337
3290.00,0.0338
3289.00,0.0339
3288.00,0.0340
3287.00,0.0341
3286.00,0.0342
3285.00,0.0342
3284.00,0.0343
3283.00,0.0343
3282.00,0.0343
3281.00,0.0344
3280.00,0.0344
3279.00,0.0344
3278.00,0.0343
3277.00,0.0343
3276.00,0.0343
3275.00,0.0342
3274.00,0.0341
3273.00,0.0340
3272.00,0.0339
3271.00,0.0339
3270.00,0.0338
3269.00,0.0337
3268.00,0.0336
3267.00,0.0335
3266.00,0.0334
3265.00,0.0332
3264.00,0.0331
3263.00,0.0329
3262.00,0.0327
3261.00,0.0325
3260.00,0.0323
3259.00,0.0322
3258.00,0.0320
3257.00,0.0318
3256.00,0.0316
3255.00,0.0314
3254.00,0.0312
3253.00,0.0311
3252.00,0.0309
3251.00,0.0307
3250.00,0.0305
3249.00,0.0303
3248.00,0.0301
3247.00,0.0300
3246.00,0.0298
3245.00,0.0297
3244.00,0.0295
3243.00,0.0294
3242.00,0.0292
3241.00,0.0290
3240.00,0.0289
3239.00,0.0287
3238.00,0.0286
3237.00,0.0284
3236.00,0.0283
3235.00,0.0281
3234.00,0.0280
3233.00,0.0279
3232.00,0.0278
3231.00,0.0277
3230.00,0.0276
3229.00,0.0275
3228.00,0.0274
3227.00,0.0273
3226.00,0.0272
3225.00,0.0271
3224.00,0.0270
3223.00,0.0269
3222.00,0.0268
3221.00,0.0267
3220.00,0.0266
3219.00,0.0265
3218.00,0.0264
3217.00,0.0264
3216.00,0.0263
3215.00,0.0262
3214.00,0.0261
3213.00,0.0260
3212.00,0.0260
3211.00,0.0259
3210.00,0.0258
3209.00,0.0257
3208.00,0.0256
3207.00,0.0255
3206.00,0.0254
3205.00,0.0254
3204.00,0.0253
3203.00,0.0252
3202.00,0.0251
3201.00,0.0250
3200.00,0.0249
3199.00,0.0248
3198.00,0.0248
3197.00,0.0247
3196.00,0.0246
3195.00,0.0245
3194.00,0.0244
3193.00,0.0243
3192.00,0.0242
3191.00,0.0241
3190.00,0.0240
3189.00,0.0239
3188.00,0.0238
3187.00,0.0237
3186.00,0.0236
3185.00,0.0235
3184.00,0.0234
3183.00,0.0233
3182.00,0.0232
3181.00,0.0231
3180.00,0.0230
3179.00,0.0229
3178.00,0.0228
3177.00,0.0226
3176.00,0.0225
3175.00,0.0224
3174.00,0.0223
3173.00,0.0222
3172.00,0.0221
3171.00,0.0220
3170.00,0.0219
3169.00,0.0217
3168.00,0.0216
3167.00,0.0215
3166.00,0.0214
3165.00,0.0213
3164.00,0.0212
3163.00,0.0211
3162.00,0.0210
3161.00,0.0209
3160.00,0.0208
3159.00,0.0207
3158.00,0.0206
3157.00,0.0205
3156.00,0.0204
3155.00,0.0203
3154.00,0.0202
3153.00,0.0201
3152.00,0.0200
3151.00,0.0199
3150.00,0.0199
3149.00,0.0198
3148.00,0.0197
3147.00,0.0196
3146.00,0.0195
3145.00,0.0195
3144.00,0.0194
3143.00,0.0193
3142.00,0.0192
3141.00,0.0191
3140.00,0.0190
3139.00,0.0190
3138.00,0.0189
3137.00,0.0189
3136.00,0.0188
3135.00,0.0187
3134.00,0.0187
3133.00,0.0186
3132.00,0.0186
3131.00,0.0185
3130.00,0.0185
3129.00,0.0184
3128.00,0.0184
3127.00,0.0183
3126.00,0.0183
3125.00,0.0182
3124.00,0.0182
3123.00,0.0181
3122.00,0.0181
3121.00,0.0180
3120.00,0.0180
3119.00,0.0180
3118.00,0.0180
3117.00,0.0180
3116.00,0.0180
3115.00,0.0180
3114.00,0.0179
3113.00,0.0179
3112.00,0.0179
3111.00,0.0179
3110.00,0.0178
3109.00,0.0178
3108.00,0.0179
3107.00,0.0179
3106.00,0.0179
3105.00,0.0179
3104.00,0.0179
3103.00,0.0179
3102.00,0.0179
3101.00,0.0179
3100.00,0.0180
3099.00,0.0180
3098.00,0.0180
3097.00,0.0180
3096.00,0.0180
3095.00,0.0181
3094.00,0.0181
3093.00,0.0181
3092.00,0.0181
3091.00,0.0181
3090.00,0.0181
3089.00,0.0181
3088.00,0.0182
3087.00,0.0182
3086.00,0.0181
3085.00,0.0181
3084.00,0.0181
3083.00,0.0182
3082.00,0.0182
3081.00,0.0182
3080.00,0.0182
3079.00,0.0182
3078.00,0.0183
3077.00,0.0183
3076.00,0.0184
3075.00,0.0184
3074.00,0.0184
3073.00,0.0184
3072.00,0.0184
3071.00,0.0184
3070.00,0.0184
3069.00,0.0184
3068.00,0.0184
3067.00,0.0184
3066.00,0.0184
3065.00,0.0184
3064.00,0.0184
3063.00,0.0184
3062.00,0.0184
3061.00,0.0183
3060.00,0.0183
3059.00,0.0182
3058.00,0.0182
3057.00,0.0181
3056.00,0.0181
3055.00,0.0180
3054.00,0.0179
3053.00,0.0179
3052.00,0.0178
3051.00,0.0178
3050.00,0.0177
3049.00,0.0177
3048.00,0.0176
3047.00,0.0176
3046.00,0.0175
3045.00,0.0174
3044.00,0.0173
3043.00,0.0173
3042.00,0.0172
3041.00,0.0172
3040.00,0.0171
3039.00,0.0171
3038.00,0.0170
3037.00,0.0170
3036.00,0.0169
3035.00,0.0168
3034.00,0.0168
3033.00,0.0168
3032.00,0.0167
3031.00,0.0167
3030.00,0.0166
3029.00,0.0166
3028.00,0.0165
3027.00,0.0164
3026.00,0.0164
3025.00,0.0163
3024.00,0.0162
3023.00,0.0161
3022.00,0.0161
3021.00,0.0160
3020.00,0.0159
3019.00,0.0158
3018.00,0.0158
3017.00,0.0157
3016.00,0.0156
3015.00,0.0155
3014.00,0.0155
3013.00,0.0155
3012.00,0.0155
3011.00,0.0155
3010.00,0.0155
3009.00,0.0155
3008.00,0.0155
3007.00,0.0155
3006.00,0.0155
3005.00,0.0155
3004.00,0.0155
3003.00,0.0155
3002.00,0.0155
3001.00,0.0155
3000.00,0.0155
2999.00,0.0155
2998.00,0.0156
2997.00,0.0156
2996.00,0.0156
2995.00,0.0157
2994.00,0.0157
2993.00,0.0158
2992.00,0.0159
2991.00,0.0160
2990.00,0.0161
2989.00,0.0161
2988.00,0.0162
2987.00,0.0163
2986.00,0.0164
2985.00,0.0166
2984.00,0.0167
2983.00,0.0169
2982.00,0.0170
2981.00,0.0171
2980.00,0.0172
2979.00,0.0173
2978.00,0.0173
2977.00,0.0174
2976.00,0.0175
2975.00,0.0176
2974.00,0.0176
2973.00,0.0177
2972.00,0.0178
2971.00,0.0179
2970.00,0.0179
2969.00,0.0180
2968.00,0.0180
2967.00,0.0181
2966.00,0.0181
2965.00,0.0181
2964.00,0.0181
2963.00,0.0181
2962.00,0.0181
2961.00,0.0181
2960.00,0.0180
2959.00,0.0180
2958.00,0.0179
2957.00,0.0178
2956.00,0.0177
2955.00,0.0176
2954.00,0.0175
2953.00,0.0174
2952.00,0.0173
2951.00,0.0172
2950.00,0.0171
2949.00,0.0170
2948.00,0.0169
2947.00,0.0169
2946.00,0.0169
2945.00,0.0169
2944.00,0.0169
2943.00,0.0170
2942.00,0.0170
2941.00,0.0171
2940.00,0.0172
2939.00,0.0172
2938.00,0.0173
2937.00,0.0173
2936.00,0.0173
2935.00,0.0174
2934.00,0.0174
2933.00,0.0174
2932.00,0.0174
2931.00,0.0173
2930.00,0.0173
2929.00,0.0173
2928.00,0.0172
2927.00,0.0172
2926.00,0.0171
2925.00,0.0170
2924.00,0.0170
2923.00,0.0169
2922.00,0.0168
2921.00,0.0167
2920.00,0.0166
2919.00,0.0165
2918.00,0.0164
2917.00,0.0163
2916.00,0.0162
2915.00,0.0161
2914.00,0.0160
2913.00,0.0160
2912.00,0.0159
2911.00,0.0158
2910.00,0.0158
2909.00,0.0157
2908.00,0.0156
2907.00,0.0156
2906.00,0.0155
2905.00,0.0155
2904.00,0.0154
2903.00,0.0154
2902.00,0.0154
2901.00,0.0153
2900.00,0.0153
2899.00,0.0153
2898.00,0.0152
2897.00,0.0152
2896.00,0.0152
2895.00,0.0152
2894.00,0.0152
2893.00,0.0152
2892.00,0.0152
2891.00,0.0152
2890.00,0.0152
2889.00,0.0152
2888.00,0.0152
2887.00,0.0153
2886.00,0.0153
2885.00,0.0154
2884.00,0.0154
2883.00,0.0155
2882.00,0.0156
2881.00,0.0156
2880.00,0.0157
2879.00,0.0157
2878.00,0.0157
2877.00,0.0157
2876.00,0.0157
2875.00,0.0157
2874.00,0.0157
2873.00,0.0156
2872.00,0.0156
2871.00,0.0155
2870.00,0.0154
2869.00,0.0153
2868.00,0.0151
2867.00,0.0150
2866.00,0.0149
2865.00,0.0148
2864.00,0.0147
2863.00,0.0146
2862.00,0.0145
2861.00,0.0144
2860.00,0.0143
2859.00,0.0142
2858.00,0.0142
2857.00,0.0141
2856.00,0.0140
2855.00,0.0139
2854.00,0.0138
2853.00,0.0138
2852.00,0.0137
2851.00,0.0137
2850.00,0.0136
2849.00,0.0136
2848.00,0.0136
2847.00,0.0136
2846.00,0.0135
2845.00,0.0135
2844.00,0.0135
2843.00,0.0135
2842.00,0.0135
2841.00,0.0134
2840.00,0.0134
2839.00,0.0134
2838.00,0.0134
2837.00,0.0134
2836.00,0.0134
2835.00,0.0133
2834.00,0.0133
2833.00,0.0133
2832.00,0.0133
2831.00,0.0133
2830.00,0.0133
2829.00,0.0133
2828.00,0.0133
2827.00,0.0132
2826.00,0.0132
2825.00,0.0132
2824.00,0.0132
2823.00,0.0132
2822.00,0.0132
2821.00,0.0132
2820.00,0.0132
2819.00,0.0132
2818.00,0.0132
2817.00,0.0132
2816.00,0.0131
2815.00,0.0131
2814.00,0.0131
2813.00,0.0131
2812.00,0.0131
2811.00,0.0131
2810.00,0.0131
2809.00,0.0131
2808.00,0.0130
2807.00,0.0130
2806.00,0.0130
2805.00,0.0130
2804.00,0.0130
2803.00,0.0129
2802.00,0.0129
2801.00,0.0129
2800.00,0.0129
2799.00,0.0129
2798.00,0.0129
2797.00,0.0128
2796.00,0.0128
2795.00,0.0128
2794.00,0.0128
2793.00,0.0128
2792.00,0.0128
2791.00,0.0127
2790.00,0.0127
2789.00,0.0127
2788.00,0.0127
2787.00,0.0127
2786.00,0.0126
2785.00,0.0126
2784.00,0.0126
2783.00,0.0126
2782.00,0.0126
2781.00,0.0126
2780.00,0.0125
2779.00,0.0125
2778.00,0.0125
2777.00,0.0125
2776.00,0.0125
2775.00,0.0125
2774.00,0.0125
2773.00,0.0124
2772.00,0.0124
2771.00,0.0124
2770.00,0.0124
2769.00,0.0124
2768.00,0.0123
2767.00,0.0123
2766.00,0.0123
2765.00,0.0123
2764.00,0.0123
2763.00,0.0123
2762.00,0.0122
2761.00,0.0122
2760.00,0.0122
2759.00,0.0122
2758.00,0.0122
2757.00,0.0121
