PE IR       SUBTECH     SPECTRUM    ASCII       PEDS        4.00        
   -1
4_8_24_benzoic acid post silk.ASC
24/04/08
18:20:23.00
24/04/08
18:20:23.00
Yarger Lab
Sample 094 By YargerLab Date Monday, April 08 2024
400.000000
#HDR
-1
-1
#GR
cm-1
%T
1.0
0.0
4500.000000
-1.000000
4101
8
95.959651
30.882725
#DATA
4500.000000	95.867958
4499.000000	95.865223
4498.000000	95.862427
4497.000000	95.861462
4496.000000	95.862457
4495.000000	95.864664
4494.000000	95.867890
4493.000000	95.871530
4492.000000	95.874360
4491.000000	95.876611
4490.000000	95.880117
4489.000000	95.885202
4488.000000	95.889505
4487.000000	95.891382
4486.000000	95.892615
4485.000000	95.895996
4484.000000	95.901943
4483.000000	95.909053
4482.000000	95.915684
4481.000000	95.919413
4480.000000	95.917260
4479.000000	95.908597
4478.000000	95.896672
4477.000000	95.885767
4476.000000	95.878025
4475.000000	95.874024
4474.000000	95.873852
4473.000000	95.875706
4472.000000	95.875545
4471.000000	95.870346
4470.000000	95.860941
4469.000000	95.850868
4468.000000	95.843736
4467.000000	95.842497
4466.000000	95.848611
4465.000000	95.859869
4464.000000	95.871161
4463.000000	95.879339
4462.000000	95.886073
4461.000000	95.894783
4460.000000	95.906142
4459.000000	95.917700
4458.000000	95.925934
4457.000000	95.927321
4456.000000	95.919913
4455.000000	95.905847
4454.000000	95.890770
4453.000000	95.879418
4452.000000	95.872617
4451.000000	95.869361
4450.000000	95.869303
4449.000000	95.871558
4448.000000	95.873611
4447.000000	95.873601
4446.000000	95.872510
4445.000000	95.872719
4444.000000	95.875505
4443.000000	95.881161
4442.000000	95.889384
4441.000000	95.897873
4440.000000	95.902638
4439.000000	95.901451
4438.000000	95.895830
4437.000000	95.888515
4436.000000	95.880655
4435.000000	95.873045
4434.000000	95.867733
4433.000000	95.866354
4432.000000	95.868307
4431.000000	95.871897
4430.000000	95.876179
4429.000000	95.880249
4428.000000	95.882630
4427.000000	95.883301
4426.000000	95.884593
4425.000000	95.888345
4424.000000	95.893408
4423.000000	95.897070
4422.000000	95.897671
4421.000000	95.894180
4420.000000	95.885487
4419.000000	95.872251
4418.000000	95.858095
4417.000000	95.847167
4416.000000	95.840958
4415.000000	95.838801
4414.000000	95.840063
4413.000000	95.844202
4412.000000	95.850030
4411.000000	95.856215
4410.000000	95.861986
4409.000000	95.866474
4408.000000	95.868604
4407.000000	95.868819
4406.000000	95.869047
4405.000000	95.869684
4404.000000	95.868529
4403.000000	95.864095
4402.000000	95.858486
4401.000000	95.855038
4400.000000	95.854306
4399.000000	95.854009
4398.000000	95.852067
4397.000000	95.847985
4396.000000	95.842182
4395.000000	95.835486
4394.000000	95.828541
4393.000000	95.820977
4392.000000	95.812122
4391.000000	95.803259
4390.000000	95.798021
4389.000000	95.799083
4388.000000	95.805755
4387.000000	95.815564
4386.000000	95.826684
4385.000000	95.837407
4384.000000	95.844818
4383.000000	95.846204
4382.000000	95.841400
4381.000000	95.833109
4380.000000	95.825468
4379.000000	95.822706
4378.000000	95.827293
4377.000000	95.837606
4376.000000	95.848593
4375.000000	95.855852
4374.000000	95.858511
4373.000000	95.857875
4372.000000	95.854895
4371.000000	95.850185
4370.000000	95.844852
4369.000000	95.839915
4368.000000	95.835818
4367.000000	95.833647
4366.000000	95.835398
4365.000000	95.841572
4364.000000	95.849537
4363.000000	95.855513
4362.000000	95.857383
4361.000000	95.854881
4360.000000	95.848604
4359.000000	95.840213
4358.000000	95.832597
4357.000000	95.828026
4356.000000	95.826527
4355.000000	95.826816
4354.000000	95.827999
4353.000000	95.829768
4352.000000	95.831985
4351.000000	95.835079
4350.000000	95.839623
4349.000000	95.844567
4348.000000	95.847050
4347.000000	95.844829
4346.000000	95.838314
4345.000000	95.829656
4344.000000	95.821284
4343.000000	95.815789
4342.000000	95.815371
4341.000000	95.819763
4340.000000	95.825786
4339.000000	95.830328
4338.000000	95.832866
4337.000000	95.834308
4336.000000	95.834704
4335.000000	95.833425
4334.000000	95.830760
4333.000000	95.827983
4332.000000	95.826278
4331.000000	95.826277
4330.000000	95.827631
4329.000000	95.828583
4328.000000	95.827118
4327.000000	95.823576
4326.000000	95.821146
4325.000000	95.822709
4324.000000	95.828059
4323.000000	95.834836
4322.000000	95.840895
4321.000000	95.845106
4320.000000	95.847084
4319.000000	95.847368
4318.000000	95.847010
4317.000000	95.846107
4316.000000	95.843759
4315.000000	95.840197
4314.000000	95.837619
4313.000000	95.837897
4312.000000	95.840386
4311.000000	95.843037
4310.000000	95.844739
4309.000000	95.845689
4308.000000	95.846581
4307.000000	95.848212
4306.000000	95.850851
4305.000000	95.853044
4304.000000	95.852144
4303.000000	95.847318
4302.000000	95.841212
4301.000000	95.837509
4300.000000	95.837524
4299.000000	95.839664
4298.000000	95.841613
4297.000000	95.842185
4296.000000	95.841915
4295.000000	95.842528
4294.000000	95.844947
4293.000000	95.847456
4292.000000	95.847040
4291.000000	95.843133
4290.000000	95.838939
4289.000000	95.837864
4288.000000	95.840007
4287.000000	95.842807
4286.000000	95.844024
4285.000000	95.842998
4284.000000	95.839998
4283.000000	95.835844
4282.000000	95.831519
4281.000000	95.827419
4280.000000	95.823586
4279.000000	95.821177
4278.000000	95.822367
4277.000000	95.827561
4276.000000	95.833592
4275.000000	95.835888
4274.000000	95.832203
4273.000000	95.823841
4272.000000	95.814051
4271.000000	95.806262
4270.000000	95.802708
4269.000000	95.803639
4268.000000	95.807846
4267.000000	95.814175
4266.000000	95.821771
4265.000000	95.828642
4264.000000	95.831588
4263.000000	95.828777
4262.000000	95.821714
4261.000000	95.813704
4260.000000	95.807148
4259.000000	95.802861
4258.000000	95.800844
4257.000000	95.800502
4256.000000	95.800672
4255.000000	95.800557
4254.000000	95.800479
4253.000000	95.801258
4252.000000	95.803616
4251.000000	95.808355
4250.000000	95.816068
4249.000000	95.825663
4248.000000	95.834181
4247.000000	95.839024
4246.000000	95.840004
4245.000000	95.838404
4244.000000	95.835146
4243.000000	95.830539
4242.000000	95.825249
4241.000000	95.820146
4240.000000	95.815693
4239.000000	95.812057
4238.000000	95.809582
4237.000000	95.808486
4236.000000	95.808688
4235.000000	95.810269
4234.000000	95.813362
4233.000000	95.816883
4232.000000	95.818132
4231.000000	95.814775
4230.000000	95.806954
4229.000000	95.797359
4228.000000	95.789476
4227.000000	95.786136
4226.000000	95.788258
4225.000000	95.794173
4224.000000	95.800607
4223.000000	95.805185
4222.000000	95.807664
4221.000000	95.808629
4220.000000	95.807950
4219.000000	95.805361
4218.000000	95.801622
4217.000000	95.798099
4216.000000	95.795702
4215.000000	95.794832
4214.000000	95.795904
4213.000000	95.798698
4212.000000	95.801492
4211.000000	95.801551
4210.000000	95.797004
4209.000000	95.788357
4208.000000	95.778674
4207.000000	95.771763
4206.000000	95.769030
4205.000000	95.767571
4204.000000	95.762497
4203.000000	95.752086
4202.000000	95.740048
4201.000000	95.732215
4200.000000	95.731399
4199.000000	95.735898
4198.000000	95.741876
4197.000000	95.746395
4196.000000	95.748824
4195.000000	95.750523
4194.000000	95.753397
4193.000000	95.758084
4192.000000	95.763556
4191.000000	95.768121
4190.000000	95.770346
4189.000000	95.769123
4188.000000	95.764235
4187.000000	95.757726
4186.000000	95.753708
4185.000000	95.755568
4184.000000	95.763211
4183.000000	95.773407
4182.000000	95.782483
4181.000000	95.788397
4180.000000	95.791157
4179.000000	95.792163
4178.000000	95.793257
4177.000000	95.795450
4176.000000	95.798467
4175.000000	95.801239
4174.000000	95.802646
4173.000000	95.801931
4172.000000	95.799041
4171.000000	95.795046
4170.000000	95.791382
4169.000000	95.788462
4168.000000	95.785328
4167.000000	95.781052
4166.000000	95.776068
4165.000000	95.771806
4164.000000	95.769741
4163.000000	95.770731
4162.000000	95.774659
4161.000000	95.780177
4160.000000	95.785430
4159.000000	95.789646
4158.000000	95.793487
4157.000000	95.797734
4156.000000	95.802091
4155.000000	95.805615
4154.000000	95.807544
4153.000000	95.807201
4152.000000	95.803990
4151.000000	95.798214
4150.000000	95.791563
4149.000000	95.786268
4148.000000	95.783826
4147.000000	95.784825
4146.000000	95.788986
4145.000000	95.794715
4144.000000	95.799076
4143.000000	95.799146
4142.000000	95.793922
4141.000000	95.784761
4140.000000	95.774448
4139.000000	95.765848
4138.000000	95.760610
4137.000000	95.758546
4136.000000	95.758197
4135.000000	95.758503
4134.000000	95.759641
4133.000000	95.762002
4132.000000	95.764944
4131.000000	95.767100
4130.000000	95.767870
4129.000000	95.768385
4128.000000	95.770671
4127.000000	95.775898
4126.000000	95.782890
4125.000000	95.788785
4124.000000	95.791807
4123.000000	95.793317
4122.000000	95.796406
4121.000000	95.801814
4120.000000	95.806308
4119.000000	95.805643
4118.000000	95.798835
4117.000000	95.788919
4116.000000	95.780184
4115.000000	95.775005
4114.000000	95.773268
4113.000000	95.773685
4112.000000	95.775349
4111.000000	95.778233
4110.000000	95.782132
4109.000000	95.785630
4108.000000	95.786489
4107.000000	95.783702
4106.000000	95.778925
4105.000000	95.775363
4104.000000	95.774989
4103.000000	95.776589
4102.000000	95.776162
4101.000000	95.769680
4100.000000	95.756039
4099.000000	95.737911
4098.000000	95.719475
4097.000000	95.702774
4096.000000	95.686428
4095.000000	95.667438
4094.000000	95.643925
4093.000000	95.616324
4092.000000	95.587138
4091.000000	95.560187
4090.000000	95.539702
4089.000000	95.528877
4088.000000	95.528727
4087.000000	95.538034
4086.000000	95.553926
4085.000000	95.572961
4084.000000	95.592370
4083.000000	95.610761
4082.000000	95.627390
4081.000000	95.640335
4080.000000	95.646184
4079.000000	95.642419
4078.000000	95.630318
4077.000000	95.614967
4076.000000	95.602175
4075.000000	95.594933
4074.000000	95.592277
4073.000000	95.591141
4072.000000	95.588796
4071.000000	95.583879
4070.000000	95.575287
4069.000000	95.560756
4068.000000	95.537461
4067.000000	95.504294
4066.000000	95.463685
4065.000000	95.421188
4064.000000	95.383304
4063.000000	95.354961
4062.000000	95.338149
4061.000000	95.332213
4060.000000	95.335692
4059.000000	95.348302
4058.000000	95.370935
4057.000000	95.403949
4056.000000	95.445330
4055.000000	95.490491
4054.000000	95.533442
4053.000000	95.568653
4052.000000	95.593099
4051.000000	95.607620
4050.000000	95.616301
4049.000000	95.623702
4048.000000	95.632347
4047.000000	95.642351
4046.000000	95.652963
4045.000000	95.663732
4044.000000	95.674268
4043.000000	95.683578
4042.000000	95.690153
4041.000000	95.693124
4040.000000	95.693338
4039.000000	95.693085
4038.000000	95.694604
4037.000000	95.698580
4036.000000	95.704033
4035.000000	95.709377
4034.000000	95.713242
4033.000000	95.714646
4032.000000	95.713340
4031.000000	95.710640
4030.000000	95.709326
4029.000000	95.711771
4028.000000	95.717684
4027.000000	95.724166
4026.000000	95.728238
4025.000000	95.729286
4024.000000	95.728954
4023.000000	95.728996
4022.000000	95.729859
4021.000000	95.731018
4020.000000	95.731907
4019.000000	95.732095
4018.000000	95.730934
4017.000000	95.727693
4016.000000	95.722085
4015.000000	95.714204
4014.000000	95.703845
4013.000000	95.690703
4012.000000	95.675829
4011.000000	95.662362
4010.000000	95.653780
4009.000000	95.650862
4008.000000	95.650619
4007.000000	95.649066
4006.000000	95.645175
4005.000000	95.642048
4004.000000	95.644175
4003.000000	95.653239
4002.000000	95.666499
4001.000000	95.678902
4000.000000	95.686707
3999.000000	95.689768
3998.000000	95.690871
3997.000000	95.693413
3996.000000	95.699278
3995.000000	95.708070
3994.000000	95.717764
3993.000000	95.725975
3992.000000	95.731234
3991.000000	95.733437
3990.000000	95.733389
3989.000000	95.732015
3988.000000	95.729893
3987.000000	95.727514
3986.000000	95.725654
3985.000000	95.725145
3984.000000	95.726068
3983.000000	95.727312
3982.000000	95.727289
3981.000000	95.725315
3980.000000	95.722306
3979.000000	95.720052
3978.000000	95.719929
3977.000000	95.722167
3976.000000	95.726026
3975.000000	95.730504
3974.000000	95.735060
3973.000000	95.739830
3972.000000	95.744867
3971.000000	95.749077
3970.000000	95.750416
3969.000000	95.747757
3968.000000	95.742347
3967.000000	95.736963
3966.000000	95.733702
3965.000000	95.732739
3964.000000	95.733104
3963.000000	95.733927
3962.000000	95.734675
3961.000000	95.734774
3960.000000	95.733640
3959.000000	95.731120
3958.000000	95.727838
3957.000000	95.725028
3956.000000	95.723911
3955.000000	95.725062
3954.000000	95.728255
3953.000000	95.732728
3952.000000	95.737440
3951.000000	95.741096
3950.000000	95.742293
3949.000000	95.740129
3948.000000	95.734877
3947.000000	95.728082
3946.000000	95.721819
3945.000000	95.717598
3944.000000	95.715749
3943.000000	95.715603
3942.000000	95.716193
3941.000000	95.716929
3940.000000	95.717956
3939.000000	95.719812
3938.000000	95.722478
3937.000000	95.724905
3936.000000	95.725556
3935.000000	95.723660
3934.000000	95.720281
3933.000000	95.718101
3932.000000	95.719653
3931.000000	95.724723
3930.000000	95.729753
3929.000000	95.730258
3928.000000	95.724002
3927.000000	95.712829
3926.000000	95.701908
3925.000000	95.696926
3924.000000	95.700493
3923.000000	95.710026
3922.000000	95.719810
3921.000000	95.725853
3920.000000	95.728530
3919.000000	95.730894
3918.000000	95.734859
3917.000000	95.739107
3916.000000	95.740509
3915.000000	95.737045
3914.000000	95.729733
3913.000000	95.722139
3912.000000	95.717949
3911.000000	95.718083
3910.000000	95.720490
3909.000000	95.723072
3908.000000	95.726042
3907.000000	95.730600
3906.000000	95.736302
3905.000000	95.740886
3904.000000	95.743105
3903.000000	95.743890
3902.000000	95.744020
3901.000000	95.742813
3900.000000	95.739762
3899.000000	95.736439
3898.000000	95.735539
3897.000000	95.738109
3896.000000	95.742586
3895.000000	95.745640
3894.000000	95.743451
3893.000000	95.734830
3892.000000	95.724034
3891.000000	95.718064
3890.000000	95.719512
3889.000000	95.724044
3888.000000	95.725291
3887.000000	95.720632
3886.000000	95.714161
3885.000000	95.712849
3884.000000	95.717880
3883.000000	95.723515
3882.000000	95.724637
3881.000000	95.722255
3880.000000	95.721303
3879.000000	95.723867
3878.000000	95.726836
3877.000000	95.726911
3876.000000	95.724480
3875.000000	95.722320
3874.000000	95.722438
3873.000000	95.723863
3872.000000	95.723041
3871.000000	95.717627
3870.000000	95.710288
3869.000000	95.705986
3868.000000	95.705124
3867.000000	95.703270
3866.000000	95.697918
3865.000000	95.692779
3864.000000	95.694712
3863.000000	95.705170
3862.000000	95.717526
3861.000000	95.724219
3860.000000	95.723814
3859.000000	95.721189
3858.000000	95.722929
3857.000000	95.731342
3856.000000	95.741002
3855.000000	95.741820
3854.000000	95.731925
3853.000000	95.722992
3852.000000	95.722425
3851.000000	95.724433
3850.000000	95.724097
3849.000000	95.722883
3848.000000	95.723045
3847.000000	95.724901
3846.000000	95.727021
3845.000000	95.728058
3844.000000	95.728090
3843.000000	95.727873
3842.000000	95.728161
3841.000000	95.729440
3840.000000	95.731664
3839.000000	95.734421
3838.000000	95.737502
3837.000000	95.740920
3836.000000	95.744455
3835.000000	95.746914
3834.000000	95.746896
3833.000000	95.744211
3832.000000	95.740585
3831.000000	95.737739
3830.000000	95.734776
3829.000000	95.729828
3828.000000	95.724144
3827.000000	95.722215
3826.000000	95.727442
3825.000000	95.737941
3824.000000	95.746549
3823.000000	95.745852
3822.000000	95.737251
3821.000000	95.732896
3820.000000	95.742408
3819.000000	95.760342
3818.000000	95.772518
3817.000000	95.770557
3816.000000	95.759262
3815.000000	95.751580
3814.000000	95.753632
3813.000000	95.761246
3812.000000	95.769332
3811.000000	95.776921
3810.000000	95.783846
3809.000000	95.787288
3808.000000	95.783334
3807.000000	95.771956
3806.000000	95.758269
3805.000000	95.747454
3804.000000	95.740528
3803.000000	95.734899
3802.000000	95.728551
3801.000000	95.724222
3800.000000	95.725552
3799.000000	95.730873
3798.000000	95.736891
3797.000000	95.744024
3796.000000	95.755199
3795.000000	95.770708
3794.000000	95.785282
3793.000000	95.792195
3792.000000	95.789773
3791.000000	95.782165
3790.000000	95.774640
3789.000000	95.769859
3788.000000	95.767618
3787.000000	95.766518
3786.000000	95.765182
3785.000000	95.763129
3784.000000	95.760922
3783.000000	95.759229
3782.000000	95.758018
3781.000000	95.757657
3780.000000	95.759955
3779.000000	95.766293
3778.000000	95.775057
3777.000000	95.782735
3776.000000	95.787707
3775.000000	95.791073
3774.000000	95.794096
3773.000000	95.795769
3772.000000	95.793582
3771.000000	95.786871
3770.000000	95.779333
3769.000000	95.776126
3768.000000	95.778441
3767.000000	95.782914
3766.000000	95.785552
3765.000000	95.784731
3764.000000	95.780880
3763.000000	95.774595
3762.000000	95.766611
3761.000000	95.759916
3760.000000	95.759156
3759.000000	95.766116
3758.000000	95.776757
3757.000000	95.785301
3756.000000	95.789253
3755.000000	95.788046
3754.000000	95.780758
3753.000000	95.767504
3752.000000	95.751777
3751.000000	95.738404
3750.000000	95.729302
3749.000000	95.725036
3748.000000	95.728765
3747.000000	95.742248
3746.000000	95.758594
3745.000000	95.767960
3744.000000	95.770060
3743.000000	95.769495
3742.000000	95.766130
3741.000000	95.760994
3740.000000	95.758457
3739.000000	95.759669
3738.000000	95.760250
3737.000000	95.755901
3736.000000	95.750169
3735.000000	95.751220
3734.000000	95.760210
3733.000000	95.768611
3732.000000	95.768325
3731.000000	95.758954
3730.000000	95.744550
3729.000000	95.729097
3728.000000	95.715523
3727.000000	95.706022
3726.000000	95.701112
3725.000000	95.699255
3724.000000	95.699508
3723.000000	95.704161
3722.000000	95.716568
3721.000000	95.736148
3720.000000	95.757694
3719.000000	95.775192
3718.000000	95.785077
3717.000000	95.787189
3716.000000	95.783547
3715.000000	95.775127
3714.000000	95.761328
3713.000000	95.743615
3712.000000	95.727897
3711.000000	95.719831
3710.000000	95.718148
3709.000000	95.717965
3708.000000	95.718037
3707.000000	95.721287
3706.000000	95.730168
3705.000000	95.743871
3704.000000	95.759523
3703.000000	95.774485
3702.000000	95.787422
3701.000000	95.797627
3700.000000	95.804255
3699.000000	95.806736
3698.000000	95.806061
3697.000000	95.804973
3696.000000	95.806585
3695.000000	95.811171
3694.000000	95.815549
3693.000000	95.817078
3692.000000	95.816733
3691.000000	95.816784
3690.000000	95.817461
3689.000000	95.818327
3688.000000	95.820241
3687.000000	95.823436
3686.000000	95.826402
3685.000000	95.827561
3684.000000	95.826162
3683.000000	95.822254
3682.000000	95.816040
3681.000000	95.808393
3680.000000	95.801709
3679.000000	95.797708
3678.000000	95.793555
3677.000000	95.783591
3676.000000	95.769374
3675.000000	95.760952
3674.000000	95.761280
3673.000000	95.761548
3672.000000	95.754331
3671.000000	95.740521
3670.000000	95.727501
3669.000000	95.722133
3668.000000	95.721926
3667.000000	95.719106
3666.000000	95.710682
3665.000000	95.700049
3664.000000	95.693458
3663.000000	95.695812
3662.000000	95.707438
3661.000000	95.724486
3660.000000	95.741802
3659.000000	95.754620
3658.000000	95.759360
3657.000000	95.756354
3656.000000	95.751090
3655.000000	95.748855
3654.000000	95.749373
3653.000000	95.748659
3652.000000	95.743729
3651.000000	95.736625
3650.000000	95.735741
3649.000000	95.749574
3648.000000	95.776437
3647.000000	95.804781
