Created as New Dataset,Sample 127 By YargerLab Date Wednesday, June 05 2024
cm-1,A
4000.00,0.0016
3999.00,0.0016
3998.00,0.0016
3997.00,0.0016
3996.00,0.0016
3995.00,0.0017
3994.00,0.0017
3993.00,0.0017
3992.00,0.0017
3991.00,0.0017
3990.00,0.0017
3989.00,0.0017
3988.00,0.0017
3987.00,0.0017
3986.00,0.0017
3985.00,0.0017
3984.00,0.0017
3983.00,0.0017
3982.00,0.0017
3981.00,0.0017
3980.00,0.0017
3979.00,0.0017
3978.00,0.0017
3977.00,0.0017
3976.00,0.0017
3975.00,0.0017
3974.00,0.0017
3973.00,0.0017
3972.00,0.0017
3971.00,0.0017
3970.00,0.0017
3969.00,0.0017
3968.00,0.0017
3967.00,0.0017
3966.00,0.0017
3965.00,0.0017
3964.00,0.0017
3963.00,0.0017
3962.00,0.0017
3961.00,0.0017
3960.00,0.0017
3959.00,0.0017
3958.00,0.0017
3957.00,0.0017
3956.00,0.0017
3955.00,0.0017
3954.00,0.0017
3953.00,0.0017
3952.00,0.0017
3951.00,0.0017
3950.00,0.0017
3949.00,0.0018
3948.00,0.0018
3947.00,0.0019
3946.00,0.0019
3945.00,0.0018
3944.00,0.0018
3943.00,0.0017
3942.00,0.0017
3941.00,0.0017
3940.00,0.0017
3939.00,0.0017
3938.00,0.0018
3937.00,0.0018
3936.00,0.0018
3935.00,0.0019
3934.00,0.0019
3933.00,0.0019
3932.00,0.0019
3931.00,0.0019
3930.00,0.0018
3929.00,0.0018
3928.00,0.0018
3927.00,0.0017
3926.00,0.0017
3925.00,0.0017
3924.00,0.0017
3923.00,0.0018
3922.00,0.0019
3921.00,0.0019
3920.00,0.0020
3919.00,0.0020
3918.00,0.0020
3917.00,0.0020
3916.00,0.0019
3915.00,0.0019
3914.00,0.0018
3913.00,0.0018
3912.00,0.0018
3911.00,0.0018
3910.00,0.0017
3909.00,0.0017
3908.00,0.0017
3907.00,0.0017
3906.00,0.0018
3905.00,0.0019
3904.00,0.0021
3903.00,0.0023
3902.00,0.0024
3901.00,0.0024
3900.00,0.0023
3899.00,0.0021
3898.00,0.0020
3897.00,0.0020
3896.00,0.0020
3895.00,0.0019
3894.00,0.0019
3893.00,0.0019
3892.00,0.0019
3891.00,0.0019
3890.00,0.0019
3889.00,0.0020
3888.00,0.0021
3887.00,0.0022
3886.00,0.0022
3885.00,0.0021
3884.00,0.0021
3883.00,0.0021
3882.00,0.0021
3881.00,0.0021
3880.00,0.0021
3879.00,0.0021
3878.00,0.0021
3877.00,0.0021
3876.00,0.0021
3875.00,0.0020
3874.00,0.0020
3873.00,0.0020
3872.00,0.0021
3871.00,0.0022
3870.00,0.0023
3869.00,0.0022
3868.00,0.0022
3867.00,0.0023
3866.00,0.0023
3865.00,0.0023
3864.00,0.0022
3863.00,0.0022
3862.00,0.0022
3861.00,0.0023
3860.00,0.0023
3859.00,0.0021
3858.00,0.0019
3857.00,0.0017
3856.00,0.0016
3855.00,0.0016
3854.00,0.0017
3853.00,0.0019
3852.00,0.0021
3851.00,0.0022
3850.00,0.0022
3849.00,0.0023
3848.00,0.0022
3847.00,0.0022
3846.00,0.0022
3845.00,0.0022
3844.00,0.0022
3843.00,0.0022
3842.00,0.0023
3841.00,0.0023
3840.00,0.0023
3839.00,0.0024
3838.00,0.0024
3837.00,0.0023
3836.00,0.0023
3835.00,0.0023
3834.00,0.0023
3833.00,0.0023
3832.00,0.0023
3831.00,0.0023
3830.00,0.0022
3829.00,0.0022
3828.00,0.0022
3827.00,0.0022
3826.00,0.0021
3825.00,0.0022
3824.00,0.0023
3823.00,0.0024
3822.00,0.0024
3821.00,0.0023
3820.00,0.0023
3819.00,0.0023
3818.00,0.0024
3817.00,0.0024
3816.00,0.0023
3815.00,0.0022
3814.00,0.0021
3813.00,0.0020
3812.00,0.0020
3811.00,0.0020
3810.00,0.0020
3809.00,0.0020
3808.00,0.0021
3807.00,0.0021
3806.00,0.0022
3805.00,0.0022
3804.00,0.0023
3803.00,0.0024
3802.00,0.0023
3801.00,0.0022
3800.00,0.0022
3799.00,0.0022
3798.00,0.0022
3797.00,0.0022
3796.00,0.0021
3795.00,0.0021
3794.00,0.0020
3793.00,0.0019
3792.00,0.0019
3791.00,0.0018
3790.00,0.0018
3789.00,0.0018
3788.00,0.0018
3787.00,0.0018
3786.00,0.0018
3785.00,0.0018
3784.00,0.0018
3783.00,0.0019
3782.00,0.0020
3781.00,0.0020
3780.00,0.0020
3779.00,0.0020
3778.00,0.0019
3777.00,0.0019
3776.00,0.0020
3775.00,0.0019
3774.00,0.0019
3773.00,0.0019
3772.00,0.0020
3771.00,0.0021
3770.00,0.0021
3769.00,0.0021
3768.00,0.0022
3767.00,0.0022
3766.00,0.0022
3765.00,0.0022
3764.00,0.0022
3763.00,0.0022
3762.00,0.0022
3761.00,0.0023
3760.00,0.0022
3759.00,0.0022
3758.00,0.0023
3757.00,0.0023
3756.00,0.0024
3755.00,0.0024
3754.00,0.0025
3753.00,0.0026
3752.00,0.0027
3751.00,0.0028
3750.00,0.0030
3749.00,0.0030
3748.00,0.0029
3747.00,0.0028
3746.00,0.0028
3745.00,0.0028
3744.00,0.0028
3743.00,0.0027
3742.00,0.0027
3741.00,0.0028
3740.00,0.0029
3739.00,0.0030
3738.00,0.0031
3737.00,0.0031
3736.00,0.0030
3735.00,0.0029
3734.00,0.0028
3733.00,0.0028
3732.00,0.0027
3731.00,0.0025
3730.00,0.0024
3729.00,0.0023
3728.00,0.0024
3727.00,0.0023
3726.00,0.0023
3725.00,0.0022
3724.00,0.0022
3723.00,0.0022
3722.00,0.0021
3721.00,0.0021
3720.00,0.0020
3719.00,0.0020
3718.00,0.0020
3717.00,0.0020
3716.00,0.0020
3715.00,0.0021
3714.00,0.0022
3713.00,0.0023
3712.00,0.0023
3711.00,0.0023
3710.00,0.0023
3709.00,0.0022
3708.00,0.0022
3707.00,0.0021
3706.00,0.0020
3705.00,0.0020
3704.00,0.0019
3703.00,0.0018
3702.00,0.0018
3701.00,0.0017
3700.00,0.0017
3699.00,0.0018
3698.00,0.0018
3697.00,0.0018
3696.00,0.0018
3695.00,0.0018
3694.00,0.0018
3693.00,0.0019
3692.00,0.0019
3691.00,0.0019
3690.00,0.0020
3689.00,0.0021
3688.00,0.0022
3687.00,0.0022
3686.00,0.0021
3685.00,0.0021
3684.00,0.0021
3683.00,0.0021
3682.00,0.0021
3681.00,0.0021
3680.00,0.0021
3679.00,0.0021
3678.00,0.0023
3677.00,0.0024
3676.00,0.0025
3675.00,0.0025
3674.00,0.0025
3673.00,0.0026
3672.00,0.0027
3671.00,0.0027
3670.00,0.0025
3669.00,0.0024
3668.00,0.0023
3667.00,0.0023
3666.00,0.0022
3665.00,0.0022
3664.00,0.0021
3663.00,0.0021
3662.00,0.0020
3661.00,0.0020
3660.00,0.0020
3659.00,0.0021
3658.00,0.0022
3657.00,0.0023
3656.00,0.0023
3655.00,0.0024
3654.00,0.0025
3653.00,0.0026
3652.00,0.0028
3651.00,0.0029
3650.00,0.0030
3649.00,0.0031
3648.00,0.0031
3647.00,0.0030
3646.00,0.0028
3645.00,0.0027
3644.00,0.0026
3643.00,0.0025
3642.00,0.0024
3641.00,0.0023
3640.00,0.0022
3639.00,0.0022
3638.00,0.0022
3637.00,0.0023
3636.00,0.0023
3635.00,0.0024
3634.00,0.0024
3633.00,0.0024
3632.00,0.0025
3631.00,0.0026
3630.00,0.0028
3629.00,0.0028
3628.00,0.0028
3627.00,0.0028
3626.00,0.0028
3625.00,0.0028
3624.00,0.0028
3623.00,0.0027
3622.00,0.0027
3621.00,0.0027
3620.00,0.0026
3619.00,0.0027
3618.00,0.0028
3617.00,0.0029
3616.00,0.0030
3615.00,0.0031
3614.00,0.0031
3613.00,0.0031
3612.00,0.0032
3611.00,0.0032
3610.00,0.0033
3609.00,0.0032
3608.00,0.0031
3607.00,0.0030
3606.00,0.0029
3605.00,0.0029
3604.00,0.0029
3603.00,0.0029
3602.00,0.0029
3601.00,0.0029
3600.00,0.0029
3599.00,0.0030
3598.00,0.0030
3597.00,0.0030
3596.00,0.0030
3595.00,0.0030
3594.00,0.0030
3593.00,0.0031
3592.00,0.0031
3591.00,0.0032
3590.00,0.0033
3589.00,0.0033
3588.00,0.0033
3587.00,0.0032
3586.00,0.0032
3585.00,0.0032
3584.00,0.0032
3583.00,0.0032
3582.00,0.0032
3581.00,0.0031
3580.00,0.0031
3579.00,0.0031
3578.00,0.0031
3577.00,0.0031
3576.00,0.0031
3575.00,0.0031
3574.00,0.0031
3573.00,0.0032
3572.00,0.0033
3571.00,0.0034
3570.00,0.0035
3569.00,0.0036
3568.00,0.0037
3567.00,0.0037
3566.00,0.0037
3565.00,0.0037
3564.00,0.0037
3563.00,0.0037
3562.00,0.0037
3561.00,0.0036
3560.00,0.0036
3559.00,0.0035
3558.00,0.0035
3557.00,0.0035
3556.00,0.0035
3555.00,0.0036
3554.00,0.0036
3553.00,0.0036
3552.00,0.0037
3551.00,0.0037
3550.00,0.0038
3549.00,0.0039
3548.00,0.0040
3547.00,0.0040
3546.00,0.0040
3545.00,0.0040
3544.00,0.0040
3543.00,0.0040
3542.00,0.0040
3541.00,0.0039
3540.00,0.0039
3539.00,0.0039
3538.00,0.0039
3537.00,0.0039
3536.00,0.0039
3535.00,0.0040
3534.00,0.0040
3533.00,0.0040
3532.00,0.0041
3531.00,0.0041
3530.00,0.0041
3529.00,0.0042
3528.00,0.0042
3527.00,0.0043
3526.00,0.0044
3525.00,0.0044
3524.00,0.0044
3523.00,0.0044
3522.00,0.0044
3521.00,0.0043
3520.00,0.0043
3519.00,0.0043
3518.00,0.0043
3517.00,0.0044
3516.00,0.0044
3515.00,0.0044
3514.00,0.0044
3513.00,0.0044
3512.00,0.0044
3511.00,0.0045
3510.00,0.0045
3509.00,0.0045
3508.00,0.0046
3507.00,0.0046
3506.00,0.0047
3505.00,0.0047
3504.00,0.0047
3503.00,0.0047
3502.00,0.0047
3501.00,0.0048
3500.00,0.0048
3499.00,0.0048
3498.00,0.0048
3497.00,0.0048
3496.00,0.0048
3495.00,0.0048
3494.00,0.0048
3493.00,0.0048
3492.00,0.0049
3491.00,0.0049
3490.00,0.0049
3489.00,0.0049
3488.00,0.0049
3487.00,0.0050
3486.00,0.0050
3485.00,0.0050
3484.00,0.0050
3483.00,0.0050
3482.00,0.0050
3481.00,0.0050
3480.00,0.0051
3479.00,0.0051
3478.00,0.0051
3477.00,0.0051
3476.00,0.0051
3475.00,0.0051
3474.00,0.0051
3473.00,0.0052
3472.00,0.0052
3471.00,0.0052
3470.00,0.0053
3469.00,0.0053
3468.00,0.0053
3467.00,0.0053
3466.00,0.0053
3465.00,0.0054
3464.00,0.0054
3463.00,0.0054
3462.00,0.0054
3461.00,0.0054
3460.00,0.0054
3459.00,0.0054
3458.00,0.0054
3457.00,0.0054
3456.00,0.0054
3455.00,0.0055
3454.00,0.0055
3453.00,0.0055
3452.00,0.0055
3451.00,0.0055
3450.00,0.0056
3449.00,0.0056
3448.00,0.0056
3447.00,0.0056
3446.00,0.0057
3445.00,0.0057
3444.00,0.0057
3443.00,0.0057
3442.00,0.0058
3441.00,0.0058
3440.00,0.0058
3439.00,0.0058
3438.00,0.0059
3437.00,0.0059
3436.00,0.0059
3435.00,0.0059
3434.00,0.0059
3433.00,0.0059
3432.00,0.0059
3431.00,0.0060
3430.00,0.0060
3429.00,0.0060
3428.00,0.0060
3427.00,0.0060
3426.00,0.0060
3425.00,0.0061
3424.00,0.0061
3423.00,0.0061
3422.00,0.0061
3421.00,0.0061
3420.00,0.0062
3419.00,0.0062
3418.00,0.0062
3417.00,0.0063
3416.00,0.0063
3415.00,0.0063
3414.00,0.0063
3413.00,0.0063
3412.00,0.0063
3411.00,0.0064
3410.00,0.0064
3409.00,0.0064
3408.00,0.0064
3407.00,0.0064
3406.00,0.0065
3405.00,0.0065
3404.00,0.0065
3403.00,0.0066
3402.00,0.0066
3401.00,0.0066
3400.00,0.0067
3399.00,0.0067
3398.00,0.0067
3397.00,0.0067
3396.00,0.0067
3395.00,0.0067
3394.00,0.0068
3393.00,0.0068
3392.00,0.0068
3391.00,0.0068
3390.00,0.0068
3389.00,0.0068
3388.00,0.0068
3387.00,0.0068
3386.00,0.0068
3385.00,0.0069
3384.00,0.0069
3383.00,0.0069
3382.00,0.0070
3381.00,0.0070
3380.00,0.0070
3379.00,0.0070
3378.00,0.0070
3377.00,0.0071
3376.00,0.0071
3375.00,0.0071
3374.00,0.0071
3373.00,0.0072
3372.00,0.0072
3371.00,0.0072
3370.00,0.0073
3369.00,0.0073
3368.00,0.0074
3367.00,0.0074
3366.00,0.0074
3365.00,0.0074
3364.00,0.0074
3363.00,0.0074
3362.00,0.0075
3361.00,0.0075
3360.00,0.0075
3359.00,0.0076
3358.00,0.0076
3357.00,0.0076
3356.00,0.0076
3355.00,0.0077
3354.00,0.0077
3353.00,0.0077
3352.00,0.0078
3351.00,0.0078
3350.00,0.0078
3349.00,0.0078
3348.00,0.0079
3347.00,0.0079
3346.00,0.0079
3345.00,0.0080
3344.00,0.0080
3343.00,0.0081
3342.00,0.0081
3341.00,0.0082
3340.00,0.0082
3339.00,0.0083
3338.00,0.0083
3337.00,0.0083
3336.00,0.0084
3335.00,0.0084
3334.00,0.0084
3333.00,0.0084
3332.00,0.0085
3331.00,0.0085
3330.00,0.0086
3329.00,0.0086
3328.00,0.0087
3327.00,0.0087
3326.00,0.0088
3325.00,0.0089
3324.00,0.0089
3323.00,0.0090
3322.00,0.0090
3321.00,0.0091
3320.00,0.0091
3319.00,0.0092
3318.00,0.0092
3317.00,0.0093
3316.00,0.0093
3315.00,0.0094
3314.00,0.0095
3313.00,0.0096
3312.00,0.0096
3311.00,0.0097
3310.00,0.0098
3309.00,0.0099
3308.00,0.0099
3307.00,0.0100
3306.00,0.0100
3305.00,0.0101
3304.00,0.0102
3303.00,0.0102
3302.00,0.0103
3301.00,0.0103
3300.00,0.0104
3299.00,0.0104
3298.00,0.0105
3297.00,0.0106
3296.00,0.0107
3295.00,0.0107
3294.00,0.0108
3293.00,0.0108
3292.00,0.0109
3291.00,0.0109
3290.00,0.0110
3289.00,0.0110
3288.00,0.0110
3287.00,0.0111
3286.00,0.0111
3285.00,0.0111
3284.00,0.0111
3283.00,0.0112
3282.00,0.0112
3281.00,0.0112
3280.00,0.0112
3279.00,0.0112
3278.00,0.0113
3277.00,0.0113
3276.00,0.0113
3275.00,0.0113
3274.00,0.0113
3273.00,0.0113
3272.00,0.0113
3271.00,0.0113
3270.00,0.0113
3269.00,0.0112
3268.00,0.0112
3267.00,0.0111
3266.00,0.0111
3265.00,0.0110
3264.00,0.0109
3263.00,0.0109
3262.00,0.0108
3261.00,0.0108
3260.00,0.0108
3259.00,0.0107
3258.00,0.0107
3257.00,0.0107
3256.00,0.0106
3255.00,0.0106
3254.00,0.0105
3253.00,0.0104
3252.00,0.0104
3251.00,0.0103
3250.00,0.0103
3249.00,0.0103
3248.00,0.0103
3247.00,0.0102
3246.00,0.0102
3245.00,0.0101
3244.00,0.0100
3243.00,0.0099
3242.00,0.0099
3241.00,0.0098
3240.00,0.0098
3239.00,0.0098
3238.00,0.0097
3237.00,0.0097
3236.00,0.0097
3235.00,0.0096
3234.00,0.0096
3233.00,0.0095
3232.00,0.0095
3231.00,0.0094
3230.00,0.0094
3229.00,0.0093
3228.00,0.0093
3227.00,0.0092
3226.00,0.0092
3225.00,0.0092
3224.00,0.0091
3223.00,0.0091
3222.00,0.0090
3221.00,0.0090
3220.00,0.0090
3219.00,0.0089
3218.00,0.0089
3217.00,0.0089
3216.00,0.0089
3215.00,0.0088
3214.00,0.0088
3213.00,0.0087
3212.00,0.0087
3211.00,0.0087
3210.00,0.0086
3209.00,0.0086
3208.00,0.0086
3207.00,0.0085
3206.00,0.0085
3205.00,0.0084
3204.00,0.0084
3203.00,0.0083
3202.00,0.0083
3201.00,0.0083
3200.00,0.0082
3199.00,0.0082
3198.00,0.0082
3197.00,0.0081
3196.00,0.0081
3195.00,0.0081
3194.00,0.0080
3193.00,0.0080
3192.00,0.0080
3191.00,0.0079
3190.00,0.0079
3189.00,0.0078
3188.00,0.0078
3187.00,0.0077
3186.00,0.0077
3185.00,0.0077
3184.00,0.0076
3183.00,0.0076
3182.00,0.0076
3181.00,0.0075
3180.00,0.0075
3179.00,0.0075
3178.00,0.0074
3177.00,0.0074
3176.00,0.0073
3175.00,0.0073
3174.00,0.0072
3173.00,0.0072
3172.00,0.0072
3171.00,0.0071
3170.00,0.0071
3169.00,0.0070
3168.00,0.0070
3167.00,0.0070
3166.00,0.0069
3165.00,0.0069
3164.00,0.0069
3163.00,0.0068
3162.00,0.0068
3161.00,0.0068
3160.00,0.0068
3159.00,0.0067
3158.00,0.0067
3157.00,0.0067
3156.00,0.0067
3155.00,0.0066
3154.00,0.0066
3153.00,0.0066
3152.00,0.0066
3151.00,0.0065
3150.00,0.0065
3149.00,0.0064
3148.00,0.0064
3147.00,0.0064
3146.00,0.0064
3145.00,0.0063
3144.00,0.0063
3143.00,0.0063
3142.00,0.0063
3141.00,0.0063
3140.00,0.0062
3139.00,0.0062
3138.00,0.0062
3137.00,0.0061
3136.00,0.0061
3135.00,0.0061
3134.00,0.0061
3133.00,0.0061
3132.00,0.0061
3131.00,0.0061
3130.00,0.0061
3129.00,0.0060
3128.00,0.0060
3127.00,0.0060
3126.00,0.0060
3125.00,0.0060
3124.00,0.0060
3123.00,0.0060
3122.00,0.0060
3121.00,0.0060
3120.00,0.0060
3119.00,0.0060
3118.00,0.0060
3117.00,0.0060
3116.00,0.0060
3115.00,0.0060
3114.00,0.0060
3113.00,0.0060
3112.00,0.0059
3111.00,0.0059
3110.00,0.0060
3109.00,0.0060
3108.00,0.0060
3107.00,0.0059
3106.00,0.0059
3105.00,0.0059
3104.00,0.0059
3103.00,0.0059
3102.00,0.0059
3101.00,0.0060
3100.00,0.0060
3099.00,0.0060
3098.00,0.0060
3097.00,0.0060
3096.00,0.0060
3095.00,0.0060
3094.00,0.0060
3093.00,0.0060
3092.00,0.0060
3091.00,0.0060
3090.00,0.0061
3089.00,0.0061
3088.00,0.0061
3087.00,0.0061
3086.00,0.0061
3085.00,0.0061
3084.00,0.0061
3083.00,0.0061
3082.00,0.0061
3081.00,0.0061
3080.00,0.0061
3079.00,0.0061
3078.00,0.0061
3077.00,0.0061
3076.00,0.0061
3075.00,0.0061
3074.00,0.0061
3073.00,0.0061
3072.00,0.0061
3071.00,0.0061
3070.00,0.0061
3069.00,0.0061
3068.00,0.0061
3067.00,0.0061
3066.00,0.0061
3065.00,0.0061
3064.00,0.0060
3063.00,0.0060
3062.00,0.0060
3061.00,0.0059
3060.00,0.0059
3059.00,0.0059
3058.00,0.0059
3057.00,0.0059
3056.00,0.0058
3055.00,0.0058
3054.00,0.0058
3053.00,0.0058
3052.00,0.0058
3051.00,0.0058
3050.00,0.0057
3049.00,0.0057
3048.00,0.0057
3047.00,0.0056
3046.00,0.0056
3045.00,0.0056
3044.00,0.0056
3043.00,0.0055
3042.00,0.0055
3041.00,0.0055
3040.00,0.0055
3039.00,0.0054
3038.00,0.0054
3037.00,0.0054
3036.00,0.0054
3035.00,0.0054
3034.00,0.0053
3033.00,0.0053
3032.00,0.0053
3031.00,0.0053
3030.00,0.0052
3029.00,0.0052
3028.00,0.0051
3027.00,0.0051
3026.00,0.0051
3025.00,0.0051
3024.00,0.0051
3023.00,0.0050
3022.00,0.0050
3021.00,0.0050
3020.00,0.0050
3019.00,0.0050
3018.00,0.0050
3017.00,0.0050
3016.00,0.0050
3015.00,0.0050
3014.00,0.0050
3013.00,0.0050
3012.00,0.0050
3011.00,0.0050
3010.00,0.0050
3009.00,0.0050
3008.00,0.0050
3007.00,0.0050
3006.00,0.0050
3005.00,0.0051
3004.00,0.0051
3003.00,0.0051
3002.00,0.0052
3001.00,0.0052
3000.00,0.0052
2999.00,0.0053
2998.00,0.0053
2997.00,0.0053
2996.00,0.0053
2995.00,0.0054
2994.00,0.0054
2993.00,0.0054
2992.00,0.0055
2991.00,0.0055
2990.00,0.0055
2989.00,0.0055
2988.00,0.0055
2987.00,0.0056
2986.00,0.0056
2985.00,0.0057
2984.00,0.0058
2983.00,0.0059
2982.00,0.0060
2981.00,0.0061
2980.00,0.0060
2979.00,0.0060
2978.00,0.0059
2977.00,0.0059
2976.00,0.0059
2975.00,0.0058
2974.00,0.0058
2973.00,0.0058
2972.00,0.0058
2971.00,0.0058
2970.00,0.0058
2969.00,0.0057
2968.00,0.0057
2967.00,0.0056
2966.00,0.0056
2965.00,0.0056
2964.00,0.0056
2963.00,0.0056
2962.00,0.0056
2961.00,0.0055
2960.00,0.0055
2959.00,0.0055
2958.00,0.0055
2957.00,0.0054
2956.00,0.0054
2955.00,0.0054
2954.00,0.0053
2953.00,0.0052
2952.00,0.0052
2951.00,0.0051
2950.00,0.0050
2949.00,0.0050
2948.00,0.0049
2947.00,0.0049
2946.00,0.0049
2945.00,0.0049
2944.00,0.0049
2943.00,0.0049
2942.00,0.0049
2941.00,0.0049
2940.00,0.0050
2939.00,0.0050
2938.00,0.0051
2937.00,0.0052
2936.00,0.0053
2935.00,0.0054
2934.00,0.0055
2933.00,0.0056
2932.00,0.0057
2931.00,0.0059
2930.00,0.0060
2929.00,0.0062
2928.00,0.0064
2927.00,0.0065
2926.00,0.0068
2925.00,0.0070
2924.00,0.0073
2923.00,0.0077
2922.00,0.0081
2921.00,0.0085
2920.00,0.0089
2919.00,0.0093
2918.00,0.0096
2917.00,0.0098
2916.00,0.0097
2915.00,0.0093
2914.00,0.0088
2913.00,0.0082
2912.00,0.0076
2911.00,0.0071
2910.00,0.0067
2909.00,0.0064
2908.00,0.0062
2907.00,0.0060
2906.00,0.0059
2905.00,0.0058
2904.00,0.0057
2903.00,0.0056
2902.00,0.0056
2901.00,0.0055
2900.00,0.0055
2899.00,0.0054
2898.00,0.0054
2897.00,0.0054
2896.00,0.0054
2895.00,0.0053
2894.00,0.0053
2893.00,0.0053
2892.00,0.0052
2891.00,0.0052
2890.00,0.0052
2889.00,0.0052
2888.00,0.0051
2887.00,0.0051
2886.00,0.0051
2885.00,0.0051
2884.00,0.0051
2883.00,0.0050
2882.00,0.0050
2881.00,0.0050
2880.00,0.0050
2879.00,0.0049
2878.00,0.0049
2877.00,0.0049
2876.00,0.0048
2875.00,0.0048
2874.00,0.0048
2873.00,0.0048
2872.00,0.0047
2871.00,0.0046
2870.00,0.0046
2869.00,0.0045
2868.00,0.0045
2867.00,0.0045
2866.00,0.0045
2865.00,0.0045
2864.00,0.0045
2863.00,0.0046
2862.00,0.0046
2861.00,0.0047
2860.00,0.0047
2859.00,0.0048
2858.00,0.0049
2857.00,0.0050
2856.00,0.0051
2855.00,0.0053
2854.00,0.0056
2853.00,0.0059
2852.00,0.0064
2851.00,0.0069
2850.00,0.0072
2849.00,0.0073
2848.00,0.0072
2847.00,0.0068
2846.00,0.0062
2845.00,0.0057
2844.00,0.0052
2843.00,0.0049
2842.00,0.0046
2841.00,0.0045
2840.00,0.0044
2839.00,0.0043
2838.00,0.0042
2837.00,0.0041
2836.00,0.0041
2835.00,0.0041
2834.00,0.0040
2833.00,0.0040
2832.00,0.0040
2831.00,0.0039
2830.00,0.0039
2829.00,0.0039
2828.00,0.0039
2827.00,0.0039
2826.00,0.0039
2825.00,0.0039
2824.00,0.0039
2823.00,0.0038
2822.00,0.0038
2821.00,0.0038
2820.00,0.0038
2819.00,0.0038
2818.00,0.0038
2817.00,0.0038
2816.00,0.0038
2815.00,0.0038
2814.00,0.0038
2813.00,0.0038
2812.00,0.0038
2811.00,0.0038
2810.00,0.0038
2809.00,0.0038
2808.00,0.0038
2807.00,0.0038
2806.00,0.0037
2805.00,0.0037
2804.00,0.0037
2803.00,0.0037
2802.00,0.0037
2801.00,0.0037
2800.00,0.0037
2799.00,0.0037
2798.00,0.0037
2797.00,0.0037
2796.00,0.0037
2795.00,0.0037
2794.00,0.0036
2793.00,0.0036
2792.00,0.0036
2791.00,0.0036
2790.00,0.0036
2789.00,0.0036
2788.00,0.0036
2787.00,0.0036
2786.00,0.0035
2785.00,0.0035
2784.00,0.0035
2783.00,0.0035
2782.00,0.0035
2781.00,0.0035
2780.00,0.0035
2779.00,0.0035
2778.00,0.0035
2777.00,0.0035
2776.00,0.0035
2775.00,0.0035
2774.00,0.0035
2773.00,0.0035
2772.00,0.0034
2771.00,0.0034
2770.00,0.0034
2769.00,0.0034
2768.00,0.0034
2767.00,0.0034
2766.00,0.0034
2765.00,0.0034
2764.00,0.0034
2763.00,0.0034
2762.00,0.0034
2761.00,0.0034
2760.00,0.0033
2759.00,0.0033
2758.00,0.0033
2757.00,0.0033
