Created as New Dataset,Sample 249 By YargerLab Date Thursday, July 11 2024
cm-1,A
4000.00,0.0141
3999.00,0.0141
3998.00,0.0141
3997.00,0.0141
3996.00,0.0141
3995.00,0.0141
3994.00,0.0141
3993.00,0.0141
3992.00,0.0141
3991.00,0.0141
3990.00,0.0141
3989.00,0.0141
3988.00,0.0141
3987.00,0.0141
3986.00,0.0141
3985.00,0.0140
3984.00,0.0140
3983.00,0.0140
3982.00,0.0140
3981.00,0.0140
3980.00,0.0140
3979.00,0.0140
3978.00,0.0140
3977.00,0.0140
3976.00,0.0140
3975.00,0.0140
3974.00,0.0140
3973.00,0.0140
3972.00,0.0140
3971.00,0.0140
3970.00,0.0140
3969.00,0.0140
3968.00,0.0140
3967.00,0.0140
3966.00,0.0140
3965.00,0.0140
3964.00,0.0140
3963.00,0.0140
3962.00,0.0140
3961.00,0.0140
3960.00,0.0140
3959.00,0.0140
3958.00,0.0140
3957.00,0.0140
3956.00,0.0139
3955.00,0.0139
3954.00,0.0139
3953.00,0.0139
3952.00,0.0139
3951.00,0.0139
3950.00,0.0139
3949.00,0.0139
3948.00,0.0140
3947.00,0.0140
3946.00,0.0140
3945.00,0.0139
3944.00,0.0139
3943.00,0.0139
3942.00,0.0139
3941.00,0.0139
3940.00,0.0139
3939.00,0.0139
3938.00,0.0139
3937.00,0.0139
3936.00,0.0139
3935.00,0.0139
3934.00,0.0139
3933.00,0.0139
3932.00,0.0139
3931.00,0.0139
3930.00,0.0139
3929.00,0.0139
3928.00,0.0139
3927.00,0.0139
3926.00,0.0139
3925.00,0.0139
3924.00,0.0139
3923.00,0.0139
3922.00,0.0139
3921.00,0.0139
3920.00,0.0139
3919.00,0.0139
3918.00,0.0139
3917.00,0.0139
3916.00,0.0139
3915.00,0.0139
3914.00,0.0139
3913.00,0.0139
3912.00,0.0138
3911.00,0.0138
3910.00,0.0138
3909.00,0.0138
3908.00,0.0137
3907.00,0.0137
3906.00,0.0137
3905.00,0.0138
3904.00,0.0138
3903.00,0.0139
3902.00,0.0139
3901.00,0.0139
3900.00,0.0139
3899.00,0.0139
3898.00,0.0139
3897.00,0.0139
3896.00,0.0138
3895.00,0.0138
3894.00,0.0138
3893.00,0.0138
3892.00,0.0138
3891.00,0.0138
3890.00,0.0138
3889.00,0.0138
3888.00,0.0138
3887.00,0.0138
3886.00,0.0138
3885.00,0.0138
3884.00,0.0138
3883.00,0.0137
3882.00,0.0137
3881.00,0.0138
3880.00,0.0138
3879.00,0.0138
3878.00,0.0138
3877.00,0.0137
3876.00,0.0137
3875.00,0.0137
3874.00,0.0137
3873.00,0.0136
3872.00,0.0137
3871.00,0.0137
3870.00,0.0138
3869.00,0.0138
3868.00,0.0137
3867.00,0.0137
3866.00,0.0137
3865.00,0.0137
3864.00,0.0137
3863.00,0.0137
3862.00,0.0137
3861.00,0.0138
3860.00,0.0137
3859.00,0.0137
3858.00,0.0136
3857.00,0.0135
3856.00,0.0135
3855.00,0.0135
3854.00,0.0135
3853.00,0.0136
3852.00,0.0136
3851.00,0.0137
3850.00,0.0137
3849.00,0.0137
3848.00,0.0137
3847.00,0.0137
3846.00,0.0136
3845.00,0.0136
3844.00,0.0136
3843.00,0.0136
3842.00,0.0135
3841.00,0.0135
3840.00,0.0135
3839.00,0.0135
3838.00,0.0135
3837.00,0.0135
3836.00,0.0135
3835.00,0.0135
3834.00,0.0135
3833.00,0.0136
3832.00,0.0136
3831.00,0.0136
3830.00,0.0135
3829.00,0.0135
3828.00,0.0135
3827.00,0.0135
3826.00,0.0135
3825.00,0.0134
3824.00,0.0134
3823.00,0.0134
3822.00,0.0134
3821.00,0.0134
3820.00,0.0134
3819.00,0.0134
3818.00,0.0134
3817.00,0.0135
3816.00,0.0134
3815.00,0.0134
3814.00,0.0134
3813.00,0.0134
3812.00,0.0134
3811.00,0.0134
3810.00,0.0134
3809.00,0.0133
3808.00,0.0134
3807.00,0.0134
3806.00,0.0133
3805.00,0.0133
3804.00,0.0133
3803.00,0.0133
3802.00,0.0133
3801.00,0.0133
3800.00,0.0133
3799.00,0.0133
3798.00,0.0133
3797.00,0.0134
3796.00,0.0134
3795.00,0.0133
3794.00,0.0133
3793.00,0.0133
3792.00,0.0133
3791.00,0.0133
3790.00,0.0132
3789.00,0.0132
3788.00,0.0132
3787.00,0.0132
3786.00,0.0132
3785.00,0.0132
3784.00,0.0132
3783.00,0.0132
3782.00,0.0132
3781.00,0.0132
3780.00,0.0132
3779.00,0.0132
3778.00,0.0132
3777.00,0.0132
3776.00,0.0132
3775.00,0.0132
3774.00,0.0131
3773.00,0.0131
3772.00,0.0131
3771.00,0.0131
3770.00,0.0131
3769.00,0.0131
3768.00,0.0131
3767.00,0.0131
3766.00,0.0131
3765.00,0.0131
3764.00,0.0131
3763.00,0.0131
3762.00,0.0131
3761.00,0.0131
3760.00,0.0131
3759.00,0.0131
3758.00,0.0131
3757.00,0.0131
3756.00,0.0131
3755.00,0.0130
3754.00,0.0130
3753.00,0.0130
3752.00,0.0130
3751.00,0.0130
3750.00,0.0131
3749.00,0.0131
3748.00,0.0131
3747.00,0.0131
3746.00,0.0131
3745.00,0.0132
3744.00,0.0131
3743.00,0.0131
3742.00,0.0131
3741.00,0.0131
3740.00,0.0131
3739.00,0.0131
3738.00,0.0131
3737.00,0.0131
3736.00,0.0131
3735.00,0.0131
3734.00,0.0131
3733.00,0.0131
3732.00,0.0131
3731.00,0.0130
3730.00,0.0130
3729.00,0.0130
3728.00,0.0129
3727.00,0.0129
3726.00,0.0129
3725.00,0.0129
3724.00,0.0129
3723.00,0.0129
3722.00,0.0129
3721.00,0.0128
3720.00,0.0128
3719.00,0.0128
3718.00,0.0128
3717.00,0.0127
3716.00,0.0127
3715.00,0.0127
3714.00,0.0127
3713.00,0.0127
3712.00,0.0127
3711.00,0.0127
3710.00,0.0127
3709.00,0.0127
3708.00,0.0127
3707.00,0.0126
3706.00,0.0126
3705.00,0.0126
3704.00,0.0125
3703.00,0.0125
3702.00,0.0125
3701.00,0.0124
3700.00,0.0124
3699.00,0.0124
3698.00,0.0124
3697.00,0.0124
3696.00,0.0123
3695.00,0.0123
3694.00,0.0123
3693.00,0.0123
3692.00,0.0122
3691.00,0.0122
3690.00,0.0122
3689.00,0.0122
3688.00,0.0122
3687.00,0.0121
3686.00,0.0121
3685.00,0.0121
3684.00,0.0120
3683.00,0.0120
3682.00,0.0119
3681.00,0.0119
3680.00,0.0118
3679.00,0.0118
3678.00,0.0117
3677.00,0.0117
3676.00,0.0117
3675.00,0.0116
3674.00,0.0115
3673.00,0.0115
3672.00,0.0115
3671.00,0.0115
3670.00,0.0114
3669.00,0.0113
3668.00,0.0112
3667.00,0.0111
3666.00,0.0110
3665.00,0.0110
3664.00,0.0109
3663.00,0.0108
3662.00,0.0108
3661.00,0.0107
3660.00,0.0106
3659.00,0.0106
3658.00,0.0105
3657.00,0.0105
3656.00,0.0104
3655.00,0.0104
3654.00,0.0103
3653.00,0.0103
3652.00,0.0103
3651.00,0.0103
3650.00,0.0102
3649.00,0.0102
3648.00,0.0101
3647.00,0.0101
3646.00,0.0100
3645.00,0.0099
3644.00,0.0098
3643.00,0.0098
3642.00,0.0097
3641.00,0.0096
3640.00,0.0096
3639.00,0.0096
3638.00,0.0095
3637.00,0.0095
3636.00,0.0095
3635.00,0.0095
3634.00,0.0094
3633.00,0.0094
3632.00,0.0094
3631.00,0.0094
3630.00,0.0094
3629.00,0.0093
3628.00,0.0093
3627.00,0.0092
3626.00,0.0092
3625.00,0.0092
3624.00,0.0092
3623.00,0.0091
3622.00,0.0091
3621.00,0.0091
3620.00,0.0090
3619.00,0.0090
3618.00,0.0089
3617.00,0.0089
3616.00,0.0089
3615.00,0.0088
3614.00,0.0088
3613.00,0.0088
3612.00,0.0087
3611.00,0.0087
3610.00,0.0086
3609.00,0.0086
3608.00,0.0085
3607.00,0.0084
3606.00,0.0084
3605.00,0.0083
3604.00,0.0083
3603.00,0.0082
3602.00,0.0082
3601.00,0.0081
3600.00,0.0081
3599.00,0.0081
3598.00,0.0080
3597.00,0.0080
3596.00,0.0079
3595.00,0.0079
3594.00,0.0079
3593.00,0.0078
3592.00,0.0078
3591.00,0.0077
3590.00,0.0077
3589.00,0.0076
3588.00,0.0076
3587.00,0.0075
3586.00,0.0075
3585.00,0.0074
3584.00,0.0074
3583.00,0.0073
3582.00,0.0072
3581.00,0.0072
3580.00,0.0071
3579.00,0.0070
3578.00,0.0070
3577.00,0.0069
3576.00,0.0068
3575.00,0.0068
3574.00,0.0067
3573.00,0.0067
3572.00,0.0067
3571.00,0.0067
3570.00,0.0067
3569.00,0.0067
3568.00,0.0066
3567.00,0.0065
3566.00,0.0065
3565.00,0.0064
3564.00,0.0064
3563.00,0.0063
3562.00,0.0063
3561.00,0.0062
3560.00,0.0062
3559.00,0.0061
3558.00,0.0061
3557.00,0.0061
3556.00,0.0060
3555.00,0.0060
3554.00,0.0060
3553.00,0.0059
3552.00,0.0059
3551.00,0.0059
3550.00,0.0059
3549.00,0.0059
3548.00,0.0059
3547.00,0.0059
3546.00,0.0058
3545.00,0.0058
3544.00,0.0057
3543.00,0.0057
3542.00,0.0056
3541.00,0.0056
3540.00,0.0055
3539.00,0.0055
3538.00,0.0054
3537.00,0.0054
3536.00,0.0053
3535.00,0.0053
3534.00,0.0053
3533.00,0.0052
3532.00,0.0052
3531.00,0.0052
3530.00,0.0051
3529.00,0.0051
3528.00,0.0051
3527.00,0.0051
3526.00,0.0051
3525.00,0.0051
3524.00,0.0050
3523.00,0.0050
3522.00,0.0049
3521.00,0.0049
3520.00,0.0048
3519.00,0.0048
3518.00,0.0047
3517.00,0.0047
3516.00,0.0047
3515.00,0.0046
3514.00,0.0046
3513.00,0.0046
3512.00,0.0045
3511.00,0.0045
3510.00,0.0044
3509.00,0.0044
3508.00,0.0044
3507.00,0.0043
3506.00,0.0043
3505.00,0.0043
3504.00,0.0042
3503.00,0.0042
3502.00,0.0042
3501.00,0.0042
3500.00,0.0041
3499.00,0.0041
3498.00,0.0041
3497.00,0.0040
3496.00,0.0040
3495.00,0.0039
3494.00,0.0039
3493.00,0.0039
3492.00,0.0039
3491.00,0.0038
3490.00,0.0038
3489.00,0.0038
3488.00,0.0038
3487.00,0.0037
3486.00,0.0037
3485.00,0.0037
3484.00,0.0037
3483.00,0.0036
3482.00,0.0036
3481.00,0.0036
3480.00,0.0036
3479.00,0.0036
3478.00,0.0035
3477.00,0.0035
3476.00,0.0035
3475.00,0.0035
3474.00,0.0034
3473.00,0.0034
3472.00,0.0034
3471.00,0.0034
3470.00,0.0034
3469.00,0.0035
3468.00,0.0035
3467.00,0.0035
3466.00,0.0034
3465.00,0.0034
3464.00,0.0034
3463.00,0.0034
3462.00,0.0034
3461.00,0.0034
3460.00,0.0034
3459.00,0.0034
3458.00,0.0034
3457.00,0.0033
3456.00,0.0033
3455.00,0.0033
3454.00,0.0034
3453.00,0.0034
3452.00,0.0034
3451.00,0.0034
3450.00,0.0034
3449.00,0.0034
3448.00,0.0034
3447.00,0.0034
3446.00,0.0034
3445.00,0.0035
3444.00,0.0035
3443.00,0.0035
3442.00,0.0035
3441.00,0.0035
3440.00,0.0035
3439.00,0.0036
3438.00,0.0036
3437.00,0.0037
3436.00,0.0037
3435.00,0.0037
3434.00,0.0037
3433.00,0.0037
3432.00,0.0037
3431.00,0.0038
3430.00,0.0038
3429.00,0.0038
3428.00,0.0039
3427.00,0.0039
3426.00,0.0039
3425.00,0.0039
3424.00,0.0040
3423.00,0.0040
3422.00,0.0040
3421.00,0.0041
3420.00,0.0041
3419.00,0.0042
3418.00,0.0042
3417.00,0.0043
3416.00,0.0044
3415.00,0.0044
3414.00,0.0045
3413.00,0.0046
3412.00,0.0046
3411.00,0.0047
3410.00,0.0048
3409.00,0.0048
3408.00,0.0049
3407.00,0.0049
3406.00,0.0050
3405.00,0.0050
3404.00,0.0051
3403.00,0.0052
3402.00,0.0053
3401.00,0.0053
3400.00,0.0054
3399.00,0.0055
3398.00,0.0055
3397.00,0.0056
3396.00,0.0057
3395.00,0.0057
3394.00,0.0058
3393.00,0.0059
3392.00,0.0059
3391.00,0.0060
3390.00,0.0061
3389.00,0.0061
3388.00,0.0062
3387.00,0.0063
3386.00,0.0063
3385.00,0.0064
3384.00,0.0065
3383.00,0.0066
3382.00,0.0066
3381.00,0.0067
3380.00,0.0068
3379.00,0.0069
3378.00,0.0070
3377.00,0.0071
3376.00,0.0072
3375.00,0.0073
3374.00,0.0074
3373.00,0.0075
3372.00,0.0076
3371.00,0.0077
3370.00,0.0078
3369.00,0.0079
3368.00,0.0080
3367.00,0.0081
3366.00,0.0082
3365.00,0.0083
3364.00,0.0084
3363.00,0.0086
3362.00,0.0087
3361.00,0.0088
3360.00,0.0090
3359.00,0.0091
3358.00,0.0092
3357.00,0.0094
3356.00,0.0095
3355.00,0.0097
3354.00,0.0098
3353.00,0.0100
3352.00,0.0102
3351.00,0.0103
3350.00,0.0105
3349.00,0.0107
3348.00,0.0109
3347.00,0.0110
3346.00,0.0112
3345.00,0.0114
3344.00,0.0116
3343.00,0.0118
3342.00,0.0120
3341.00,0.0122
3340.00,0.0124
3339.00,0.0126
3338.00,0.0129
3337.00,0.0131
3336.00,0.0133
3335.00,0.0136
3334.00,0.0138
3333.00,0.0141
3332.00,0.0143
3331.00,0.0146
3330.00,0.0148
3329.00,0.0151
3328.00,0.0153
3327.00,0.0156
3326.00,0.0159
3325.00,0.0162
3324.00,0.0165
3323.00,0.0168
3322.00,0.0171
3321.00,0.0174
3320.00,0.0177
3319.00,0.0181
3318.00,0.0184
3317.00,0.0187
3316.00,0.0190
3315.00,0.0194
3314.00,0.0197
3313.00,0.0200
3312.00,0.0204
3311.00,0.0207
3310.00,0.0210
3309.00,0.0214
3308.00,0.0217
3307.00,0.0221
3306.00,0.0224
3305.00,0.0228
3304.00,0.0231
3303.00,0.0235
3302.00,0.0239
3301.00,0.0242
3300.00,0.0245
3299.00,0.0249
3298.00,0.0252
3297.00,0.0255
3296.00,0.0258
3295.00,0.0261
3294.00,0.0264
3293.00,0.0266
3292.00,0.0269
3291.00,0.0271
3290.00,0.0273
3289.00,0.0275
3288.00,0.0277
3287.00,0.0279
3286.00,0.0280
3285.00,0.0281
3284.00,0.0282
3283.00,0.0283
3282.00,0.0283
3281.00,0.0283
3280.00,0.0283
3279.00,0.0283
3278.00,0.0283
3277.00,0.0282
3276.00,0.0281
3275.00,0.0280
3274.00,0.0279
3273.00,0.0277
3272.00,0.0276
3271.00,0.0274
3270.00,0.0272
3269.00,0.0271
3268.00,0.0269
3267.00,0.0267
3266.00,0.0265
3265.00,0.0263
3264.00,0.0261
3263.00,0.0259
3262.00,0.0257
3261.00,0.0255
3260.00,0.0253
3259.00,0.0251
3258.00,0.0249
3257.00,0.0247
3256.00,0.0245
3255.00,0.0243
3254.00,0.0242
3253.00,0.0240
3252.00,0.0238
3251.00,0.0237
3250.00,0.0235
3249.00,0.0233
3248.00,0.0231
3247.00,0.0230
3246.00,0.0229
3245.00,0.0228
3244.00,0.0226
3243.00,0.0225
3242.00,0.0224
3241.00,0.0223
3240.00,0.0222
3239.00,0.0220
3238.00,0.0219
3237.00,0.0218
3236.00,0.0216
3235.00,0.0215
3234.00,0.0214
3233.00,0.0213
3232.00,0.0213
3231.00,0.0212
3230.00,0.0211
3229.00,0.0210
3228.00,0.0209
3227.00,0.0208
3226.00,0.0208
3225.00,0.0207
3224.00,0.0206
3223.00,0.0205
3222.00,0.0204
3221.00,0.0204
3220.00,0.0203
3219.00,0.0202
3218.00,0.0201
3217.00,0.0201
3216.00,0.0200
3215.00,0.0199
3214.00,0.0199
3213.00,0.0198
3212.00,0.0198
3211.00,0.0197
3210.00,0.0196
3209.00,0.0196
3208.00,0.0195
3207.00,0.0194
3206.00,0.0194
3205.00,0.0193
3204.00,0.0193
3203.00,0.0192
3202.00,0.0191
3201.00,0.0191
3200.00,0.0190
3199.00,0.0189
3198.00,0.0189
3197.00,0.0188
3196.00,0.0187
3195.00,0.0187
3194.00,0.0186
3193.00,0.0186
3192.00,0.0185
3191.00,0.0185
3190.00,0.0184
3189.00,0.0183
3188.00,0.0183
3187.00,0.0182
3186.00,0.0182
3185.00,0.0181
3184.00,0.0180
3183.00,0.0180
3182.00,0.0179
3181.00,0.0178
3180.00,0.0178
3179.00,0.0177
3178.00,0.0176
3177.00,0.0176
3176.00,0.0175
3175.00,0.0175
3174.00,0.0174
3173.00,0.0173
3172.00,0.0173
3171.00,0.0172
3170.00,0.0172
3169.00,0.0171
3168.00,0.0171
3167.00,0.0170
3166.00,0.0170
3165.00,0.0169
3164.00,0.0169
3163.00,0.0168
3162.00,0.0168
3161.00,0.0167
3160.00,0.0166
3159.00,0.0166
3158.00,0.0165
3157.00,0.0165
3156.00,0.0165
3155.00,0.0164
3154.00,0.0164
3153.00,0.0164
3152.00,0.0163
3151.00,0.0163
3150.00,0.0162
3149.00,0.0162
3148.00,0.0162
3147.00,0.0161
3146.00,0.0161
3145.00,0.0160
3144.00,0.0160
3143.00,0.0160
3142.00,0.0159
3141.00,0.0159
3140.00,0.0159
3139.00,0.0159
3138.00,0.0159
3137.00,0.0158
3136.00,0.0158
3135.00,0.0158
3134.00,0.0158
3133.00,0.0158
3132.00,0.0158
3131.00,0.0157
3130.00,0.0157
3129.00,0.0157
3128.00,0.0157
3127.00,0.0157
3126.00,0.0157
3125.00,0.0157
3124.00,0.0157
3123.00,0.0157
3122.00,0.0157
3121.00,0.0157
3120.00,0.0157
3119.00,0.0157
3118.00,0.0157
3117.00,0.0157
3116.00,0.0157
3115.00,0.0158
3114.00,0.0158
3113.00,0.0158
3112.00,0.0158
3111.00,0.0158
3110.00,0.0159
3109.00,0.0159
3108.00,0.0159
3107.00,0.0159
3106.00,0.0159
3105.00,0.0160
3104.00,0.0160
3103.00,0.0160
3102.00,0.0161
3101.00,0.0161
3100.00,0.0161
3099.00,0.0162
3098.00,0.0162
3097.00,0.0162
3096.00,0.0163
3095.00,0.0163
3094.00,0.0163
3093.00,0.0163
3092.00,0.0163
3091.00,0.0163
3090.00,0.0163
3089.00,0.0163
3088.00,0.0163
3087.00,0.0163
3086.00,0.0163
3085.00,0.0163
3084.00,0.0163
3083.00,0.0162
3082.00,0.0162
3081.00,0.0162
3080.00,0.0162
3079.00,0.0162
3078.00,0.0162
3077.00,0.0163
3076.00,0.0163
3075.00,0.0163
3074.00,0.0163
3073.00,0.0163
3072.00,0.0163
3071.00,0.0163
3070.00,0.0163
3069.00,0.0163
3068.00,0.0163
3067.00,0.0164
3066.00,0.0164
3065.00,0.0164
3064.00,0.0165
3063.00,0.0165
3062.00,0.0164
3061.00,0.0164
3060.00,0.0164
3059.00,0.0163
3058.00,0.0163
3057.00,0.0162
3056.00,0.0161
3055.00,0.0161
3054.00,0.0160
3053.00,0.0159
3052.00,0.0158
3051.00,0.0157
3050.00,0.0156
3049.00,0.0154
3048.00,0.0153
3047.00,0.0151
3046.00,0.0150
3045.00,0.0148
3044.00,0.0147
3043.00,0.0145
3042.00,0.0144
3041.00,0.0142
3040.00,0.0141
3039.00,0.0140
3038.00,0.0139
3037.00,0.0137
3036.00,0.0136
3035.00,0.0134
3034.00,0.0133
3033.00,0.0132
3032.00,0.0131
3031.00,0.0131
3030.00,0.0130
3029.00,0.0129
3028.00,0.0128
3027.00,0.0127
3026.00,0.0126
3025.00,0.0125
3024.00,0.0124
3023.00,0.0123
3022.00,0.0122
3021.00,0.0121
3020.00,0.0119
3019.00,0.0118
3018.00,0.0117
3017.00,0.0115
3016.00,0.0114
3015.00,0.0113
3014.00,0.0111
3013.00,0.0110
3012.00,0.0109
3011.00,0.0108
3010.00,0.0107
3009.00,0.0107
3008.00,0.0105
3007.00,0.0104
3006.00,0.0103
3005.00,0.0101
3004.00,0.0100
3003.00,0.0099
3002.00,0.0098
3001.00,0.0096
3000.00,0.0095
2999.00,0.0093
2998.00,0.0092
2997.00,0.0091
2996.00,0.0089
2995.00,0.0088
2994.00,0.0086
2993.00,0.0084
2992.00,0.0082
2991.00,0.0081
2990.00,0.0079
2989.00,0.0077
2988.00,0.0075
2987.00,0.0073
2986.00,0.0071
2985.00,0.0068
2984.00,0.0065
2983.00,0.0062
2982.00,0.0058
2981.00,0.0055
2980.00,0.0052
2979.00,0.0049
2978.00,0.0046
2977.00,0.0042
2976.00,0.0037
2975.00,0.0032
2974.00,0.0027
2973.00,0.0020
2972.00,0.0014
2971.00,0.0007
2970.00,-0.0000
2969.00,-0.0008
2968.00,-0.0016
2967.00,-0.0024
2966.00,-0.0032
2965.00,-0.0041
2964.00,-0.0050
2963.00,-0.0058
2962.00,-0.0067
2961.00,-0.0074
2960.00,-0.0082
2959.00,-0.0089
2958.00,-0.0095
2957.00,-0.0100
2956.00,-0.0104
2955.00,-0.0107
2954.00,-0.0108
2953.00,-0.0109
2952.00,-0.0109
2951.00,-0.0109
2950.00,-0.0109
2949.00,-0.0110
2948.00,-0.0112
2947.00,-0.0114
2946.00,-0.0118
2945.00,-0.0123
2944.00,-0.0128
2943.00,-0.0135
2942.00,-0.0143
2941.00,-0.0151
2940.00,-0.0161
2939.00,-0.0171
2938.00,-0.0182
2937.00,-0.0194
2936.00,-0.0206
2935.00,-0.0219
2934.00,-0.0232
2933.00,-0.0246
2932.00,-0.0261
2931.00,-0.0276
2930.00,-0.0291
2929.00,-0.0306
2928.00,-0.0322
2927.00,-0.0338
2926.00,-0.0355
2925.00,-0.0373
2924.00,-0.0391
2923.00,-0.0411
2922.00,-0.0431
2921.00,-0.0451
2920.00,-0.0469
2919.00,-0.0483
2918.00,-0.0489
2917.00,-0.0483
2916.00,-0.0462
2915.00,-0.0430
2914.00,-0.0390
2913.00,-0.0349
2912.00,-0.0311
2911.00,-0.0278
2910.00,-0.0252
2909.00,-0.0230
2908.00,-0.0213
2907.00,-0.0198
2906.00,-0.0185
2905.00,-0.0173
2904.00,-0.0163
2903.00,-0.0154
2902.00,-0.0145
2901.00,-0.0137
2900.00,-0.0129
2899.00,-0.0122
2898.00,-0.0114
2897.00,-0.0107
2896.00,-0.0101
2895.00,-0.0094
2894.00,-0.0088
2893.00,-0.0082
2892.00,-0.0076
2891.00,-0.0070
2890.00,-0.0065
2889.00,-0.0060
2888.00,-0.0054
2887.00,-0.0050
2886.00,-0.0045
2885.00,-0.0041
2884.00,-0.0037
2883.00,-0.0033
2882.00,-0.0030
2881.00,-0.0027
2880.00,-0.0025
2879.00,-0.0024
2878.00,-0.0024
2877.00,-0.0024
2876.00,-0.0025
2875.00,-0.0026
2874.00,-0.0028
2873.00,-0.0030
2872.00,-0.0032
2871.00,-0.0033
2870.00,-0.0034
2869.00,-0.0035
2868.00,-0.0037
2867.00,-0.0039
2866.00,-0.0042
2865.00,-0.0047
2864.00,-0.0052
2863.00,-0.0059
2862.00,-0.0067
2861.00,-0.0076
2860.00,-0.0086
2859.00,-0.0097
2858.00,-0.0108
2857.00,-0.0121
2856.00,-0.0135
2855.00,-0.0153
2854.00,-0.0174
2853.00,-0.0199
2852.00,-0.0227
2851.00,-0.0251
2850.00,-0.0265
2849.00,-0.0263
2848.00,-0.0242
2847.00,-0.0207
2846.00,-0.0167
2845.00,-0.0129
2844.00,-0.0097
2843.00,-0.0071
2842.00,-0.0050
2841.00,-0.0033
2840.00,-0.0019
2839.00,-0.0007
2838.00,0.0004
2837.00,0.0014
2836.00,0.0023
2835.00,0.0031
2834.00,0.0039
2833.00,0.0045
2832.00,0.0052
2831.00,0.0058
2830.00,0.0063
2829.00,0.0068
2828.00,0.0072
2827.00,0.0077
2826.00,0.0080
2825.00,0.0084
2824.00,0.0086
2823.00,0.0089
2822.00,0.0091
2821.00,0.0093
2820.00,0.0094
2819.00,0.0096
2818.00,0.0097
2817.00,0.0099
2816.00,0.0100
2815.00,0.0101
2814.00,0.0102
2813.00,0.0103
2812.00,0.0104
2811.00,0.0105
2810.00,0.0105
2809.00,0.0106
2808.00,0.0106
2807.00,0.0107
2806.00,0.0107
2805.00,0.0108
2804.00,0.0108
2803.00,0.0109
2802.00,0.0109
2801.00,0.0109
2800.00,0.0110
2799.00,0.0110
2798.00,0.0111
2797.00,0.0111
2796.00,0.0111
2795.00,0.0112
2794.00,0.0112
2793.00,0.0112
2792.00,0.0113
2791.00,0.0113
2790.00,0.0113
2789.00,0.0114
2788.00,0.0114
2787.00,0.0114
2786.00,0.0114
2785.00,0.0114
2784.00,0.0114
2783.00,0.0114
2782.00,0.0114
2781.00,0.0115
2780.00,0.0115
2779.00,0.0115
2778.00,0.0115
2777.00,0.0115
2776.00,0.0116
2775.00,0.0116
2774.00,0.0116
2773.00,0.0116
2772.00,0.0115
2771.00,0.0115
2770.00,0.0115
2769.00,0.0115
2768.00,0.0115
2767.00,0.0115
2766.00,0.0115
2765.00,0.0115
