Created as New Dataset,Sample 126 By YargerLab Date Wednesday, June 05 2024
cm-1,A
4000.00,0.0035
3999.00,0.0035
3998.00,0.0035
3997.00,0.0035
3996.00,0.0035
3995.00,0.0035
3994.00,0.0035
3993.00,0.0035
3992.00,0.0035
3991.00,0.0035
3990.00,0.0035
3989.00,0.0035
3988.00,0.0035
3987.00,0.0035
3986.00,0.0035
3985.00,0.0035
3984.00,0.0035
3983.00,0.0035
3982.00,0.0035
3981.00,0.0035
3980.00,0.0035
3979.00,0.0035
3978.00,0.0035
3977.00,0.0035
3976.00,0.0035
3975.00,0.0035
3974.00,0.0034
3973.00,0.0034
3972.00,0.0034
3971.00,0.0034
3970.00,0.0034
3969.00,0.0034
3968.00,0.0034
3967.00,0.0034
3966.00,0.0035
3965.00,0.0035
3964.00,0.0035
3963.00,0.0035
3962.00,0.0035
3961.00,0.0035
3960.00,0.0035
3959.00,0.0035
3958.00,0.0035
3957.00,0.0034
3956.00,0.0034
3955.00,0.0034
3954.00,0.0034
3953.00,0.0034
3952.00,0.0034
3951.00,0.0035
3950.00,0.0035
3949.00,0.0035
3948.00,0.0036
3947.00,0.0036
3946.00,0.0036
3945.00,0.0035
3944.00,0.0035
3943.00,0.0034
3942.00,0.0034
3941.00,0.0034
3940.00,0.0035
3939.00,0.0035
3938.00,0.0035
3937.00,0.0035
3936.00,0.0035
3935.00,0.0036
3934.00,0.0036
3933.00,0.0036
3932.00,0.0036
3931.00,0.0035
3930.00,0.0035
3929.00,0.0035
3928.00,0.0035
3927.00,0.0035
3926.00,0.0034
3925.00,0.0034
3924.00,0.0034
3923.00,0.0035
3922.00,0.0036
3921.00,0.0037
3920.00,0.0037
3919.00,0.0037
3918.00,0.0037
3917.00,0.0037
3916.00,0.0036
3915.00,0.0035
3914.00,0.0035
3913.00,0.0035
3912.00,0.0034
3911.00,0.0034
3910.00,0.0034
3909.00,0.0034
3908.00,0.0034
3907.00,0.0035
3906.00,0.0035
3905.00,0.0037
3904.00,0.0038
3903.00,0.0040
3902.00,0.0041
3901.00,0.0041
3900.00,0.0040
3899.00,0.0038
3898.00,0.0037
3897.00,0.0037
3896.00,0.0037
3895.00,0.0037
3894.00,0.0036
3893.00,0.0035
3892.00,0.0035
3891.00,0.0035
3890.00,0.0036
3889.00,0.0037
3888.00,0.0038
3887.00,0.0039
3886.00,0.0039
3885.00,0.0038
3884.00,0.0037
3883.00,0.0038
3882.00,0.0038
3881.00,0.0038
3880.00,0.0037
3879.00,0.0037
3878.00,0.0037
3877.00,0.0038
3876.00,0.0038
3875.00,0.0037
3874.00,0.0037
3873.00,0.0037
3872.00,0.0038
3871.00,0.0039
3870.00,0.0039
3869.00,0.0039
3868.00,0.0039
3867.00,0.0040
3866.00,0.0040
3865.00,0.0040
3864.00,0.0039
3863.00,0.0038
3862.00,0.0039
3861.00,0.0039
3860.00,0.0039
3859.00,0.0038
3858.00,0.0036
3857.00,0.0034
3856.00,0.0033
3855.00,0.0032
3854.00,0.0033
3853.00,0.0035
3852.00,0.0036
3851.00,0.0037
3850.00,0.0038
3849.00,0.0039
3848.00,0.0039
3847.00,0.0039
3846.00,0.0038
3845.00,0.0038
3844.00,0.0038
3843.00,0.0039
3842.00,0.0039
3841.00,0.0039
3840.00,0.0040
3839.00,0.0040
3838.00,0.0039
3837.00,0.0039
3836.00,0.0039
3835.00,0.0039
3834.00,0.0039
3833.00,0.0039
3832.00,0.0039
3831.00,0.0039
3830.00,0.0038
3829.00,0.0038
3828.00,0.0038
3827.00,0.0038
3826.00,0.0037
3825.00,0.0038
3824.00,0.0039
3823.00,0.0040
3822.00,0.0040
3821.00,0.0040
3820.00,0.0039
3819.00,0.0039
3818.00,0.0040
3817.00,0.0040
3816.00,0.0039
3815.00,0.0037
3814.00,0.0036
3813.00,0.0036
3812.00,0.0036
3811.00,0.0036
3810.00,0.0036
3809.00,0.0036
3808.00,0.0036
3807.00,0.0037
3806.00,0.0038
3805.00,0.0038
3804.00,0.0039
3803.00,0.0040
3802.00,0.0039
3801.00,0.0038
3800.00,0.0038
3799.00,0.0038
3798.00,0.0039
3797.00,0.0038
3796.00,0.0037
3795.00,0.0036
3794.00,0.0035
3793.00,0.0035
3792.00,0.0034
3791.00,0.0034
3790.00,0.0033
3789.00,0.0033
3788.00,0.0033
3787.00,0.0033
3786.00,0.0033
3785.00,0.0034
3784.00,0.0034
3783.00,0.0034
3782.00,0.0035
3781.00,0.0035
3780.00,0.0035
3779.00,0.0035
3778.00,0.0035
3777.00,0.0034
3776.00,0.0035
3775.00,0.0034
3774.00,0.0034
3773.00,0.0035
3772.00,0.0035
3771.00,0.0036
3770.00,0.0036
3769.00,0.0037
3768.00,0.0037
3767.00,0.0038
3766.00,0.0038
3765.00,0.0037
3764.00,0.0037
3763.00,0.0037
3762.00,0.0038
3761.00,0.0038
3760.00,0.0038
3759.00,0.0038
3758.00,0.0038
3757.00,0.0039
3756.00,0.0039
3755.00,0.0040
3754.00,0.0041
3753.00,0.0042
3752.00,0.0043
3751.00,0.0044
3750.00,0.0045
3749.00,0.0045
3748.00,0.0044
3747.00,0.0044
3746.00,0.0044
3745.00,0.0043
3744.00,0.0042
3743.00,0.0041
3742.00,0.0042
3741.00,0.0043
3740.00,0.0044
3739.00,0.0045
3738.00,0.0046
3737.00,0.0046
3736.00,0.0045
3735.00,0.0044
3734.00,0.0044
3733.00,0.0043
3732.00,0.0042
3731.00,0.0040
3730.00,0.0039
3729.00,0.0039
3728.00,0.0039
3727.00,0.0038
3726.00,0.0038
3725.00,0.0037
3724.00,0.0037
3723.00,0.0037
3722.00,0.0037
3721.00,0.0036
3720.00,0.0036
3719.00,0.0035
3718.00,0.0035
3717.00,0.0035
3716.00,0.0035
3715.00,0.0036
3714.00,0.0037
3713.00,0.0037
3712.00,0.0038
3711.00,0.0038
3710.00,0.0038
3709.00,0.0037
3708.00,0.0037
3707.00,0.0036
3706.00,0.0035
3705.00,0.0034
3704.00,0.0034
3703.00,0.0033
3702.00,0.0032
3701.00,0.0032
3700.00,0.0032
3699.00,0.0032
3698.00,0.0033
3697.00,0.0033
3696.00,0.0033
3695.00,0.0033
3694.00,0.0034
3693.00,0.0035
3692.00,0.0035
3691.00,0.0035
3690.00,0.0035
3689.00,0.0036
3688.00,0.0036
3687.00,0.0036
3686.00,0.0036
3685.00,0.0036
3684.00,0.0036
3683.00,0.0036
3682.00,0.0036
3681.00,0.0036
3680.00,0.0036
3679.00,0.0036
3678.00,0.0038
3677.00,0.0040
3676.00,0.0041
3675.00,0.0041
3674.00,0.0041
3673.00,0.0041
3672.00,0.0042
3671.00,0.0042
3670.00,0.0040
3669.00,0.0039
3668.00,0.0038
3667.00,0.0037
3666.00,0.0037
3665.00,0.0036
3664.00,0.0035
3663.00,0.0035
3662.00,0.0034
3661.00,0.0034
3660.00,0.0035
3659.00,0.0035
3658.00,0.0036
3657.00,0.0037
3656.00,0.0037
3655.00,0.0038
3654.00,0.0039
3653.00,0.0041
3652.00,0.0042
3651.00,0.0044
3650.00,0.0044
3649.00,0.0045
3648.00,0.0045
3647.00,0.0044
3646.00,0.0042
3645.00,0.0041
3644.00,0.0039
3643.00,0.0038
3642.00,0.0037
3641.00,0.0036
3640.00,0.0036
3639.00,0.0036
3638.00,0.0036
3637.00,0.0036
3636.00,0.0037
3635.00,0.0037
3634.00,0.0038
3633.00,0.0038
3632.00,0.0038
3631.00,0.0040
3630.00,0.0041
3629.00,0.0041
3628.00,0.0041
3627.00,0.0042
3626.00,0.0042
3625.00,0.0042
3624.00,0.0041
3623.00,0.0041
3622.00,0.0041
3621.00,0.0040
3620.00,0.0040
3619.00,0.0040
3618.00,0.0041
3617.00,0.0042
3616.00,0.0043
3615.00,0.0044
3614.00,0.0044
3613.00,0.0044
3612.00,0.0044
3611.00,0.0045
3610.00,0.0045
3609.00,0.0045
3608.00,0.0044
3607.00,0.0043
3606.00,0.0042
3605.00,0.0042
3604.00,0.0042
3603.00,0.0041
3602.00,0.0041
3601.00,0.0041
3600.00,0.0041
3599.00,0.0042
3598.00,0.0042
3597.00,0.0042
3596.00,0.0042
3595.00,0.0042
3594.00,0.0042
3593.00,0.0043
3592.00,0.0043
3591.00,0.0044
3590.00,0.0045
3589.00,0.0045
3588.00,0.0045
3587.00,0.0044
3586.00,0.0044
3585.00,0.0044
3584.00,0.0044
3583.00,0.0044
3582.00,0.0043
3581.00,0.0043
3580.00,0.0043
3579.00,0.0042
3578.00,0.0042
3577.00,0.0042
3576.00,0.0042
3575.00,0.0043
3574.00,0.0043
3573.00,0.0043
3572.00,0.0044
3571.00,0.0045
3570.00,0.0047
3569.00,0.0048
3568.00,0.0048
3567.00,0.0048
3566.00,0.0048
3565.00,0.0048
3564.00,0.0048
3563.00,0.0047
3562.00,0.0047
3561.00,0.0046
3560.00,0.0046
3559.00,0.0046
3558.00,0.0046
3557.00,0.0046
3556.00,0.0046
3555.00,0.0046
3554.00,0.0046
3553.00,0.0047
3552.00,0.0047
3551.00,0.0048
3550.00,0.0048
3549.00,0.0049
3548.00,0.0050
3547.00,0.0050
3546.00,0.0050
3545.00,0.0050
3544.00,0.0050
3543.00,0.0050
3542.00,0.0049
3541.00,0.0049
3540.00,0.0049
3539.00,0.0049
3538.00,0.0049
3537.00,0.0049
3536.00,0.0049
3535.00,0.0049
3534.00,0.0050
3533.00,0.0050
3532.00,0.0051
3531.00,0.0051
3530.00,0.0051
3529.00,0.0051
3528.00,0.0052
3527.00,0.0053
3526.00,0.0053
3525.00,0.0053
3524.00,0.0053
3523.00,0.0053
3522.00,0.0053
3521.00,0.0053
3520.00,0.0053
3519.00,0.0053
3518.00,0.0053
3517.00,0.0053
3516.00,0.0053
3515.00,0.0053
3514.00,0.0053
3513.00,0.0053
3512.00,0.0053
3511.00,0.0054
3510.00,0.0054
3509.00,0.0054
3508.00,0.0055
3507.00,0.0055
3506.00,0.0055
3505.00,0.0056
3504.00,0.0056
3503.00,0.0056
3502.00,0.0056
3501.00,0.0056
3500.00,0.0057
3499.00,0.0057
3498.00,0.0056
3497.00,0.0056
3496.00,0.0056
3495.00,0.0056
3494.00,0.0057
3493.00,0.0057
3492.00,0.0057
3491.00,0.0057
3490.00,0.0057
3489.00,0.0057
3488.00,0.0058
3487.00,0.0058
3486.00,0.0058
3485.00,0.0058
3484.00,0.0058
3483.00,0.0058
3482.00,0.0059
3481.00,0.0059
3480.00,0.0059
3479.00,0.0059
3478.00,0.0059
3477.00,0.0059
3476.00,0.0059
3475.00,0.0059
3474.00,0.0059
3473.00,0.0060
3472.00,0.0060
3471.00,0.0060
3470.00,0.0060
3469.00,0.0061
3468.00,0.0061
3467.00,0.0061
3466.00,0.0061
3465.00,0.0061
3464.00,0.0061
3463.00,0.0061
3462.00,0.0061
3461.00,0.0062
3460.00,0.0062
3459.00,0.0062
3458.00,0.0062
3457.00,0.0062
3456.00,0.0062
3455.00,0.0062
3454.00,0.0062
3453.00,0.0062
3452.00,0.0063
3451.00,0.0063
3450.00,0.0063
3449.00,0.0063
3448.00,0.0063
3447.00,0.0063
3446.00,0.0064
3445.00,0.0064
3444.00,0.0064
3443.00,0.0064
3442.00,0.0064
3441.00,0.0064
3440.00,0.0065
3439.00,0.0065
3438.00,0.0065
3437.00,0.0065
3436.00,0.0065
3435.00,0.0066
3434.00,0.0066
3433.00,0.0066
3432.00,0.0066
3431.00,0.0066
3430.00,0.0066
3429.00,0.0067
3428.00,0.0067
3427.00,0.0067
3426.00,0.0067
3425.00,0.0067
3424.00,0.0067
3423.00,0.0068
3422.00,0.0068
3421.00,0.0068
3420.00,0.0068
3419.00,0.0068
3418.00,0.0068
3417.00,0.0068
3416.00,0.0069
3415.00,0.0069
3414.00,0.0069
3413.00,0.0069
3412.00,0.0069
3411.00,0.0069
3410.00,0.0070
3409.00,0.0070
3408.00,0.0070
3407.00,0.0070
3406.00,0.0070
3405.00,0.0071
3404.00,0.0071
3403.00,0.0071
3402.00,0.0071
3401.00,0.0072
3400.00,0.0072
3399.00,0.0072
3398.00,0.0072
3397.00,0.0073
3396.00,0.0073
3395.00,0.0073
3394.00,0.0073
3393.00,0.0073
3392.00,0.0073
3391.00,0.0073
3390.00,0.0073
3389.00,0.0073
3388.00,0.0073
3387.00,0.0073
3386.00,0.0073
3385.00,0.0074
3384.00,0.0074
3383.00,0.0074
3382.00,0.0074
3381.00,0.0075
3380.00,0.0075
3379.00,0.0075
3378.00,0.0075
3377.00,0.0075
3376.00,0.0075
3375.00,0.0076
3374.00,0.0076
3373.00,0.0076
3372.00,0.0076
3371.00,0.0076
3370.00,0.0077
3369.00,0.0077
3368.00,0.0077
3367.00,0.0078
3366.00,0.0078
3365.00,0.0078
3364.00,0.0078
3363.00,0.0078
3362.00,0.0079
3361.00,0.0079
3360.00,0.0079
3359.00,0.0079
3358.00,0.0079
3357.00,0.0079
3356.00,0.0080
3355.00,0.0080
3354.00,0.0080
3353.00,0.0081
3352.00,0.0081
3351.00,0.0081
3350.00,0.0081
3349.00,0.0081
3348.00,0.0082
3347.00,0.0082
3346.00,0.0082
3345.00,0.0082
3344.00,0.0083
3343.00,0.0083
3342.00,0.0084
3341.00,0.0084
3340.00,0.0085
3339.00,0.0085
3338.00,0.0085
3337.00,0.0086
3336.00,0.0086
3335.00,0.0086
3334.00,0.0086
3333.00,0.0086
3332.00,0.0086
3331.00,0.0087
3330.00,0.0087
3329.00,0.0088
3328.00,0.0088
3327.00,0.0089
3326.00,0.0089
3325.00,0.0090
3324.00,0.0090
3323.00,0.0091
3322.00,0.0091
3321.00,0.0091
3320.00,0.0092
3319.00,0.0092
3318.00,0.0093
3317.00,0.0093
3316.00,0.0094
3315.00,0.0094
3314.00,0.0095
3313.00,0.0096
3312.00,0.0096
3311.00,0.0097
3310.00,0.0097
3309.00,0.0098
3308.00,0.0098
3307.00,0.0099
3306.00,0.0099
3305.00,0.0100
3304.00,0.0101
3303.00,0.0101
3302.00,0.0102
3301.00,0.0103
3300.00,0.0103
3299.00,0.0104
3298.00,0.0104
3297.00,0.0105
3296.00,0.0106
3295.00,0.0106
3294.00,0.0107
3293.00,0.0107
3292.00,0.0108
3291.00,0.0108
3290.00,0.0109
3289.00,0.0109
3288.00,0.0110
3287.00,0.0110
3286.00,0.0111
3285.00,0.0111
3284.00,0.0111
3283.00,0.0112
3282.00,0.0112
3281.00,0.0112
3280.00,0.0113
3279.00,0.0113
3278.00,0.0113
3277.00,0.0114
3276.00,0.0114
3275.00,0.0114
3274.00,0.0114
3273.00,0.0114
3272.00,0.0114
3271.00,0.0114
3270.00,0.0114
3269.00,0.0114
3268.00,0.0114
3267.00,0.0113
3266.00,0.0113
3265.00,0.0113
3264.00,0.0112
3263.00,0.0112
3262.00,0.0112
3261.00,0.0111
3260.00,0.0111
3259.00,0.0111
3258.00,0.0110
3257.00,0.0110
3256.00,0.0109
3255.00,0.0109
3254.00,0.0109
3253.00,0.0108
3252.00,0.0108
3251.00,0.0107
3250.00,0.0107
3249.00,0.0107
3248.00,0.0106
3247.00,0.0106
3246.00,0.0105
3245.00,0.0105
3244.00,0.0104
3243.00,0.0104
3242.00,0.0103
3241.00,0.0103
3240.00,0.0103
3239.00,0.0102
3238.00,0.0102
3237.00,0.0101
3236.00,0.0101
3235.00,0.0101
3234.00,0.0100
3233.00,0.0100
3232.00,0.0100
3231.00,0.0099
3230.00,0.0099
3229.00,0.0098
3228.00,0.0098
3227.00,0.0098
3226.00,0.0097
3225.00,0.0097
3224.00,0.0097
3223.00,0.0096
3222.00,0.0096
3221.00,0.0096
3220.00,0.0095
3219.00,0.0095
3218.00,0.0095
3217.00,0.0094
3216.00,0.0094
3215.00,0.0094
3214.00,0.0094
3213.00,0.0093
3212.00,0.0093
3211.00,0.0093
3210.00,0.0092
3209.00,0.0092
3208.00,0.0092
3207.00,0.0091
3206.00,0.0091
3205.00,0.0090
3204.00,0.0090
3203.00,0.0090
3202.00,0.0089
3201.00,0.0089
3200.00,0.0089
3199.00,0.0089
3198.00,0.0088
3197.00,0.0088
3196.00,0.0087
3195.00,0.0087
3194.00,0.0087
3193.00,0.0087
3192.00,0.0086
3191.00,0.0086
3190.00,0.0086
3189.00,0.0085
3188.00,0.0085
3187.00,0.0084
3186.00,0.0084
3185.00,0.0084
3184.00,0.0083
3183.00,0.0083
3182.00,0.0083
3181.00,0.0083
3180.00,0.0082
3179.00,0.0082
3178.00,0.0082
3177.00,0.0081
3176.00,0.0081
3175.00,0.0080
3174.00,0.0080
3173.00,0.0079
3172.00,0.0079
3171.00,0.0079
3170.00,0.0078
3169.00,0.0078
3168.00,0.0078
3167.00,0.0077
3166.00,0.0077
3165.00,0.0077
3164.00,0.0076
3163.00,0.0076
3162.00,0.0076
3161.00,0.0076
3160.00,0.0076
3159.00,0.0075
3158.00,0.0075
3157.00,0.0075
3156.00,0.0074
3155.00,0.0074
3154.00,0.0074
3153.00,0.0074
3152.00,0.0074
3151.00,0.0073
3150.00,0.0073
3149.00,0.0073
3148.00,0.0072
3147.00,0.0072
3146.00,0.0072
3145.00,0.0072
3144.00,0.0072
3143.00,0.0071
3142.00,0.0071
3141.00,0.0071
3140.00,0.0070
3139.00,0.0070
3138.00,0.0070
3137.00,0.0070
3136.00,0.0070
3135.00,0.0070
3134.00,0.0070
3133.00,0.0069
3132.00,0.0069
3131.00,0.0069
3130.00,0.0069
3129.00,0.0069
3128.00,0.0069
3127.00,0.0069
3126.00,0.0069
3125.00,0.0069
3124.00,0.0068
3123.00,0.0068
3122.00,0.0068
3121.00,0.0068
3120.00,0.0068
3119.00,0.0068
3118.00,0.0068
3117.00,0.0068
3116.00,0.0068
3115.00,0.0068
3114.00,0.0068
3113.00,0.0068
3112.00,0.0068
3111.00,0.0068
3110.00,0.0068
3109.00,0.0068
3108.00,0.0068
3107.00,0.0068
3106.00,0.0068
3105.00,0.0068
3104.00,0.0068
3103.00,0.0068
3102.00,0.0068
3101.00,0.0068
3100.00,0.0068
3099.00,0.0068
3098.00,0.0068
3097.00,0.0068
3096.00,0.0068
3095.00,0.0068
3094.00,0.0068
3093.00,0.0068
3092.00,0.0068
3091.00,0.0068
3090.00,0.0068
3089.00,0.0068
3088.00,0.0068
3087.00,0.0068
3086.00,0.0068
3085.00,0.0068
3084.00,0.0068
3083.00,0.0068
3082.00,0.0068
3081.00,0.0068
3080.00,0.0069
3079.00,0.0069
3078.00,0.0069
3077.00,0.0069
3076.00,0.0069
3075.00,0.0069
3074.00,0.0069
3073.00,0.0069
3072.00,0.0069
3071.00,0.0069
3070.00,0.0068
3069.00,0.0068
3068.00,0.0068
3067.00,0.0068
3066.00,0.0068
3065.00,0.0068
3064.00,0.0068
3063.00,0.0068
3062.00,0.0068
3061.00,0.0068
3060.00,0.0068
3059.00,0.0067
3058.00,0.0067
3057.00,0.0067
3056.00,0.0066
3055.00,0.0066
3054.00,0.0066
3053.00,0.0066
3052.00,0.0065
3051.00,0.0065
3050.00,0.0065
3049.00,0.0065
3048.00,0.0065
3047.00,0.0065
3046.00,0.0064
3045.00,0.0064
3044.00,0.0064
3043.00,0.0063
3042.00,0.0063
3041.00,0.0063
3040.00,0.0063
3039.00,0.0063
3038.00,0.0063
3037.00,0.0062
3036.00,0.0062
3035.00,0.0062
3034.00,0.0062
3033.00,0.0061
3032.00,0.0061
3031.00,0.0061
3030.00,0.0061
3029.00,0.0060
3028.00,0.0060
3027.00,0.0060
3026.00,0.0060
3025.00,0.0060
3024.00,0.0060
3023.00,0.0059
3022.00,0.0059
3021.00,0.0059
3020.00,0.0059
3019.00,0.0059
3018.00,0.0059
3017.00,0.0058
3016.00,0.0058
3015.00,0.0058
3014.00,0.0058
3013.00,0.0058
3012.00,0.0058
3011.00,0.0058
3010.00,0.0059
3009.00,0.0059
3008.00,0.0059
3007.00,0.0059
3006.00,0.0060
3005.00,0.0060
3004.00,0.0060
3003.00,0.0061
3002.00,0.0061
3001.00,0.0061
3000.00,0.0061
2999.00,0.0062
2998.00,0.0062
2997.00,0.0062
2996.00,0.0062
2995.00,0.0062
2994.00,0.0062
2993.00,0.0063
2992.00,0.0063
2991.00,0.0063
2990.00,0.0063
2989.00,0.0063
2988.00,0.0064
2987.00,0.0064
2986.00,0.0064
2985.00,0.0065
2984.00,0.0067
2983.00,0.0068
2982.00,0.0069
2981.00,0.0069
2980.00,0.0069
2979.00,0.0068
2978.00,0.0068
2977.00,0.0067
2976.00,0.0067
2975.00,0.0067
2974.00,0.0067
2973.00,0.0067
2972.00,0.0067
2971.00,0.0067
2970.00,0.0066
2969.00,0.0066
2968.00,0.0066
2967.00,0.0065
2966.00,0.0065
2965.00,0.0065
2964.00,0.0065
2963.00,0.0065
2962.00,0.0065
2961.00,0.0065
2960.00,0.0065
2959.00,0.0064
2958.00,0.0064
2957.00,0.0064
2956.00,0.0063
2955.00,0.0063
2954.00,0.0062
2953.00,0.0061
2952.00,0.0060
2951.00,0.0059
2950.00,0.0059
2949.00,0.0058
2948.00,0.0057
2947.00,0.0057
2946.00,0.0057
2945.00,0.0057
2944.00,0.0057
2943.00,0.0057
2942.00,0.0057
2941.00,0.0058
2940.00,0.0058
2939.00,0.0059
2938.00,0.0059
2937.00,0.0060
2936.00,0.0061
2935.00,0.0062
2934.00,0.0063
2933.00,0.0065
2932.00,0.0066
2931.00,0.0068
2930.00,0.0070
2929.00,0.0071
2928.00,0.0073
2927.00,0.0075
2926.00,0.0078
2925.00,0.0081
2924.00,0.0085
2923.00,0.0088
2922.00,0.0093
2921.00,0.0098
2920.00,0.0103
2919.00,0.0108
2918.00,0.0111
2917.00,0.0113
2916.00,0.0112
2915.00,0.0108
2914.00,0.0102
2913.00,0.0095
2912.00,0.0089
2911.00,0.0083
2910.00,0.0078
2909.00,0.0075
2908.00,0.0072
2907.00,0.0070
2906.00,0.0069
2905.00,0.0068
2904.00,0.0067
2903.00,0.0066
2902.00,0.0066
2901.00,0.0065
2900.00,0.0065
2899.00,0.0064
2898.00,0.0064
2897.00,0.0064
2896.00,0.0063
2895.00,0.0063
2894.00,0.0062
2893.00,0.0062
2892.00,0.0062
2891.00,0.0062
2890.00,0.0061
2889.00,0.0061
2888.00,0.0061
2887.00,0.0061
2886.00,0.0060
2885.00,0.0060
2884.00,0.0060
2883.00,0.0060
2882.00,0.0059
2881.00,0.0059
2880.00,0.0059
2879.00,0.0058
2878.00,0.0058
2877.00,0.0058
2876.00,0.0057
2875.00,0.0057
2874.00,0.0057
2873.00,0.0056
2872.00,0.0056
2871.00,0.0055
2870.00,0.0055
2869.00,0.0055
2868.00,0.0055
2867.00,0.0055
2866.00,0.0055
2865.00,0.0055
2864.00,0.0055
2863.00,0.0055
2862.00,0.0056
2861.00,0.0056
2860.00,0.0057
2859.00,0.0058
2858.00,0.0059
2857.00,0.0060
2856.00,0.0061
2855.00,0.0064
2854.00,0.0067
2853.00,0.0071
2852.00,0.0076
2851.00,0.0082
2850.00,0.0086
2849.00,0.0087
2848.00,0.0085
2847.00,0.0081
2846.00,0.0075
2845.00,0.0069
2844.00,0.0063
2843.00,0.0059
2842.00,0.0057
2841.00,0.0055
2840.00,0.0053
2839.00,0.0052
2838.00,0.0051
2837.00,0.0051
2836.00,0.0050
2835.00,0.0050
2834.00,0.0049
2833.00,0.0049
2832.00,0.0049
2831.00,0.0049
2830.00,0.0049
2829.00,0.0048
2828.00,0.0048
2827.00,0.0048
2826.00,0.0048
2825.00,0.0048
2824.00,0.0048
2823.00,0.0048
2822.00,0.0048
2821.00,0.0048
2820.00,0.0048
2819.00,0.0048
2818.00,0.0048
2817.00,0.0048
2816.00,0.0047
2815.00,0.0047
2814.00,0.0047
2813.00,0.0047
2812.00,0.0047
2811.00,0.0047
2810.00,0.0047
2809.00,0.0047
2808.00,0.0047
2807.00,0.0047
2806.00,0.0047
2805.00,0.0047
2804.00,0.0047
2803.00,0.0047
2802.00,0.0046
2801.00,0.0046
2800.00,0.0046
2799.00,0.0046
2798.00,0.0046
2797.00,0.0046
2796.00,0.0046
2795.00,0.0046
2794.00,0.0046
2793.00,0.0046
2792.00,0.0046
2791.00,0.0045
2790.00,0.0045
2789.00,0.0045
2788.00,0.0045
2787.00,0.0045
2786.00,0.0045
2785.00,0.0045
2784.00,0.0045
2783.00,0.0045
2782.00,0.0045
2781.00,0.0045
2780.00,0.0044
2779.00,0.0044
2778.00,0.0044
2777.00,0.0044
2776.00,0.0044
2775.00,0.0044
2774.00,0.0044
2773.00,0.0044
2772.00,0.0044
2771.00,0.0044
2770.00,0.0044
2769.00,0.0044
2768.00,0.0044
2767.00,0.0044
2766.00,0.0044
2765.00,0.0044
2764.00,0.0043
2763.00,0.0043
2762.00,0.0043
2761.00,0.0043
2760.00,0.0043
2759.00,0.0043
2758.00,0.0043
2757.00,0.0043
