Created as New Dataset,Sample 000 By YargerLab Date Wednesday, June 05 2024
cm-1,A
4000.00,0.0020
3999.00,0.0020
3998.00,0.0020
3997.00,0.0019
3996.00,0.0019
3995.00,0.0019
3994.00,0.0019
3993.00,0.0020
3992.00,0.0020
3991.00,0.0020
3990.00,0.0020
3989.00,0.0020
3988.00,0.0020
3987.00,0.0019
3986.00,0.0019
3985.00,0.0019
3984.00,0.0019
3983.00,0.0019
3982.00,0.0019
3981.00,0.0019
3980.00,0.0019
3979.00,0.0019
3978.00,0.0019
3977.00,0.0019
3976.00,0.0019
3975.00,0.0019
3974.00,0.0019
3973.00,0.0019
3972.00,0.0019
3971.00,0.0019
3970.00,0.0019
3969.00,0.0019
3968.00,0.0019
3967.00,0.0019
3966.00,0.0019
3965.00,0.0019
3964.00,0.0019
3963.00,0.0019
3962.00,0.0020
3961.00,0.0020
3960.00,0.0020
3959.00,0.0020
3958.00,0.0020
3957.00,0.0019
3956.00,0.0019
3955.00,0.0019
3954.00,0.0019
3953.00,0.0019
3952.00,0.0019
3951.00,0.0019
3950.00,0.0020
3949.00,0.0020
3948.00,0.0020
3947.00,0.0020
3946.00,0.0020
3945.00,0.0020
3944.00,0.0020
3943.00,0.0019
3942.00,0.0019
3941.00,0.0019
3940.00,0.0019
3939.00,0.0020
3938.00,0.0020
3937.00,0.0020
3936.00,0.0020
3935.00,0.0020
3934.00,0.0020
3933.00,0.0020
3932.00,0.0020
3931.00,0.0020
3930.00,0.0019
3929.00,0.0019
3928.00,0.0019
3927.00,0.0019
3926.00,0.0019
3925.00,0.0019
3924.00,0.0019
3923.00,0.0019
3922.00,0.0019
3921.00,0.0019
3920.00,0.0019
3919.00,0.0019
3918.00,0.0019
3917.00,0.0019
3916.00,0.0018
3915.00,0.0018
3914.00,0.0018
3913.00,0.0018
3912.00,0.0018
3911.00,0.0018
3910.00,0.0018
3909.00,0.0018
3908.00,0.0019
3907.00,0.0019
3906.00,0.0020
3905.00,0.0020
3904.00,0.0020
3903.00,0.0020
3902.00,0.0020
3901.00,0.0020
3900.00,0.0020
3899.00,0.0019
3898.00,0.0020
3897.00,0.0020
3896.00,0.0020
3895.00,0.0020
3894.00,0.0019
3893.00,0.0019
3892.00,0.0018
3891.00,0.0018
3890.00,0.0018
3889.00,0.0018
3888.00,0.0019
3887.00,0.0019
3886.00,0.0019
3885.00,0.0019
3884.00,0.0019
3883.00,0.0019
3882.00,0.0019
3881.00,0.0019
3880.00,0.0018
3879.00,0.0018
3878.00,0.0018
3877.00,0.0019
3876.00,0.0019
3875.00,0.0019
3874.00,0.0019
3873.00,0.0019
3872.00,0.0019
3871.00,0.0019
3870.00,0.0019
3869.00,0.0019
3868.00,0.0019
3867.00,0.0019
3866.00,0.0019
3865.00,0.0019
3864.00,0.0019
3863.00,0.0019
3862.00,0.0019
3861.00,0.0019
3860.00,0.0019
3859.00,0.0019
3858.00,0.0019
3857.00,0.0019
3856.00,0.0019
3855.00,0.0020
3854.00,0.0020
3853.00,0.0020
3852.00,0.0019
3851.00,0.0019
3850.00,0.0019
3849.00,0.0019
3848.00,0.0019
3847.00,0.0019
3846.00,0.0019
3845.00,0.0020
3844.00,0.0020
3843.00,0.0020
3842.00,0.0020
3841.00,0.0020
3840.00,0.0019
3839.00,0.0019
3838.00,0.0018
3837.00,0.0018
3836.00,0.0018
3835.00,0.0019
3834.00,0.0019
3833.00,0.0018
3832.00,0.0018
3831.00,0.0018
3830.00,0.0018
3829.00,0.0019
3828.00,0.0019
3827.00,0.0019
3826.00,0.0019
3825.00,0.0019
3824.00,0.0019
3823.00,0.0019
3822.00,0.0019
3821.00,0.0019
3820.00,0.0019
3819.00,0.0018
3818.00,0.0018
3817.00,0.0018
3816.00,0.0018
3815.00,0.0018
3814.00,0.0018
3813.00,0.0018
3812.00,0.0018
3811.00,0.0019
3810.00,0.0019
3809.00,0.0019
3808.00,0.0019
3807.00,0.0019
3806.00,0.0019
3805.00,0.0019
3804.00,0.0019
3803.00,0.0019
3802.00,0.0018
3801.00,0.0018
3800.00,0.0018
3799.00,0.0019
3798.00,0.0019
3797.00,0.0019
3796.00,0.0019
3795.00,0.0019
3794.00,0.0018
3793.00,0.0018
3792.00,0.0018
3791.00,0.0018
3790.00,0.0018
3789.00,0.0018
3788.00,0.0018
3787.00,0.0019
3786.00,0.0019
3785.00,0.0019
3784.00,0.0019
3783.00,0.0019
3782.00,0.0019
3781.00,0.0019
3780.00,0.0019
3779.00,0.0019
3778.00,0.0018
3777.00,0.0018
3776.00,0.0018
3775.00,0.0018
3774.00,0.0018
3773.00,0.0018
3772.00,0.0018
3771.00,0.0018
3770.00,0.0018
3769.00,0.0018
3768.00,0.0018
3767.00,0.0019
3766.00,0.0019
3765.00,0.0019
3764.00,0.0019
3763.00,0.0019
3762.00,0.0019
3761.00,0.0019
3760.00,0.0019
3759.00,0.0019
3758.00,0.0019
3757.00,0.0019
3756.00,0.0019
3755.00,0.0019
3754.00,0.0019
3753.00,0.0019
3752.00,0.0019
3751.00,0.0019
3750.00,0.0019
3749.00,0.0019
3748.00,0.0019
3747.00,0.0019
3746.00,0.0018
3745.00,0.0018
3744.00,0.0017
3743.00,0.0017
3742.00,0.0017
3741.00,0.0018
3740.00,0.0018
3739.00,0.0019
3738.00,0.0020
3737.00,0.0020
3736.00,0.0020
3735.00,0.0019
3734.00,0.0018
3733.00,0.0018
3732.00,0.0019
3731.00,0.0019
3730.00,0.0019
3729.00,0.0019
3728.00,0.0019
3727.00,0.0019
3726.00,0.0019
3725.00,0.0019
3724.00,0.0019
3723.00,0.0019
3722.00,0.0019
3721.00,0.0019
3720.00,0.0018
3719.00,0.0018
3718.00,0.0018
3717.00,0.0018
3716.00,0.0018
3715.00,0.0019
3714.00,0.0019
3713.00,0.0019
3712.00,0.0018
3711.00,0.0018
3710.00,0.0018
3709.00,0.0018
3708.00,0.0018
3707.00,0.0018
3706.00,0.0019
3705.00,0.0019
3704.00,0.0019
3703.00,0.0019
3702.00,0.0018
3701.00,0.0018
3700.00,0.0017
3699.00,0.0017
3698.00,0.0018
3697.00,0.0018
3696.00,0.0018
3695.00,0.0018
3694.00,0.0018
3693.00,0.0019
3692.00,0.0019
3691.00,0.0018
3690.00,0.0018
3689.00,0.0018
3688.00,0.0018
3687.00,0.0018
3686.00,0.0018
3685.00,0.0018
3684.00,0.0018
3683.00,0.0018
3682.00,0.0018
3681.00,0.0018
3680.00,0.0018
3679.00,0.0018
3678.00,0.0018
3677.00,0.0019
3676.00,0.0019
3675.00,0.0018
3674.00,0.0018
3673.00,0.0019
3672.00,0.0019
3671.00,0.0019
3670.00,0.0019
3669.00,0.0019
3668.00,0.0019
3667.00,0.0019
3666.00,0.0019
3665.00,0.0019
3664.00,0.0019
3663.00,0.0019
3662.00,0.0019
3661.00,0.0019
3660.00,0.0020
3659.00,0.0020
3658.00,0.0020
3657.00,0.0021
3656.00,0.0020
3655.00,0.0020
3654.00,0.0020
3653.00,0.0020
3652.00,0.0020
3651.00,0.0020
3650.00,0.0020
3649.00,0.0020
3648.00,0.0020
3647.00,0.0020
3646.00,0.0020
3645.00,0.0020
3644.00,0.0020
3643.00,0.0020
3642.00,0.0021
3641.00,0.0021
3640.00,0.0021
3639.00,0.0021
3638.00,0.0021
3637.00,0.0021
3636.00,0.0021
3635.00,0.0021
3634.00,0.0022
3633.00,0.0022
3632.00,0.0022
3631.00,0.0022
3630.00,0.0023
3629.00,0.0023
3628.00,0.0023
3627.00,0.0023
3626.00,0.0024
3625.00,0.0024
3624.00,0.0024
3623.00,0.0024
3622.00,0.0024
3621.00,0.0024
3620.00,0.0024
3619.00,0.0024
3618.00,0.0025
3617.00,0.0025
3616.00,0.0025
3615.00,0.0025
3614.00,0.0025
3613.00,0.0025
3612.00,0.0025
3611.00,0.0026
3610.00,0.0026
3609.00,0.0026
3608.00,0.0027
3607.00,0.0027
3606.00,0.0027
3605.00,0.0027
3604.00,0.0027
3603.00,0.0027
3602.00,0.0027
3601.00,0.0027
3600.00,0.0027
3599.00,0.0028
3598.00,0.0028
3597.00,0.0028
3596.00,0.0028
3595.00,0.0028
3594.00,0.0029
3593.00,0.0029
3592.00,0.0029
3591.00,0.0028
3590.00,0.0028
3589.00,0.0028
3588.00,0.0028
3587.00,0.0028
3586.00,0.0028
3585.00,0.0029
3584.00,0.0029
3583.00,0.0029
3582.00,0.0029
3581.00,0.0030
3580.00,0.0030
3579.00,0.0030
3578.00,0.0030
3577.00,0.0030
3576.00,0.0031
3575.00,0.0031
3574.00,0.0031
3573.00,0.0031
3572.00,0.0031
3571.00,0.0031
3570.00,0.0031
3569.00,0.0031
3568.00,0.0032
3567.00,0.0032
3566.00,0.0032
3565.00,0.0032
3564.00,0.0032
3563.00,0.0032
3562.00,0.0032
3561.00,0.0032
3560.00,0.0032
3559.00,0.0033
3558.00,0.0033
3557.00,0.0034
3556.00,0.0034
3555.00,0.0034
3554.00,0.0034
3553.00,0.0034
3552.00,0.0034
3551.00,0.0035
3550.00,0.0035
3549.00,0.0035
3548.00,0.0036
3547.00,0.0036
3546.00,0.0036
3545.00,0.0037
3544.00,0.0037
3543.00,0.0037
3542.00,0.0037
3541.00,0.0037
3540.00,0.0037
3539.00,0.0037
3538.00,0.0037
3537.00,0.0037
3536.00,0.0038
3535.00,0.0038
3534.00,0.0038
3533.00,0.0039
3532.00,0.0038
3531.00,0.0038
3530.00,0.0038
3529.00,0.0038
3528.00,0.0038
3527.00,0.0039
3526.00,0.0039
3525.00,0.0039
3524.00,0.0039
3523.00,0.0039
3522.00,0.0040
3521.00,0.0040
3520.00,0.0041
3519.00,0.0041
3518.00,0.0041
3517.00,0.0041
3516.00,0.0041
3515.00,0.0041
3514.00,0.0042
3513.00,0.0042
3512.00,0.0042
3511.00,0.0042
3510.00,0.0043
3509.00,0.0043
3508.00,0.0044
3507.00,0.0044
3506.00,0.0044
3505.00,0.0044
3504.00,0.0044
3503.00,0.0044
3502.00,0.0044
3501.00,0.0044
3500.00,0.0044
3499.00,0.0044
3498.00,0.0044
3497.00,0.0044
3496.00,0.0044
3495.00,0.0045
3494.00,0.0045
3493.00,0.0045
3492.00,0.0045
3491.00,0.0045
3490.00,0.0045
3489.00,0.0045
3488.00,0.0045
3487.00,0.0046
3486.00,0.0046
3485.00,0.0046
3484.00,0.0047
3483.00,0.0046
3482.00,0.0046
3481.00,0.0047
3480.00,0.0047
3479.00,0.0047
3478.00,0.0048
3477.00,0.0048
3476.00,0.0049
3475.00,0.0049
3474.00,0.0049
3473.00,0.0049
3472.00,0.0049
3471.00,0.0049
3470.00,0.0049
3469.00,0.0049
3468.00,0.0050
3467.00,0.0050
3466.00,0.0050
3465.00,0.0050
3464.00,0.0051
3463.00,0.0051
3462.00,0.0052
3461.00,0.0052
3460.00,0.0052
3459.00,0.0052
3458.00,0.0052
3457.00,0.0052
3456.00,0.0052
3455.00,0.0052
3454.00,0.0053
3453.00,0.0053
3452.00,0.0053
3451.00,0.0053
3450.00,0.0053
3449.00,0.0053
3448.00,0.0053
3447.00,0.0053
3446.00,0.0054
3445.00,0.0054
3444.00,0.0054
3443.00,0.0054
3442.00,0.0055
3441.00,0.0055
3440.00,0.0055
3439.00,0.0055
3438.00,0.0055
3437.00,0.0055
3436.00,0.0056
3435.00,0.0056
3434.00,0.0056
3433.00,0.0057
3432.00,0.0057
3431.00,0.0057
3430.00,0.0057
3429.00,0.0057
3428.00,0.0057
3427.00,0.0057
3426.00,0.0057
3425.00,0.0058
3424.00,0.0058
3423.00,0.0059
3422.00,0.0059
3421.00,0.0059
3420.00,0.0059
3419.00,0.0060
3418.00,0.0060
3417.00,0.0060
3416.00,0.0060
3415.00,0.0060
3414.00,0.0060
3413.00,0.0060
3412.00,0.0061
3411.00,0.0061
3410.00,0.0061
3409.00,0.0061
3408.00,0.0061
3407.00,0.0062
3406.00,0.0062
3405.00,0.0062
3404.00,0.0062
3403.00,0.0062
3402.00,0.0063
3401.00,0.0063
3400.00,0.0063
3399.00,0.0064
3398.00,0.0064
3397.00,0.0064
3396.00,0.0064
3395.00,0.0064
3394.00,0.0064
3393.00,0.0064
3392.00,0.0064
3391.00,0.0064
3390.00,0.0065
3389.00,0.0065
3388.00,0.0065
3387.00,0.0066
3386.00,0.0066
3385.00,0.0066
3384.00,0.0066
3383.00,0.0066
3382.00,0.0066
3381.00,0.0067
3380.00,0.0067
3379.00,0.0067
3378.00,0.0067
3377.00,0.0068
3376.00,0.0068
3375.00,0.0068
3374.00,0.0068
3373.00,0.0068
3372.00,0.0068
3371.00,0.0069
3370.00,0.0069
3369.00,0.0069
3368.00,0.0069
3367.00,0.0070
3366.00,0.0070
3365.00,0.0071
3364.00,0.0071
3363.00,0.0071
3362.00,0.0072
3361.00,0.0072
3360.00,0.0073
3359.00,0.0073
3358.00,0.0073
3357.00,0.0073
3356.00,0.0073
3355.00,0.0073
3354.00,0.0073
3353.00,0.0074
3352.00,0.0074
3351.00,0.0075
3350.00,0.0075
3349.00,0.0075
3348.00,0.0076
3347.00,0.0076
3346.00,0.0076
3345.00,0.0077
3344.00,0.0077
3343.00,0.0077
3342.00,0.0077
3341.00,0.0078
3340.00,0.0078
3339.00,0.0079
3338.00,0.0079
3337.00,0.0080
3336.00,0.0080
3335.00,0.0080
3334.00,0.0081
3333.00,0.0081
3332.00,0.0082
3331.00,0.0082
3330.00,0.0082
3329.00,0.0083
3328.00,0.0083
3327.00,0.0084
3326.00,0.0085
3325.00,0.0085
3324.00,0.0086
3323.00,0.0087
3322.00,0.0087
3321.00,0.0088
3320.00,0.0088
3319.00,0.0089
3318.00,0.0089
3317.00,0.0089
3316.00,0.0090
3315.00,0.0090
3314.00,0.0091
3313.00,0.0091
3312.00,0.0092
3311.00,0.0092
3310.00,0.0093
3309.00,0.0094
3308.00,0.0094
3307.00,0.0094
3306.00,0.0095
3305.00,0.0095
3304.00,0.0096
3303.00,0.0097
3302.00,0.0097
3301.00,0.0098
3300.00,0.0099
3299.00,0.0099
3298.00,0.0100
3297.00,0.0100
3296.00,0.0101
3295.00,0.0101
3294.00,0.0102
3293.00,0.0103
3292.00,0.0104
3291.00,0.0104
3290.00,0.0105
3289.00,0.0105
3288.00,0.0105
3287.00,0.0105
3286.00,0.0105
3285.00,0.0106
3284.00,0.0106
3283.00,0.0106
3282.00,0.0107
3281.00,0.0107
3280.00,0.0108
3279.00,0.0108
3278.00,0.0109
3277.00,0.0109
3276.00,0.0109
3275.00,0.0109
3274.00,0.0109
3273.00,0.0109
3272.00,0.0109
3271.00,0.0109
3270.00,0.0109
3269.00,0.0109
3268.00,0.0108
3267.00,0.0108
3266.00,0.0108
3265.00,0.0107
3264.00,0.0107
3263.00,0.0107
3262.00,0.0106
3261.00,0.0106
3260.00,0.0105
3259.00,0.0105
3258.00,0.0104
3257.00,0.0104
3256.00,0.0103
3255.00,0.0103
3254.00,0.0102
3253.00,0.0101
3252.00,0.0101
3251.00,0.0100
3250.00,0.0100
3249.00,0.0100
3248.00,0.0099
3247.00,0.0099
3246.00,0.0098
3245.00,0.0097
3244.00,0.0097
3243.00,0.0097
3242.00,0.0097
3241.00,0.0097
3240.00,0.0096
3239.00,0.0096
3238.00,0.0095
3237.00,0.0095
3236.00,0.0094
3235.00,0.0094
3234.00,0.0093
3233.00,0.0093
3232.00,0.0093
3231.00,0.0093
3230.00,0.0092
3229.00,0.0092
3228.00,0.0092
3227.00,0.0092
3226.00,0.0091
3225.00,0.0091
3224.00,0.0091
3223.00,0.0090
3222.00,0.0090
3221.00,0.0090
3220.00,0.0090
3219.00,0.0090
3218.00,0.0090
3217.00,0.0089
3216.00,0.0089
3215.00,0.0089
3214.00,0.0089
3213.00,0.0088
3212.00,0.0088
3211.00,0.0088
3210.00,0.0087
3209.00,0.0087
3208.00,0.0087
3207.00,0.0087
3206.00,0.0087
3205.00,0.0086
3204.00,0.0086
3203.00,0.0086
3202.00,0.0086
3201.00,0.0086
3200.00,0.0085
3199.00,0.0085
3198.00,0.0085
3197.00,0.0084
3196.00,0.0084
3195.00,0.0084
3194.00,0.0084
3193.00,0.0083
3192.00,0.0083
3191.00,0.0083
3190.00,0.0082
3189.00,0.0082
3188.00,0.0082
3187.00,0.0082
3186.00,0.0081
3185.00,0.0081
3184.00,0.0081
3183.00,0.0080
3182.00,0.0080
3181.00,0.0080
3180.00,0.0080
3179.00,0.0079
3178.00,0.0079
3177.00,0.0078
3176.00,0.0077
3175.00,0.0077
3174.00,0.0077
3173.00,0.0076
3172.00,0.0076
3171.00,0.0076
3170.00,0.0076
3169.00,0.0075
3168.00,0.0075
3167.00,0.0075
3166.00,0.0074
3165.00,0.0074
3164.00,0.0074
3163.00,0.0074
3162.00,0.0074
3161.00,0.0073
3160.00,0.0073
3159.00,0.0072
3158.00,0.0071
3157.00,0.0071
3156.00,0.0071
3155.00,0.0071
3154.00,0.0071
3153.00,0.0071
3152.00,0.0070
3151.00,0.0070
3150.00,0.0069
3149.00,0.0069
3148.00,0.0069
3147.00,0.0068
3146.00,0.0068
3145.00,0.0068
3144.00,0.0068
3143.00,0.0068
3142.00,0.0067
3141.00,0.0067
3140.00,0.0067
3139.00,0.0066
3138.00,0.0066
3137.00,0.0065
3136.00,0.0065
3135.00,0.0065
3134.00,0.0065
3133.00,0.0065
3132.00,0.0065
3131.00,0.0064
3130.00,0.0064
3129.00,0.0064
3128.00,0.0064
3127.00,0.0064
3126.00,0.0064
3125.00,0.0064
3124.00,0.0064
3123.00,0.0064
3122.00,0.0064
3121.00,0.0063
3120.00,0.0063
3119.00,0.0063
3118.00,0.0062
3117.00,0.0062
3116.00,0.0062
3115.00,0.0062
3114.00,0.0063
3113.00,0.0063
3112.00,0.0063
3111.00,0.0063
3110.00,0.0063
3109.00,0.0063
3108.00,0.0062
3107.00,0.0062
3106.00,0.0062
3105.00,0.0062
3104.00,0.0062
3103.00,0.0062
3102.00,0.0062
3101.00,0.0062
3100.00,0.0062
3099.00,0.0062
3098.00,0.0062
3097.00,0.0062
3096.00,0.0063
3095.00,0.0063
3094.00,0.0063
3093.00,0.0063
3092.00,0.0063
3091.00,0.0063
3090.00,0.0063
3089.00,0.0064
3088.00,0.0064
3087.00,0.0064
3086.00,0.0063
3085.00,0.0063
3084.00,0.0063
3083.00,0.0063
3082.00,0.0063
3081.00,0.0064
3080.00,0.0064
3079.00,0.0064
3078.00,0.0064
3077.00,0.0064
3076.00,0.0064
3075.00,0.0064
3074.00,0.0064
3073.00,0.0064
3072.00,0.0064
3071.00,0.0064
3070.00,0.0065
3069.00,0.0065
3068.00,0.0065
3067.00,0.0065
3066.00,0.0065
3065.00,0.0065
3064.00,0.0065
3063.00,0.0065
3062.00,0.0065
3061.00,0.0065
3060.00,0.0065
3059.00,0.0064
3058.00,0.0064
3057.00,0.0064
3056.00,0.0064
3055.00,0.0064
3054.00,0.0064
3053.00,0.0064
3052.00,0.0064
3051.00,0.0063
3050.00,0.0063
3049.00,0.0062
3048.00,0.0062
3047.00,0.0062
3046.00,0.0061
3045.00,0.0061
3044.00,0.0061
3043.00,0.0060
3042.00,0.0060
3041.00,0.0060
3040.00,0.0060
3039.00,0.0059
3038.00,0.0059
3037.00,0.0059
3036.00,0.0059
3035.00,0.0059
3034.00,0.0059
3033.00,0.0059
3032.00,0.0058
3031.00,0.0058
3030.00,0.0058
3029.00,0.0058
3028.00,0.0057
3027.00,0.0057
3026.00,0.0057
3025.00,0.0056
3024.00,0.0056
3023.00,0.0056
3022.00,0.0056
3021.00,0.0055
3020.00,0.0055
3019.00,0.0055
3018.00,0.0054
3017.00,0.0054
3016.00,0.0054
3015.00,0.0054
3014.00,0.0054
3013.00,0.0054
3012.00,0.0054
3011.00,0.0054
3010.00,0.0053
3009.00,0.0053
3008.00,0.0052
3007.00,0.0052
3006.00,0.0051
3005.00,0.0051
3004.00,0.0051
3003.00,0.0052
3002.00,0.0051
3001.00,0.0051
3000.00,0.0051
2999.00,0.0051
2998.00,0.0051
2997.00,0.0051
2996.00,0.0051
2995.00,0.0052
2994.00,0.0052
2993.00,0.0052
2992.00,0.0052
2991.00,0.0052
2990.00,0.0052
2989.00,0.0053
2988.00,0.0053
2987.00,0.0053
2986.00,0.0053
2985.00,0.0053
2984.00,0.0053
2983.00,0.0053
2982.00,0.0053
2981.00,0.0053
2980.00,0.0054
2979.00,0.0054
2978.00,0.0055
2977.00,0.0056
2976.00,0.0056
2975.00,0.0057
2974.00,0.0057
2973.00,0.0057
2972.00,0.0058
2971.00,0.0058
2970.00,0.0059
2969.00,0.0060
2968.00,0.0061
2967.00,0.0061
2966.00,0.0062
2965.00,0.0062
2964.00,0.0062
2963.00,0.0062
2962.00,0.0063
2961.00,0.0063
2960.00,0.0063
2959.00,0.0063
2958.00,0.0063
2957.00,0.0063
2956.00,0.0063
2955.00,0.0063
2954.00,0.0063
2953.00,0.0063
2952.00,0.0063
2951.00,0.0062
2950.00,0.0062
2949.00,0.0062
2948.00,0.0062
2947.00,0.0063
2946.00,0.0063
2945.00,0.0063
2944.00,0.0064
2943.00,0.0064
2942.00,0.0065
2941.00,0.0065
2940.00,0.0066
2939.00,0.0066
2938.00,0.0067
2937.00,0.0068
2936.00,0.0070
2935.00,0.0071
2934.00,0.0072
2933.00,0.0073
2932.00,0.0075
2931.00,0.0076
2930.00,0.0077
2929.00,0.0078
2928.00,0.0080
2927.00,0.0081
2926.00,0.0082
2925.00,0.0083
2924.00,0.0084
2923.00,0.0085
2922.00,0.0086
2921.00,0.0087
2920.00,0.0087
2919.00,0.0087
2918.00,0.0086
2917.00,0.0085
2916.00,0.0084
2915.00,0.0082
2914.00,0.0079
2913.00,0.0077
2912.00,0.0075
2911.00,0.0073
2910.00,0.0071
2909.00,0.0069
2908.00,0.0068
2907.00,0.0067
2906.00,0.0066
2905.00,0.0065
2904.00,0.0065
2903.00,0.0064
2902.00,0.0064
2901.00,0.0063
2900.00,0.0062
2899.00,0.0062
2898.00,0.0061
2897.00,0.0061
2896.00,0.0061
2895.00,0.0060
2894.00,0.0060
2893.00,0.0060
2892.00,0.0060
2891.00,0.0059
2890.00,0.0059
2889.00,0.0058
2888.00,0.0058
2887.00,0.0057
2886.00,0.0057
2885.00,0.0057
2884.00,0.0057
2883.00,0.0057
2882.00,0.0057
2881.00,0.0056
2880.00,0.0057
2879.00,0.0057
2878.00,0.0057
2877.00,0.0057
2876.00,0.0057
2875.00,0.0057
2874.00,0.0057
2873.00,0.0057
2872.00,0.0057
2871.00,0.0057
2870.00,0.0057
2869.00,0.0056
2868.00,0.0056
2867.00,0.0056
2866.00,0.0055
2865.00,0.0055
2864.00,0.0056
2863.00,0.0056
2862.00,0.0056
2861.00,0.0057
2860.00,0.0058
2859.00,0.0059
2858.00,0.0060
2857.00,0.0061
2856.00,0.0062
2855.00,0.0063
2854.00,0.0065
2853.00,0.0066
2852.00,0.0067
2851.00,0.0067
2850.00,0.0067
2849.00,0.0066
2848.00,0.0064
2847.00,0.0062
2846.00,0.0060
2845.00,0.0057
2844.00,0.0056
2843.00,0.0054
2842.00,0.0053
2841.00,0.0052
2840.00,0.0051
2839.00,0.0050
2838.00,0.0049
2837.00,0.0049
2836.00,0.0048
2835.00,0.0048
2834.00,0.0047
2833.00,0.0047
2832.00,0.0046
2831.00,0.0046
2830.00,0.0046
2829.00,0.0046
2828.00,0.0046
2827.00,0.0046
2826.00,0.0045
2825.00,0.0045
2824.00,0.0045
2823.00,0.0045
2822.00,0.0045
2821.00,0.0045
2820.00,0.0045
2819.00,0.0044
2818.00,0.0044
2817.00,0.0044
2816.00,0.0044
2815.00,0.0044
2814.00,0.0044
2813.00,0.0044
2812.00,0.0044
2811.00,0.0044
2810.00,0.0044
2809.00,0.0043
2808.00,0.0043
2807.00,0.0043
2806.00,0.0043
2805.00,0.0043
2804.00,0.0043
2803.00,0.0043
2802.00,0.0043
2801.00,0.0043
2800.00,0.0043
2799.00,0.0043
2798.00,0.0042
2797.00,0.0042
2796.00,0.0042
2795.00,0.0042
2794.00,0.0042
2793.00,0.0042
2792.00,0.0042
2791.00,0.0042
2790.00,0.0042
2789.00,0.0042
2788.00,0.0042
2787.00,0.0041
2786.00,0.0041
2785.00,0.0041
2784.00,0.0041
2783.00,0.0041
2782.00,0.0041
2781.00,0.0041
2780.00,0.0041
2779.00,0.0041
2778.00,0.0041
2777.00,0.0041
2776.00,0.0040
2775.00,0.0040
2774.00,0.0040
2773.00,0.0040
2772.00,0.0040
2771.00,0.0040
2770.00,0.0040
2769.00,0.0040
2768.00,0.0040
2767.00,0.0040
2766.00,0.0040
2765.00,0.0040
2764.00,0.0039
2763.00,0.0039
2762.00,0.0039
2761.00,0.0039
2760.00,0.0039
2759.00,0.0038
2758.00,0.0038
2757.00,0.0038
