Created as New Dataset,Sample 134 By YargerLab Date Wednesday, June 05 2024
cm-1,A
4000.00,0.0049
3999.00,0.0049
3998.00,0.0049
3997.00,0.0049
3996.00,0.0049
3995.00,0.0049
3994.00,0.0049
3993.00,0.0049
3992.00,0.0049
3991.00,0.0049
3990.00,0.0049
3989.00,0.0049
3988.00,0.0049
3987.00,0.0049
3986.00,0.0049
3985.00,0.0049
3984.00,0.0049
3983.00,0.0049
3982.00,0.0049
3981.00,0.0049
3980.00,0.0049
3979.00,0.0049
3978.00,0.0049
3977.00,0.0049
3976.00,0.0049
3975.00,0.0049
3974.00,0.0049
3973.00,0.0049
3972.00,0.0049
3971.00,0.0049
3970.00,0.0049
3969.00,0.0049
3968.00,0.0049
3967.00,0.0049
3966.00,0.0049
3965.00,0.0049
3964.00,0.0050
3963.00,0.0050
3962.00,0.0050
3961.00,0.0050
3960.00,0.0049
3959.00,0.0049
3958.00,0.0049
3957.00,0.0049
3956.00,0.0049
3955.00,0.0049
3954.00,0.0049
3953.00,0.0049
3952.00,0.0049
3951.00,0.0050
3950.00,0.0050
3949.00,0.0051
3948.00,0.0051
3947.00,0.0051
3946.00,0.0051
3945.00,0.0051
3944.00,0.0050
3943.00,0.0050
3942.00,0.0050
3941.00,0.0050
3940.00,0.0050
3939.00,0.0050
3938.00,0.0050
3937.00,0.0050
3936.00,0.0050
3935.00,0.0051
3934.00,0.0051
3933.00,0.0051
3932.00,0.0051
3931.00,0.0051
3930.00,0.0050
3929.00,0.0050
3928.00,0.0050
3927.00,0.0050
3926.00,0.0050
3925.00,0.0050
3924.00,0.0050
3923.00,0.0050
3922.00,0.0051
3921.00,0.0052
3920.00,0.0052
3919.00,0.0052
3918.00,0.0052
3917.00,0.0052
3916.00,0.0051
3915.00,0.0051
3914.00,0.0050
3913.00,0.0050
3912.00,0.0050
3911.00,0.0050
3910.00,0.0049
3909.00,0.0049
3908.00,0.0049
3907.00,0.0049
3906.00,0.0050
3905.00,0.0051
3904.00,0.0053
3903.00,0.0055
3902.00,0.0056
3901.00,0.0056
3900.00,0.0055
3899.00,0.0053
3898.00,0.0052
3897.00,0.0052
3896.00,0.0052
3895.00,0.0052
3894.00,0.0051
3893.00,0.0051
3892.00,0.0050
3891.00,0.0051
3890.00,0.0051
3889.00,0.0052
3888.00,0.0053
3887.00,0.0054
3886.00,0.0054
3885.00,0.0053
3884.00,0.0053
3883.00,0.0053
3882.00,0.0053
3881.00,0.0053
3880.00,0.0053
3879.00,0.0052
3878.00,0.0053
3877.00,0.0053
3876.00,0.0053
3875.00,0.0052
3874.00,0.0051
3873.00,0.0051
3872.00,0.0053
3871.00,0.0054
3870.00,0.0054
3869.00,0.0054
3868.00,0.0054
3867.00,0.0054
3866.00,0.0055
3865.00,0.0054
3864.00,0.0053
3863.00,0.0053
3862.00,0.0054
3861.00,0.0054
3860.00,0.0054
3859.00,0.0053
3858.00,0.0051
3857.00,0.0049
3856.00,0.0047
3855.00,0.0047
3854.00,0.0048
3853.00,0.0049
3852.00,0.0051
3851.00,0.0052
3850.00,0.0053
3849.00,0.0054
3848.00,0.0054
3847.00,0.0054
3846.00,0.0053
3845.00,0.0053
3844.00,0.0053
3843.00,0.0054
3842.00,0.0054
3841.00,0.0054
3840.00,0.0055
3839.00,0.0055
3838.00,0.0054
3837.00,0.0054
3836.00,0.0054
3835.00,0.0053
3834.00,0.0054
3833.00,0.0054
3832.00,0.0054
3831.00,0.0053
3830.00,0.0053
3829.00,0.0053
3828.00,0.0053
3827.00,0.0053
3826.00,0.0053
3825.00,0.0053
3824.00,0.0054
3823.00,0.0055
3822.00,0.0055
3821.00,0.0054
3820.00,0.0053
3819.00,0.0053
3818.00,0.0054
3817.00,0.0054
3816.00,0.0054
3815.00,0.0052
3814.00,0.0051
3813.00,0.0051
3812.00,0.0051
3811.00,0.0051
3810.00,0.0050
3809.00,0.0051
3808.00,0.0051
3807.00,0.0052
3806.00,0.0052
3805.00,0.0053
3804.00,0.0054
3803.00,0.0054
3802.00,0.0054
3801.00,0.0053
3800.00,0.0052
3799.00,0.0053
3798.00,0.0053
3797.00,0.0053
3796.00,0.0052
3795.00,0.0051
3794.00,0.0050
3793.00,0.0050
3792.00,0.0049
3791.00,0.0049
3790.00,0.0048
3789.00,0.0048
3788.00,0.0048
3787.00,0.0048
3786.00,0.0049
3785.00,0.0049
3784.00,0.0049
3783.00,0.0050
3782.00,0.0050
3781.00,0.0050
3780.00,0.0050
3779.00,0.0050
3778.00,0.0050
3777.00,0.0050
3776.00,0.0050
3775.00,0.0049
3774.00,0.0049
3773.00,0.0049
3772.00,0.0050
3771.00,0.0051
3770.00,0.0051
3769.00,0.0051
3768.00,0.0052
3767.00,0.0052
3766.00,0.0052
3765.00,0.0052
3764.00,0.0052
3763.00,0.0052
3762.00,0.0052
3761.00,0.0053
3760.00,0.0052
3759.00,0.0052
3758.00,0.0053
3757.00,0.0053
3756.00,0.0054
3755.00,0.0054
3754.00,0.0055
3753.00,0.0056
3752.00,0.0057
3751.00,0.0058
3750.00,0.0059
3749.00,0.0059
3748.00,0.0058
3747.00,0.0058
3746.00,0.0058
3745.00,0.0058
3744.00,0.0057
3743.00,0.0056
3742.00,0.0057
3741.00,0.0058
3740.00,0.0059
3739.00,0.0060
3738.00,0.0061
3737.00,0.0061
3736.00,0.0059
3735.00,0.0058
3734.00,0.0057
3733.00,0.0057
3732.00,0.0056
3731.00,0.0054
3730.00,0.0053
3729.00,0.0053
3728.00,0.0053
3727.00,0.0053
3726.00,0.0052
3725.00,0.0052
3724.00,0.0052
3723.00,0.0051
3722.00,0.0051
3721.00,0.0050
3720.00,0.0050
3719.00,0.0050
3718.00,0.0049
3717.00,0.0049
3716.00,0.0050
3715.00,0.0050
3714.00,0.0051
3713.00,0.0052
3712.00,0.0052
3711.00,0.0052
3710.00,0.0052
3709.00,0.0052
3708.00,0.0051
3707.00,0.0050
3706.00,0.0049
3705.00,0.0049
3704.00,0.0048
3703.00,0.0048
3702.00,0.0047
3701.00,0.0047
3700.00,0.0047
3699.00,0.0047
3698.00,0.0047
3697.00,0.0047
3696.00,0.0047
3695.00,0.0047
3694.00,0.0048
3693.00,0.0048
3692.00,0.0048
3691.00,0.0048
3690.00,0.0049
3689.00,0.0050
3688.00,0.0050
3687.00,0.0050
3686.00,0.0050
3685.00,0.0050
3684.00,0.0050
3683.00,0.0050
3682.00,0.0050
3681.00,0.0050
3680.00,0.0050
3679.00,0.0051
3678.00,0.0052
3677.00,0.0053
3676.00,0.0054
3675.00,0.0054
3674.00,0.0054
3673.00,0.0055
3672.00,0.0056
3671.00,0.0056
3670.00,0.0054
3669.00,0.0053
3668.00,0.0052
3667.00,0.0052
3666.00,0.0052
3665.00,0.0051
3664.00,0.0051
3663.00,0.0050
3662.00,0.0050
3661.00,0.0050
3660.00,0.0050
3659.00,0.0050
3658.00,0.0051
3657.00,0.0052
3656.00,0.0052
3655.00,0.0053
3654.00,0.0054
3653.00,0.0056
3652.00,0.0058
3651.00,0.0059
3650.00,0.0060
3649.00,0.0061
3648.00,0.0061
3647.00,0.0060
3646.00,0.0059
3645.00,0.0057
3644.00,0.0056
3643.00,0.0055
3642.00,0.0055
3641.00,0.0054
3640.00,0.0054
3639.00,0.0054
3638.00,0.0054
3637.00,0.0054
3636.00,0.0055
3635.00,0.0056
3634.00,0.0056
3633.00,0.0057
3632.00,0.0057
3631.00,0.0059
3630.00,0.0060
3629.00,0.0060
3628.00,0.0061
3627.00,0.0061
3626.00,0.0061
3625.00,0.0061
3624.00,0.0061
3623.00,0.0061
3622.00,0.0061
3621.00,0.0060
3620.00,0.0060
3619.00,0.0061
3618.00,0.0062
3617.00,0.0063
3616.00,0.0064
3615.00,0.0065
3614.00,0.0065
3613.00,0.0066
3612.00,0.0066
3611.00,0.0067
3610.00,0.0067
3609.00,0.0067
3608.00,0.0066
3607.00,0.0065
3606.00,0.0065
3605.00,0.0065
3604.00,0.0065
3603.00,0.0065
3602.00,0.0065
3601.00,0.0065
3600.00,0.0065
3599.00,0.0066
3598.00,0.0066
3597.00,0.0067
3596.00,0.0067
3595.00,0.0067
3594.00,0.0067
3593.00,0.0067
3592.00,0.0068
3591.00,0.0069
3590.00,0.0071
3589.00,0.0071
3588.00,0.0071
3587.00,0.0071
3586.00,0.0071
3585.00,0.0071
3584.00,0.0071
3583.00,0.0071
3582.00,0.0071
3581.00,0.0070
3580.00,0.0070
3579.00,0.0070
3578.00,0.0071
3577.00,0.0071
3576.00,0.0071
3575.00,0.0072
3574.00,0.0072
3573.00,0.0073
3572.00,0.0074
3571.00,0.0075
3570.00,0.0077
3569.00,0.0078
3568.00,0.0079
3567.00,0.0079
3566.00,0.0079
3565.00,0.0079
3564.00,0.0079
3563.00,0.0079
3562.00,0.0079
3561.00,0.0079
3560.00,0.0079
3559.00,0.0079
3558.00,0.0079
3557.00,0.0079
3556.00,0.0079
3555.00,0.0080
3554.00,0.0080
3553.00,0.0081
3552.00,0.0082
3551.00,0.0083
3550.00,0.0084
3549.00,0.0085
3548.00,0.0086
3547.00,0.0086
3546.00,0.0086
3545.00,0.0086
3544.00,0.0086
3543.00,0.0086
3542.00,0.0086
3541.00,0.0086
3540.00,0.0086
3539.00,0.0087
3538.00,0.0087
3537.00,0.0087
3536.00,0.0087
3535.00,0.0088
3534.00,0.0088
3533.00,0.0089
3532.00,0.0090
3531.00,0.0090
3530.00,0.0091
3529.00,0.0091
3528.00,0.0092
3527.00,0.0093
3526.00,0.0094
3525.00,0.0094
3524.00,0.0095
3523.00,0.0095
3522.00,0.0094
3521.00,0.0094
3520.00,0.0095
3519.00,0.0095
3518.00,0.0095
3517.00,0.0095
3516.00,0.0096
3515.00,0.0096
3514.00,0.0097
3513.00,0.0097
3512.00,0.0098
3511.00,0.0098
3510.00,0.0099
3509.00,0.0099
3508.00,0.0100
3507.00,0.0101
3506.00,0.0101
3505.00,0.0102
3504.00,0.0102
3503.00,0.0102
3502.00,0.0103
3501.00,0.0103
3500.00,0.0103
3499.00,0.0104
3498.00,0.0104
3497.00,0.0104
3496.00,0.0104
3495.00,0.0105
3494.00,0.0105
3493.00,0.0105
3492.00,0.0106
3491.00,0.0106
3490.00,0.0107
3489.00,0.0107
3488.00,0.0108
3487.00,0.0108
3486.00,0.0109
3485.00,0.0109
3484.00,0.0110
3483.00,0.0110
3482.00,0.0110
3481.00,0.0111
3480.00,0.0111
3479.00,0.0112
3478.00,0.0112
3477.00,0.0112
3476.00,0.0113
3475.00,0.0113
3474.00,0.0113
3473.00,0.0114
3472.00,0.0115
3471.00,0.0115
3470.00,0.0116
3469.00,0.0116
3468.00,0.0116
3467.00,0.0117
3466.00,0.0117
3465.00,0.0117
3464.00,0.0118
3463.00,0.0118
3462.00,0.0119
3461.00,0.0119
3460.00,0.0120
3459.00,0.0120
3458.00,0.0120
3457.00,0.0120
3456.00,0.0121
3455.00,0.0121
3454.00,0.0121
3453.00,0.0122
3452.00,0.0122
3451.00,0.0123
3450.00,0.0123
3449.00,0.0124
3448.00,0.0124
3447.00,0.0125
3446.00,0.0126
3445.00,0.0126
3444.00,0.0127
3443.00,0.0127
3442.00,0.0127
3441.00,0.0128
3440.00,0.0128
3439.00,0.0129
3438.00,0.0129
3437.00,0.0130
3436.00,0.0130
3435.00,0.0131
3434.00,0.0131
3433.00,0.0132
3432.00,0.0132
3431.00,0.0133
3430.00,0.0133
3429.00,0.0134
3428.00,0.0134
3427.00,0.0134
3426.00,0.0135
3425.00,0.0135
3424.00,0.0136
3423.00,0.0137
3422.00,0.0137
3421.00,0.0137
3420.00,0.0138
3419.00,0.0138
3418.00,0.0139
3417.00,0.0140
3416.00,0.0140
3415.00,0.0141
3414.00,0.0141
3413.00,0.0142
3412.00,0.0142
3411.00,0.0143
3410.00,0.0143
3409.00,0.0144
3408.00,0.0144
3407.00,0.0145
3406.00,0.0145
3405.00,0.0146
3404.00,0.0146
3403.00,0.0147
3402.00,0.0148
3401.00,0.0148
3400.00,0.0149
3399.00,0.0149
3398.00,0.0150
3397.00,0.0150
3396.00,0.0151
3395.00,0.0151
3394.00,0.0152
3393.00,0.0152
3392.00,0.0153
3391.00,0.0154
3390.00,0.0154
3389.00,0.0155
3388.00,0.0155
3387.00,0.0155
3386.00,0.0156
3385.00,0.0156
3384.00,0.0157
3383.00,0.0158
3382.00,0.0159
3381.00,0.0159
3380.00,0.0160
3379.00,0.0161
3378.00,0.0161
3377.00,0.0162
3376.00,0.0163
3375.00,0.0164
3374.00,0.0164
3373.00,0.0165
3372.00,0.0166
3371.00,0.0167
3370.00,0.0168
3369.00,0.0168
3368.00,0.0169
3367.00,0.0170
3366.00,0.0171
3365.00,0.0172
3364.00,0.0173
3363.00,0.0174
3362.00,0.0175
3361.00,0.0176
3360.00,0.0176
3359.00,0.0177
3358.00,0.0178
3357.00,0.0179
3356.00,0.0179
3355.00,0.0180
3354.00,0.0181
3353.00,0.0182
3352.00,0.0183
3351.00,0.0184
3350.00,0.0185
3349.00,0.0186
3348.00,0.0187
3347.00,0.0188
3346.00,0.0189
3345.00,0.0190
3344.00,0.0191
3343.00,0.0192
3342.00,0.0193
3341.00,0.0194
3340.00,0.0195
3339.00,0.0197
3338.00,0.0198
3337.00,0.0199
3336.00,0.0200
3335.00,0.0201
3334.00,0.0202
3333.00,0.0203
3332.00,0.0204
3331.00,0.0205
3330.00,0.0206
3329.00,0.0207
3328.00,0.0208
3327.00,0.0210
3326.00,0.0211
3325.00,0.0212
3324.00,0.0213
3323.00,0.0215
3322.00,0.0216
3321.00,0.0217
3320.00,0.0218
3319.00,0.0220
3318.00,0.0221
3317.00,0.0222
3316.00,0.0224
3315.00,0.0225
3314.00,0.0226
3313.00,0.0227
3312.00,0.0229
3311.00,0.0230
3310.00,0.0231
3309.00,0.0232
3308.00,0.0233
3307.00,0.0234
3306.00,0.0235
3305.00,0.0236
3304.00,0.0238
3303.00,0.0239
3302.00,0.0241
3301.00,0.0242
3300.00,0.0243
3299.00,0.0244
3298.00,0.0245
3297.00,0.0246
3296.00,0.0247
3295.00,0.0248
3294.00,0.0249
3293.00,0.0250
3292.00,0.0251
3291.00,0.0252
3290.00,0.0252
3289.00,0.0253
3288.00,0.0254
3287.00,0.0254
3286.00,0.0255
3285.00,0.0255
3284.00,0.0256
3283.00,0.0256
3282.00,0.0256
3281.00,0.0256
3280.00,0.0256
3279.00,0.0256
3278.00,0.0256
3277.00,0.0256
3276.00,0.0256
3275.00,0.0256
3274.00,0.0255
3273.00,0.0254
3272.00,0.0254
3271.00,0.0253
3270.00,0.0252
3269.00,0.0252
3268.00,0.0251
3267.00,0.0250
3266.00,0.0249
3265.00,0.0247
3264.00,0.0246
3263.00,0.0244
3262.00,0.0243
3261.00,0.0241
3260.00,0.0240
3259.00,0.0239
3258.00,0.0237
3257.00,0.0236
3256.00,0.0234
3255.00,0.0233
3254.00,0.0231
3253.00,0.0230
3252.00,0.0229
3251.00,0.0227
3250.00,0.0226
3249.00,0.0225
3248.00,0.0223
3247.00,0.0222
3246.00,0.0221
3245.00,0.0219
3244.00,0.0218
3243.00,0.0217
3242.00,0.0216
3241.00,0.0214
3240.00,0.0213
3239.00,0.0212
3238.00,0.0211
3237.00,0.0210
3236.00,0.0209
3235.00,0.0207
3234.00,0.0206
3233.00,0.0205
3232.00,0.0205
3231.00,0.0204
3230.00,0.0203
3229.00,0.0202
3228.00,0.0201
3227.00,0.0200
3226.00,0.0199
3225.00,0.0199
3224.00,0.0198
3223.00,0.0197
3222.00,0.0197
3221.00,0.0196
3220.00,0.0195
3219.00,0.0194
3218.00,0.0194
3217.00,0.0193
3216.00,0.0192
3215.00,0.0192
3214.00,0.0191
3213.00,0.0190
3212.00,0.0190
3211.00,0.0189
3210.00,0.0189
3209.00,0.0188
3208.00,0.0187
3207.00,0.0186
3206.00,0.0186
3205.00,0.0185
3204.00,0.0184
3203.00,0.0183
3202.00,0.0183
3201.00,0.0182
3200.00,0.0182
3199.00,0.0181
3198.00,0.0180
3197.00,0.0180
3196.00,0.0179
3195.00,0.0178
3194.00,0.0177
3193.00,0.0176
3192.00,0.0176
3191.00,0.0175
3190.00,0.0174
3189.00,0.0173
3188.00,0.0172
3187.00,0.0172
3186.00,0.0171
3185.00,0.0170
3184.00,0.0169
3183.00,0.0168
3182.00,0.0168
3181.00,0.0167
3180.00,0.0166
3179.00,0.0165
3178.00,0.0164
3177.00,0.0163
3176.00,0.0162
3175.00,0.0161
3174.00,0.0160
3173.00,0.0159
3172.00,0.0158
3171.00,0.0158
3170.00,0.0157
3169.00,0.0156
3168.00,0.0155
3167.00,0.0154
3166.00,0.0153
3165.00,0.0152
3164.00,0.0151
3163.00,0.0151
3162.00,0.0150
3161.00,0.0149
3160.00,0.0148
3159.00,0.0148
3158.00,0.0147
3157.00,0.0146
3156.00,0.0145
3155.00,0.0145
3154.00,0.0144
3153.00,0.0143
3152.00,0.0143
3151.00,0.0142
3150.00,0.0141
3149.00,0.0141
3148.00,0.0140
3147.00,0.0139
3146.00,0.0139
3145.00,0.0138
3144.00,0.0137
3143.00,0.0137
3142.00,0.0136
3141.00,0.0135
3140.00,0.0135
3139.00,0.0134
3138.00,0.0134
3137.00,0.0133
3136.00,0.0133
3135.00,0.0132
3134.00,0.0132
3133.00,0.0132
3132.00,0.0131
3131.00,0.0131
3130.00,0.0130
3129.00,0.0130
3128.00,0.0130
3127.00,0.0129
3126.00,0.0129
3125.00,0.0128
3124.00,0.0128
3123.00,0.0128
3122.00,0.0128
3121.00,0.0127
3120.00,0.0127
3119.00,0.0127
3118.00,0.0127
3117.00,0.0127
3116.00,0.0127
3115.00,0.0127
3114.00,0.0127
3113.00,0.0126
3112.00,0.0126
3111.00,0.0126
3110.00,0.0126
3109.00,0.0126
3108.00,0.0126
3107.00,0.0126
3106.00,0.0126
3105.00,0.0126
3104.00,0.0126
3103.00,0.0127
3102.00,0.0127
3101.00,0.0127
3100.00,0.0127
3099.00,0.0127
3098.00,0.0127
3097.00,0.0128
3096.00,0.0128
3095.00,0.0128
3094.00,0.0128
3093.00,0.0128
3092.00,0.0128
3091.00,0.0128
3090.00,0.0129
3089.00,0.0129
3088.00,0.0129
3087.00,0.0129
3086.00,0.0129
3085.00,0.0129
3084.00,0.0129
3083.00,0.0129
3082.00,0.0129
3081.00,0.0129
3080.00,0.0129
3079.00,0.0130
3078.00,0.0130
3077.00,0.0130
3076.00,0.0131
3075.00,0.0131
3074.00,0.0131
3073.00,0.0131
3072.00,0.0131
3071.00,0.0131
3070.00,0.0131
3069.00,0.0130
3068.00,0.0130
3067.00,0.0130
3066.00,0.0130
3065.00,0.0130
3064.00,0.0130
3063.00,0.0130
3062.00,0.0130
3061.00,0.0130
3060.00,0.0129
3059.00,0.0129
3058.00,0.0128
3057.00,0.0128
3056.00,0.0128
3055.00,0.0127
3054.00,0.0127
3053.00,0.0126
3052.00,0.0126
3051.00,0.0125
3050.00,0.0125
3049.00,0.0125
3048.00,0.0124
3047.00,0.0124
3046.00,0.0123
3045.00,0.0122
3044.00,0.0122
3043.00,0.0121
3042.00,0.0121
3041.00,0.0120
3040.00,0.0120
3039.00,0.0120
3038.00,0.0119
3037.00,0.0119
3036.00,0.0118
3035.00,0.0118
3034.00,0.0117
3033.00,0.0117
3032.00,0.0116
3031.00,0.0116
3030.00,0.0116
3029.00,0.0115
3028.00,0.0114
3027.00,0.0114
3026.00,0.0113
3025.00,0.0113
3024.00,0.0112
3023.00,0.0112
3022.00,0.0111
3021.00,0.0111
3020.00,0.0110
3019.00,0.0110
3018.00,0.0109
3017.00,0.0109
3016.00,0.0108
3015.00,0.0108
3014.00,0.0107
3013.00,0.0107
3012.00,0.0107
3011.00,0.0107
3010.00,0.0107
3009.00,0.0107
3008.00,0.0107
3007.00,0.0107
3006.00,0.0107
3005.00,0.0107
3004.00,0.0107
3003.00,0.0107
3002.00,0.0108
3001.00,0.0108
3000.00,0.0108
2999.00,0.0108
2998.00,0.0108
2997.00,0.0108
2996.00,0.0109
2995.00,0.0109
2994.00,0.0110
2993.00,0.0110
2992.00,0.0111
2991.00,0.0111
2990.00,0.0112
2989.00,0.0113
2988.00,0.0114
2987.00,0.0114
2986.00,0.0115
2985.00,0.0116
2984.00,0.0117
2983.00,0.0118
2982.00,0.0120
2981.00,0.0120
2980.00,0.0121
2979.00,0.0121
2978.00,0.0122
2977.00,0.0122
2976.00,0.0122
2975.00,0.0123
2974.00,0.0123
2973.00,0.0124
2972.00,0.0125
2971.00,0.0125
2970.00,0.0125
2969.00,0.0125
2968.00,0.0125
2967.00,0.0125
2966.00,0.0125
2965.00,0.0125
2964.00,0.0125
2963.00,0.0125
2962.00,0.0125
2961.00,0.0124
2960.00,0.0124
2959.00,0.0123
2958.00,0.0122
2957.00,0.0122
2956.00,0.0121
2955.00,0.0120
2954.00,0.0119
2953.00,0.0118
2952.00,0.0117
2951.00,0.0117
2950.00,0.0116
2949.00,0.0115
2948.00,0.0115
2947.00,0.0114
2946.00,0.0114
2945.00,0.0114
2944.00,0.0115
2943.00,0.0115
2942.00,0.0115
2941.00,0.0115
2940.00,0.0116
2939.00,0.0116
2938.00,0.0116
2937.00,0.0117
2936.00,0.0117
2935.00,0.0117
2934.00,0.0117
2933.00,0.0117
2932.00,0.0117
2931.00,0.0117
2930.00,0.0117
2929.00,0.0116
2928.00,0.0116
2927.00,0.0115
2926.00,0.0115
2925.00,0.0114
2924.00,0.0114
2923.00,0.0113
2922.00,0.0113
2921.00,0.0113
2920.00,0.0112
2919.00,0.0111
2918.00,0.0111
2917.00,0.0110
2916.00,0.0109
2915.00,0.0108
2914.00,0.0107
2913.00,0.0107
2912.00,0.0106
2911.00,0.0106
2910.00,0.0106
2909.00,0.0105
2908.00,0.0105
2907.00,0.0104
2906.00,0.0104
2905.00,0.0104
2904.00,0.0103
2903.00,0.0103
2902.00,0.0103
2901.00,0.0102
2900.00,0.0102
2899.00,0.0102
2898.00,0.0102
2897.00,0.0102
2896.00,0.0102
2895.00,0.0102
2894.00,0.0102
2893.00,0.0102
2892.00,0.0102
2891.00,0.0102
2890.00,0.0102
2889.00,0.0102
2888.00,0.0103
2887.00,0.0103
2886.00,0.0103
2885.00,0.0104
2884.00,0.0104
2883.00,0.0105
2882.00,0.0105
2881.00,0.0106
2880.00,0.0106
2879.00,0.0106
2878.00,0.0107
2877.00,0.0107
2876.00,0.0107
2875.00,0.0106
2874.00,0.0106
2873.00,0.0105
2872.00,0.0105
2871.00,0.0104
2870.00,0.0103
2869.00,0.0102
2868.00,0.0101
2867.00,0.0100
2866.00,0.0099
2865.00,0.0098
2864.00,0.0097
2863.00,0.0097
2862.00,0.0096
2861.00,0.0096
2860.00,0.0095
2859.00,0.0094
2858.00,0.0093
2857.00,0.0093
2856.00,0.0092
2855.00,0.0091
2854.00,0.0090
2853.00,0.0090
2852.00,0.0090
2851.00,0.0089
2850.00,0.0089
2849.00,0.0089
2848.00,0.0089
2847.00,0.0089
2846.00,0.0089
2845.00,0.0089
2844.00,0.0089
2843.00,0.0089
2842.00,0.0089
2841.00,0.0089
2840.00,0.0089
2839.00,0.0089
2838.00,0.0089
2837.00,0.0089
2836.00,0.0089
2835.00,0.0089
2834.00,0.0089
2833.00,0.0088
2832.00,0.0088
2831.00,0.0088
2830.00,0.0088
2829.00,0.0088
2828.00,0.0088
2827.00,0.0088
2826.00,0.0088
2825.00,0.0088
2824.00,0.0088
2823.00,0.0088
2822.00,0.0088
2821.00,0.0088
2820.00,0.0088
2819.00,0.0088
2818.00,0.0088
2817.00,0.0088
2816.00,0.0088
2815.00,0.0088
2814.00,0.0088
2813.00,0.0088
2812.00,0.0088
2811.00,0.0088
2810.00,0.0087
2809.00,0.0087
2808.00,0.0087
2807.00,0.0087
2806.00,0.0087
2805.00,0.0087
2804.00,0.0086
2803.00,0.0086
2802.00,0.0086
2801.00,0.0086
2800.00,0.0086
2799.00,0.0086
2798.00,0.0086
2797.00,0.0085
2796.00,0.0085
2795.00,0.0085
2794.00,0.0085
2793.00,0.0085
2792.00,0.0085
2791.00,0.0085
2790.00,0.0085
2789.00,0.0084
2788.00,0.0084
2787.00,0.0084
2786.00,0.0084
2785.00,0.0084
2784.00,0.0084
2783.00,0.0084
2782.00,0.0083
2781.00,0.0083
2780.00,0.0083
2779.00,0.0083
2778.00,0.0083
2777.00,0.0083
2776.00,0.0083
2775.00,0.0083
2774.00,0.0083
2773.00,0.0082
2772.00,0.0082
2771.00,0.0082
2770.00,0.0082
2769.00,0.0082
2768.00,0.0082
2767.00,0.0081
2766.00,0.0081
2765.00,0.0081
2764.00,0.0081
2763.00,0.0081
2762.00,0.0081
2761.00,0.0081
2760.00,0.0081
2759.00,0.0080
2758.00,0.0080
2757.00,0.0080
