Created as New Dataset,Sample 247 By YargerLab Date Thursday, July 11 2024
cm-1,A
4000.00,0.0163
3999.00,0.0163
3998.00,0.0163
3997.00,0.0163
3996.00,0.0163
3995.00,0.0163
3994.00,0.0163
3993.00,0.0163
3992.00,0.0163
3991.00,0.0163
3990.00,0.0163
3989.00,0.0163
3988.00,0.0163
3987.00,0.0163
3986.00,0.0163
3985.00,0.0163
3984.00,0.0162
3983.00,0.0162
3982.00,0.0162
3981.00,0.0162
3980.00,0.0162
3979.00,0.0162
3978.00,0.0162
3977.00,0.0162
3976.00,0.0162
3975.00,0.0162
3974.00,0.0162
3973.00,0.0162
3972.00,0.0162
3971.00,0.0162
3970.00,0.0162
3969.00,0.0162
3968.00,0.0162
3967.00,0.0162
3966.00,0.0162
3965.00,0.0162
3964.00,0.0162
3963.00,0.0162
3962.00,0.0162
3961.00,0.0162
3960.00,0.0162
3959.00,0.0162
3958.00,0.0162
3957.00,0.0161
3956.00,0.0161
3955.00,0.0161
3954.00,0.0161
3953.00,0.0161
3952.00,0.0161
3951.00,0.0161
3950.00,0.0161
3949.00,0.0161
3948.00,0.0162
3947.00,0.0162
3946.00,0.0162
3945.00,0.0162
3944.00,0.0161
3943.00,0.0161
3942.00,0.0161
3941.00,0.0161
3940.00,0.0161
3939.00,0.0161
3938.00,0.0161
3937.00,0.0161
3936.00,0.0161
3935.00,0.0161
3934.00,0.0161
3933.00,0.0161
3932.00,0.0161
3931.00,0.0161
3930.00,0.0161
3929.00,0.0161
3928.00,0.0161
3927.00,0.0161
3926.00,0.0161
3925.00,0.0160
3924.00,0.0160
3923.00,0.0160
3922.00,0.0160
3921.00,0.0161
3920.00,0.0161
3919.00,0.0161
3918.00,0.0161
3917.00,0.0161
3916.00,0.0161
3915.00,0.0161
3914.00,0.0160
3913.00,0.0160
3912.00,0.0160
3911.00,0.0159
3910.00,0.0159
3909.00,0.0159
3908.00,0.0159
3907.00,0.0159
3906.00,0.0159
3905.00,0.0159
3904.00,0.0160
3903.00,0.0161
3902.00,0.0162
3901.00,0.0162
3900.00,0.0162
3899.00,0.0161
3898.00,0.0161
3897.00,0.0160
3896.00,0.0160
3895.00,0.0160
3894.00,0.0159
3893.00,0.0159
3892.00,0.0159
3891.00,0.0159
3890.00,0.0159
3889.00,0.0160
3888.00,0.0160
3887.00,0.0160
3886.00,0.0160
3885.00,0.0160
3884.00,0.0159
3883.00,0.0159
3882.00,0.0159
3881.00,0.0159
3880.00,0.0159
3879.00,0.0159
3878.00,0.0159
3877.00,0.0159
3876.00,0.0159
3875.00,0.0159
3874.00,0.0158
3873.00,0.0158
3872.00,0.0158
3871.00,0.0159
3870.00,0.0159
3869.00,0.0160
3868.00,0.0159
3867.00,0.0159
3866.00,0.0159
3865.00,0.0159
3864.00,0.0158
3863.00,0.0158
3862.00,0.0158
3861.00,0.0159
3860.00,0.0159
3859.00,0.0158
3858.00,0.0158
3857.00,0.0157
3856.00,0.0156
3855.00,0.0157
3854.00,0.0157
3853.00,0.0158
3852.00,0.0158
3851.00,0.0158
3850.00,0.0158
3849.00,0.0158
3848.00,0.0158
3847.00,0.0158
3846.00,0.0158
3845.00,0.0157
3844.00,0.0157
3843.00,0.0157
3842.00,0.0157
3841.00,0.0157
3840.00,0.0157
3839.00,0.0157
3838.00,0.0157
3837.00,0.0157
3836.00,0.0157
3835.00,0.0157
3834.00,0.0157
3833.00,0.0157
3832.00,0.0157
3831.00,0.0157
3830.00,0.0157
3829.00,0.0156
3828.00,0.0156
3827.00,0.0156
3826.00,0.0155
3825.00,0.0155
3824.00,0.0155
3823.00,0.0156
3822.00,0.0156
3821.00,0.0156
3820.00,0.0156
3819.00,0.0156
3818.00,0.0156
3817.00,0.0156
3816.00,0.0156
3815.00,0.0155
3814.00,0.0155
3813.00,0.0155
3812.00,0.0155
3811.00,0.0155
3810.00,0.0154
3809.00,0.0154
3808.00,0.0154
3807.00,0.0154
3806.00,0.0154
3805.00,0.0154
3804.00,0.0154
3803.00,0.0154
3802.00,0.0154
3801.00,0.0154
3800.00,0.0154
3799.00,0.0154
3798.00,0.0154
3797.00,0.0154
3796.00,0.0154
3795.00,0.0154
3794.00,0.0153
3793.00,0.0153
3792.00,0.0153
3791.00,0.0152
3790.00,0.0152
3789.00,0.0152
3788.00,0.0152
3787.00,0.0152
3786.00,0.0152
3785.00,0.0152
3784.00,0.0152
3783.00,0.0152
3782.00,0.0152
3781.00,0.0152
3780.00,0.0152
3779.00,0.0152
3778.00,0.0152
3777.00,0.0152
3776.00,0.0152
3775.00,0.0152
3774.00,0.0151
3773.00,0.0151
3772.00,0.0151
3771.00,0.0152
3770.00,0.0152
3769.00,0.0152
3768.00,0.0152
3767.00,0.0152
3766.00,0.0152
3765.00,0.0151
3764.00,0.0151
3763.00,0.0151
3762.00,0.0151
3761.00,0.0151
3760.00,0.0151
3759.00,0.0151
3758.00,0.0151
3757.00,0.0151
3756.00,0.0151
3755.00,0.0151
3754.00,0.0151
3753.00,0.0151
3752.00,0.0152
3751.00,0.0152
3750.00,0.0153
3749.00,0.0153
3748.00,0.0153
3747.00,0.0153
3746.00,0.0153
3745.00,0.0153
3744.00,0.0153
3743.00,0.0152
3742.00,0.0151
3741.00,0.0152
3740.00,0.0152
3739.00,0.0152
3738.00,0.0152
3737.00,0.0152
3736.00,0.0151
3735.00,0.0151
3734.00,0.0151
3733.00,0.0151
3732.00,0.0151
3731.00,0.0151
3730.00,0.0150
3729.00,0.0150
3728.00,0.0150
3727.00,0.0149
3726.00,0.0149
3725.00,0.0149
3724.00,0.0148
3723.00,0.0148
3722.00,0.0148
3721.00,0.0148
3720.00,0.0147
3719.00,0.0147
3718.00,0.0147
3717.00,0.0147
3716.00,0.0146
3715.00,0.0147
3714.00,0.0147
3713.00,0.0147
3712.00,0.0147
3711.00,0.0147
3710.00,0.0146
3709.00,0.0146
3708.00,0.0146
3707.00,0.0146
3706.00,0.0146
3705.00,0.0145
3704.00,0.0145
3703.00,0.0145
3702.00,0.0144
3701.00,0.0144
3700.00,0.0144
3699.00,0.0144
3698.00,0.0144
3697.00,0.0143
3696.00,0.0143
3695.00,0.0143
3694.00,0.0143
3693.00,0.0143
3692.00,0.0143
3691.00,0.0142
3690.00,0.0142
3689.00,0.0142
3688.00,0.0142
3687.00,0.0142
3686.00,0.0141
3685.00,0.0141
3684.00,0.0140
3683.00,0.0140
3682.00,0.0139
3681.00,0.0139
3680.00,0.0138
3679.00,0.0138
3678.00,0.0138
3677.00,0.0138
3676.00,0.0138
3675.00,0.0137
3674.00,0.0136
3673.00,0.0136
3672.00,0.0136
3671.00,0.0136
3670.00,0.0135
3669.00,0.0133
3668.00,0.0132
3667.00,0.0131
3666.00,0.0131
3665.00,0.0130
3664.00,0.0129
3663.00,0.0128
3662.00,0.0127
3661.00,0.0127
3660.00,0.0126
3659.00,0.0126
3658.00,0.0125
3657.00,0.0125
3656.00,0.0125
3655.00,0.0124
3654.00,0.0124
3653.00,0.0125
3652.00,0.0125
3651.00,0.0125
3650.00,0.0124
3649.00,0.0124
3648.00,0.0123
3647.00,0.0122
3646.00,0.0121
3645.00,0.0120
3644.00,0.0120
3643.00,0.0119
3642.00,0.0118
3641.00,0.0117
3640.00,0.0117
3639.00,0.0116
3638.00,0.0116
3637.00,0.0116
3636.00,0.0116
3635.00,0.0116
3634.00,0.0116
3633.00,0.0116
3632.00,0.0116
3631.00,0.0116
3630.00,0.0116
3629.00,0.0116
3628.00,0.0116
3627.00,0.0115
3626.00,0.0115
3625.00,0.0114
3624.00,0.0114
3623.00,0.0114
3622.00,0.0113
3621.00,0.0113
3620.00,0.0113
3619.00,0.0112
3618.00,0.0112
3617.00,0.0112
3616.00,0.0112
3615.00,0.0111
3614.00,0.0111
3613.00,0.0111
3612.00,0.0110
3611.00,0.0110
3610.00,0.0110
3609.00,0.0109
3608.00,0.0109
3607.00,0.0108
3606.00,0.0107
3605.00,0.0107
3604.00,0.0106
3603.00,0.0105
3602.00,0.0105
3601.00,0.0105
3600.00,0.0104
3599.00,0.0104
3598.00,0.0104
3597.00,0.0104
3596.00,0.0103
3595.00,0.0103
3594.00,0.0102
3593.00,0.0102
3592.00,0.0102
3591.00,0.0101
3590.00,0.0101
3589.00,0.0101
3588.00,0.0100
3587.00,0.0100
3586.00,0.0099
3585.00,0.0099
3584.00,0.0098
3583.00,0.0097
3582.00,0.0097
3581.00,0.0096
3580.00,0.0095
3579.00,0.0095
3578.00,0.0094
3577.00,0.0094
3576.00,0.0093
3575.00,0.0093
3574.00,0.0092
3573.00,0.0092
3572.00,0.0092
3571.00,0.0092
3570.00,0.0092
3569.00,0.0092
3568.00,0.0092
3567.00,0.0092
3566.00,0.0092
3565.00,0.0091
3564.00,0.0091
3563.00,0.0090
3562.00,0.0089
3561.00,0.0089
3560.00,0.0088
3559.00,0.0087
3558.00,0.0087
3557.00,0.0087
3556.00,0.0086
3555.00,0.0086
3554.00,0.0086
3553.00,0.0086
3552.00,0.0086
3551.00,0.0086
3550.00,0.0085
3549.00,0.0085
3548.00,0.0086
3547.00,0.0086
3546.00,0.0085
3545.00,0.0085
3544.00,0.0085
3543.00,0.0084
3542.00,0.0084
3541.00,0.0083
3540.00,0.0082
3539.00,0.0082
3538.00,0.0082
3537.00,0.0081
3536.00,0.0081
3535.00,0.0081
3534.00,0.0080
3533.00,0.0080
3532.00,0.0080
3531.00,0.0080
3530.00,0.0080
3529.00,0.0079
3528.00,0.0079
3527.00,0.0080
3526.00,0.0080
3525.00,0.0080
3524.00,0.0079
3523.00,0.0079
3522.00,0.0078
3521.00,0.0078
3520.00,0.0077
3519.00,0.0077
3518.00,0.0076
3517.00,0.0076
3516.00,0.0075
3515.00,0.0075
3514.00,0.0075
3513.00,0.0075
3512.00,0.0074
3511.00,0.0074
3510.00,0.0074
3509.00,0.0073
3508.00,0.0073
3507.00,0.0073
3506.00,0.0073
3505.00,0.0073
3504.00,0.0073
3503.00,0.0073
3502.00,0.0072
3501.00,0.0072
3500.00,0.0072
3499.00,0.0071
3498.00,0.0071
3497.00,0.0071
3496.00,0.0070
3495.00,0.0070
3494.00,0.0070
3493.00,0.0069
3492.00,0.0069
3491.00,0.0069
3490.00,0.0069
3489.00,0.0069
3488.00,0.0069
3487.00,0.0068
3486.00,0.0068
3485.00,0.0068
3484.00,0.0068
3483.00,0.0068
3482.00,0.0068
3481.00,0.0068
3480.00,0.0068
3479.00,0.0067
3478.00,0.0067
3477.00,0.0067
3476.00,0.0067
3475.00,0.0067
3474.00,0.0067
3473.00,0.0067
3472.00,0.0067
3471.00,0.0067
3470.00,0.0067
3469.00,0.0067
3468.00,0.0067
3467.00,0.0067
3466.00,0.0067
3465.00,0.0067
3464.00,0.0067
3463.00,0.0067
3462.00,0.0067
3461.00,0.0067
3460.00,0.0067
3459.00,0.0067
3458.00,0.0067
3457.00,0.0067
3456.00,0.0067
3455.00,0.0067
3454.00,0.0067
3453.00,0.0067
3452.00,0.0067
3451.00,0.0067
3450.00,0.0067
3449.00,0.0068
3448.00,0.0068
3447.00,0.0069
3446.00,0.0069
3445.00,0.0069
3444.00,0.0069
3443.00,0.0070
3442.00,0.0070
3441.00,0.0070
3440.00,0.0070
3439.00,0.0071
3438.00,0.0071
3437.00,0.0072
3436.00,0.0072
3435.00,0.0072
3434.00,0.0073
3433.00,0.0073
3432.00,0.0073
3431.00,0.0074
3430.00,0.0074
3429.00,0.0075
3428.00,0.0075
3427.00,0.0075
3426.00,0.0076
3425.00,0.0076
3424.00,0.0077
3423.00,0.0077
3422.00,0.0078
3421.00,0.0078
3420.00,0.0079
3419.00,0.0080
3418.00,0.0080
3417.00,0.0081
3416.00,0.0082
3415.00,0.0082
3414.00,0.0083
3413.00,0.0084
3412.00,0.0084
3411.00,0.0085
3410.00,0.0086
3409.00,0.0087
3408.00,0.0087
3407.00,0.0088
3406.00,0.0088
3405.00,0.0089
3404.00,0.0090
3403.00,0.0090
3402.00,0.0091
3401.00,0.0092
3400.00,0.0093
3399.00,0.0094
3398.00,0.0095
3397.00,0.0096
3396.00,0.0096
3395.00,0.0097
3394.00,0.0097
3393.00,0.0098
3392.00,0.0099
3391.00,0.0100
3390.00,0.0101
3389.00,0.0102
3388.00,0.0103
3387.00,0.0104
3386.00,0.0105
3385.00,0.0105
3384.00,0.0106
3383.00,0.0107
3382.00,0.0108
3381.00,0.0109
3380.00,0.0110
3379.00,0.0111
3378.00,0.0112
3377.00,0.0113
3376.00,0.0114
3375.00,0.0115
3374.00,0.0116
3373.00,0.0117
3372.00,0.0118
3371.00,0.0119
3370.00,0.0120
3369.00,0.0122
3368.00,0.0123
3367.00,0.0125
3366.00,0.0126
3365.00,0.0127
3364.00,0.0129
3363.00,0.0130
3362.00,0.0132
3361.00,0.0133
3360.00,0.0135
3359.00,0.0136
3358.00,0.0138
3357.00,0.0140
3356.00,0.0141
3355.00,0.0143
3354.00,0.0144
3353.00,0.0146
3352.00,0.0148
3351.00,0.0150
3350.00,0.0152
3349.00,0.0154
3348.00,0.0156
3347.00,0.0158
3346.00,0.0160
3345.00,0.0162
3344.00,0.0164
3343.00,0.0166
3342.00,0.0168
3341.00,0.0171
3340.00,0.0173
3339.00,0.0176
3338.00,0.0178
3337.00,0.0181
3336.00,0.0184
3335.00,0.0187
3334.00,0.0189
3333.00,0.0192
3332.00,0.0195
3331.00,0.0198
3330.00,0.0201
3329.00,0.0203
3328.00,0.0206
3327.00,0.0209
3326.00,0.0212
3325.00,0.0216
3324.00,0.0219
3323.00,0.0223
3322.00,0.0226
3321.00,0.0230
3320.00,0.0233
3319.00,0.0237
3318.00,0.0240
3317.00,0.0244
3316.00,0.0247
3315.00,0.0251
3314.00,0.0255
3313.00,0.0259
3312.00,0.0262
3311.00,0.0265
3310.00,0.0269
3309.00,0.0273
3308.00,0.0277
3307.00,0.0280
3306.00,0.0285
3305.00,0.0289
3304.00,0.0293
3303.00,0.0297
3302.00,0.0301
3301.00,0.0305
3300.00,0.0309
3299.00,0.0312
3298.00,0.0315
3297.00,0.0319
3296.00,0.0322
3295.00,0.0325
3294.00,0.0328
3293.00,0.0331
3292.00,0.0334
3291.00,0.0337
3290.00,0.0339
3289.00,0.0342
3288.00,0.0344
3287.00,0.0346
3286.00,0.0347
3285.00,0.0348
3284.00,0.0349
3283.00,0.0350
3282.00,0.0350
3281.00,0.0350
3280.00,0.0349
3279.00,0.0349
3278.00,0.0348
3277.00,0.0347
3276.00,0.0346
3275.00,0.0344
3274.00,0.0343
3273.00,0.0341
3272.00,0.0339
3271.00,0.0337
3270.00,0.0335
3269.00,0.0333
3268.00,0.0331
3267.00,0.0329
3266.00,0.0327
3265.00,0.0325
3264.00,0.0322
3263.00,0.0320
3262.00,0.0317
3261.00,0.0315
3260.00,0.0312
3259.00,0.0309
3258.00,0.0307
3257.00,0.0304
3256.00,0.0302
3255.00,0.0300
3254.00,0.0298
3253.00,0.0297
3252.00,0.0294
3251.00,0.0292
3250.00,0.0290
3249.00,0.0287
3248.00,0.0285
3247.00,0.0283
3246.00,0.0282
3245.00,0.0281
3244.00,0.0279
3243.00,0.0278
3242.00,0.0277
3241.00,0.0275
3240.00,0.0274
3239.00,0.0272
3238.00,0.0270
3237.00,0.0268
3236.00,0.0266
3235.00,0.0265
3234.00,0.0263
3233.00,0.0262
3232.00,0.0262
3231.00,0.0261
3230.00,0.0260
3229.00,0.0259
3228.00,0.0258
3227.00,0.0257
3226.00,0.0256
3225.00,0.0255
3224.00,0.0254
3223.00,0.0252
3222.00,0.0251
3221.00,0.0250
3220.00,0.0249
3219.00,0.0248
3218.00,0.0247
3217.00,0.0247
3216.00,0.0246
3215.00,0.0245
3214.00,0.0244
3213.00,0.0243
3212.00,0.0242
3211.00,0.0241
3210.00,0.0240
3209.00,0.0240
3208.00,0.0239
3207.00,0.0238
3206.00,0.0237
3205.00,0.0236
3204.00,0.0235
3203.00,0.0234
3202.00,0.0233
3201.00,0.0232
3200.00,0.0232
3199.00,0.0231
3198.00,0.0230
3197.00,0.0229
3196.00,0.0228
3195.00,0.0228
3194.00,0.0227
3193.00,0.0226
3192.00,0.0225
3191.00,0.0224
3190.00,0.0223
3189.00,0.0222
3188.00,0.0222
3187.00,0.0221
3186.00,0.0220
3185.00,0.0219
3184.00,0.0219
3183.00,0.0218
3182.00,0.0217
3181.00,0.0216
3180.00,0.0215
3179.00,0.0214
3178.00,0.0213
3177.00,0.0212
3176.00,0.0212
3175.00,0.0211
3174.00,0.0210
3173.00,0.0209
3172.00,0.0208
3171.00,0.0208
3170.00,0.0207
3169.00,0.0206
3168.00,0.0206
3167.00,0.0205
3166.00,0.0204
3165.00,0.0203
3164.00,0.0203
3163.00,0.0202
3162.00,0.0201
3161.00,0.0201
3160.00,0.0200
3159.00,0.0199
3158.00,0.0199
3157.00,0.0198
3156.00,0.0197
3155.00,0.0197
3154.00,0.0196
3153.00,0.0196
3152.00,0.0195
3151.00,0.0195
3150.00,0.0194
3149.00,0.0194
3148.00,0.0193
3147.00,0.0193
3146.00,0.0192
3145.00,0.0192
3144.00,0.0191
3143.00,0.0191
3142.00,0.0190
3141.00,0.0190
3140.00,0.0189
3139.00,0.0189
3138.00,0.0189
3137.00,0.0189
3136.00,0.0189
3135.00,0.0188
3134.00,0.0188
3133.00,0.0188
3132.00,0.0188
3131.00,0.0187
3130.00,0.0187
3129.00,0.0187
3128.00,0.0187
3127.00,0.0187
3126.00,0.0187
3125.00,0.0187
3124.00,0.0187
3123.00,0.0186
3122.00,0.0186
3121.00,0.0186
3120.00,0.0186
3119.00,0.0186
3118.00,0.0186
3117.00,0.0186
3116.00,0.0187
3115.00,0.0187
3114.00,0.0187
3113.00,0.0188
3112.00,0.0188
3111.00,0.0188
3110.00,0.0188
3109.00,0.0188
3108.00,0.0189
3107.00,0.0189
3106.00,0.0189
3105.00,0.0190
3104.00,0.0190
3103.00,0.0190
3102.00,0.0190
3101.00,0.0190
3100.00,0.0191
3099.00,0.0192
3098.00,0.0192
3097.00,0.0193
3096.00,0.0193
3095.00,0.0193
3094.00,0.0193
3093.00,0.0193
3092.00,0.0193
3091.00,0.0193
3090.00,0.0193
3089.00,0.0193
3088.00,0.0193
3087.00,0.0193
3086.00,0.0193
3085.00,0.0193
3084.00,0.0192
3083.00,0.0192
3082.00,0.0192
3081.00,0.0192
3080.00,0.0192
3079.00,0.0192
3078.00,0.0192
3077.00,0.0193
3076.00,0.0193
3075.00,0.0194
3074.00,0.0194
3073.00,0.0194
3072.00,0.0194
3071.00,0.0194
3070.00,0.0194
3069.00,0.0193
3068.00,0.0193
3067.00,0.0193
3066.00,0.0194
3065.00,0.0194
3064.00,0.0194
3063.00,0.0195
3062.00,0.0195
3061.00,0.0194
3060.00,0.0194
3059.00,0.0193
3058.00,0.0192
3057.00,0.0191
3056.00,0.0191
3055.00,0.0190
3054.00,0.0189
3053.00,0.0188
3052.00,0.0186
3051.00,0.0185
3050.00,0.0184
3049.00,0.0182
3048.00,0.0181
3047.00,0.0179
3046.00,0.0177
3045.00,0.0175
3044.00,0.0173
3043.00,0.0171
3042.00,0.0170
3041.00,0.0169
3040.00,0.0168
3039.00,0.0167
3038.00,0.0165
3037.00,0.0164
3036.00,0.0162
3035.00,0.0160
3034.00,0.0159
3033.00,0.0158
3032.00,0.0157
3031.00,0.0156
3030.00,0.0156
3029.00,0.0155
3028.00,0.0154
3027.00,0.0153
3026.00,0.0151
3025.00,0.0150
3024.00,0.0149
3023.00,0.0148
3022.00,0.0147
3021.00,0.0146
3020.00,0.0144
3019.00,0.0143
3018.00,0.0141
3017.00,0.0140
3016.00,0.0138
3015.00,0.0137
3014.00,0.0135
3013.00,0.0134
3012.00,0.0133
3011.00,0.0133
3010.00,0.0132
3009.00,0.0131
3008.00,0.0130
3007.00,0.0129
3006.00,0.0128
3005.00,0.0127
3004.00,0.0125
3003.00,0.0124
3002.00,0.0123
3001.00,0.0122
3000.00,0.0120
2999.00,0.0119
2998.00,0.0117
2997.00,0.0116
2996.00,0.0114
2995.00,0.0113
2994.00,0.0111
2993.00,0.0109
2992.00,0.0108
2991.00,0.0106
2990.00,0.0105
2989.00,0.0103
2988.00,0.0102
2987.00,0.0100
2986.00,0.0098
2985.00,0.0095
2984.00,0.0092
2983.00,0.0088
2982.00,0.0085
2981.00,0.0082
2980.00,0.0079
2979.00,0.0077
2978.00,0.0073
2977.00,0.0070
2976.00,0.0065
2975.00,0.0061
2974.00,0.0055
2973.00,0.0049
2972.00,0.0043
2971.00,0.0036
2970.00,0.0029
2969.00,0.0022
2968.00,0.0014
2967.00,0.0006
2966.00,-0.0002
2965.00,-0.0011
2964.00,-0.0020
2963.00,-0.0028
2962.00,-0.0037
2961.00,-0.0044
2960.00,-0.0052
2959.00,-0.0058
2958.00,-0.0064
2957.00,-0.0069
2956.00,-0.0073
2955.00,-0.0076
2954.00,-0.0078
2953.00,-0.0079
2952.00,-0.0079
2951.00,-0.0079
2950.00,-0.0079
2949.00,-0.0080
2948.00,-0.0082
2947.00,-0.0085
2946.00,-0.0088
2945.00,-0.0092
2944.00,-0.0098
2943.00,-0.0104
2942.00,-0.0111
2941.00,-0.0119
2940.00,-0.0128
2939.00,-0.0138
2938.00,-0.0148
2937.00,-0.0160
2936.00,-0.0172
2935.00,-0.0184
2934.00,-0.0197
2933.00,-0.0211
2932.00,-0.0225
2931.00,-0.0239
2930.00,-0.0253
2929.00,-0.0268
2928.00,-0.0283
2927.00,-0.0298
2926.00,-0.0315
2925.00,-0.0332
2924.00,-0.0350
2923.00,-0.0368
2922.00,-0.0387
2921.00,-0.0407
2920.00,-0.0424
2919.00,-0.0437
2918.00,-0.0443
2917.00,-0.0437
2916.00,-0.0417
2915.00,-0.0387
2914.00,-0.0349
2913.00,-0.0309
2912.00,-0.0273
2911.00,-0.0242
2910.00,-0.0217
2909.00,-0.0196
2908.00,-0.0179
2907.00,-0.0165
2906.00,-0.0153
2905.00,-0.0142
2904.00,-0.0132
2903.00,-0.0123
2902.00,-0.0114
2901.00,-0.0106
2900.00,-0.0099
2899.00,-0.0092
2898.00,-0.0085
2897.00,-0.0078
2896.00,-0.0071
2895.00,-0.0065
2894.00,-0.0059
2893.00,-0.0053
2892.00,-0.0047
2891.00,-0.0042
2890.00,-0.0036
2889.00,-0.0031
2888.00,-0.0026
2887.00,-0.0022
2886.00,-0.0017
2885.00,-0.0013
2884.00,-0.0009
2883.00,-0.0006
2882.00,-0.0003
2881.00,0.0000
2880.00,0.0002
2879.00,0.0003
2878.00,0.0004
2877.00,0.0003
2876.00,0.0002
2875.00,0.0000
2874.00,-0.0002
2873.00,-0.0003
2872.00,-0.0005
2871.00,-0.0007
2870.00,-0.0008
2869.00,-0.0009
2868.00,-0.0011
2867.00,-0.0013
2866.00,-0.0016
2865.00,-0.0021
2864.00,-0.0026
2863.00,-0.0033
2862.00,-0.0041
2861.00,-0.0049
2860.00,-0.0059
2859.00,-0.0069
2858.00,-0.0080
2857.00,-0.0093
2856.00,-0.0106
2855.00,-0.0123
2854.00,-0.0143
2853.00,-0.0167
2852.00,-0.0193
2851.00,-0.0217
2850.00,-0.0231
2849.00,-0.0229
2848.00,-0.0209
2847.00,-0.0176
2846.00,-0.0138
2845.00,-0.0102
2844.00,-0.0071
2843.00,-0.0046
2842.00,-0.0026
2841.00,-0.0010
2840.00,0.0003
2839.00,0.0015
2838.00,0.0026
2837.00,0.0035
2836.00,0.0044
2835.00,0.0052
2834.00,0.0059
2833.00,0.0066
2832.00,0.0072
2831.00,0.0078
2830.00,0.0083
2829.00,0.0088
2828.00,0.0092
2827.00,0.0096
2826.00,0.0100
2825.00,0.0103
2824.00,0.0106
2823.00,0.0108
2822.00,0.0110
2821.00,0.0112
2820.00,0.0114
2819.00,0.0115
2818.00,0.0117
2817.00,0.0118
2816.00,0.0119
2815.00,0.0120
2814.00,0.0121
2813.00,0.0122
2812.00,0.0123
2811.00,0.0123
2810.00,0.0124
2809.00,0.0124
2808.00,0.0125
2807.00,0.0125
2806.00,0.0126
2805.00,0.0126
2804.00,0.0127
2803.00,0.0127
2802.00,0.0127
2801.00,0.0128
2800.00,0.0128
2799.00,0.0128
2798.00,0.0129
2797.00,0.0129
2796.00,0.0129
2795.00,0.0129
2794.00,0.0130
2793.00,0.0130
2792.00,0.0130
2791.00,0.0131
2790.00,0.0131
2789.00,0.0131
2788.00,0.0131
2787.00,0.0131
2786.00,0.0131
2785.00,0.0131
2784.00,0.0132
2783.00,0.0132
2782.00,0.0132
2781.00,0.0132
2780.00,0.0132
2779.00,0.0132
2778.00,0.0132
2777.00,0.0133
2776.00,0.0133
2775.00,0.0133
2774.00,0.0133
2773.00,0.0133
2772.00,0.0132
2771.00,0.0132
2770.00,0.0132
2769.00,0.0132
2768.00,0.0132
2767.00,0.0132
2766.00,0.0132
2765.00,0.0132
2764.00,0.0132
