Created as New Dataset,Sample 135 By YargerLab Date Wednesday, June 05 2024
cm-1,A
4000.00,0.0033
3999.00,0.0033
3998.00,0.0033
3997.00,0.0033
3996.00,0.0033
3995.00,0.0033
3994.00,0.0033
3993.00,0.0033
3992.00,0.0033
3991.00,0.0033
3990.00,0.0033
3989.00,0.0033
3988.00,0.0033
3987.00,0.0033
3986.00,0.0033
3985.00,0.0033
3984.00,0.0033
3983.00,0.0033
3982.00,0.0033
3981.00,0.0033
3980.00,0.0033
3979.00,0.0033
3978.00,0.0033
3977.00,0.0033
3976.00,0.0033
3975.00,0.0033
3974.00,0.0033
3973.00,0.0032
3972.00,0.0032
3971.00,0.0032
3970.00,0.0032
3969.00,0.0032
3968.00,0.0032
3967.00,0.0032
3966.00,0.0032
3965.00,0.0033
3964.00,0.0033
3963.00,0.0033
3962.00,0.0033
3961.00,0.0033
3960.00,0.0033
3959.00,0.0033
3958.00,0.0033
3957.00,0.0033
3956.00,0.0033
3955.00,0.0032
3954.00,0.0032
3953.00,0.0032
3952.00,0.0032
3951.00,0.0033
3950.00,0.0033
3949.00,0.0033
3948.00,0.0033
3947.00,0.0033
3946.00,0.0033
3945.00,0.0033
3944.00,0.0032
3943.00,0.0032
3942.00,0.0032
3941.00,0.0032
3940.00,0.0032
3939.00,0.0033
3938.00,0.0033
3937.00,0.0033
3936.00,0.0033
3935.00,0.0033
3934.00,0.0033
3933.00,0.0033
3932.00,0.0033
3931.00,0.0033
3930.00,0.0032
3929.00,0.0032
3928.00,0.0032
3927.00,0.0032
3926.00,0.0032
3925.00,0.0032
3924.00,0.0032
3923.00,0.0032
3922.00,0.0032
3921.00,0.0032
3920.00,0.0032
3919.00,0.0032
3918.00,0.0032
3917.00,0.0032
3916.00,0.0032
3915.00,0.0031
3914.00,0.0032
3913.00,0.0032
3912.00,0.0032
3911.00,0.0032
3910.00,0.0032
3909.00,0.0032
3908.00,0.0032
3907.00,0.0032
3906.00,0.0033
3905.00,0.0033
3904.00,0.0033
3903.00,0.0033
3902.00,0.0032
3901.00,0.0032
3900.00,0.0032
3899.00,0.0032
3898.00,0.0032
3897.00,0.0032
3896.00,0.0032
3895.00,0.0032
3894.00,0.0032
3893.00,0.0032
3892.00,0.0031
3891.00,0.0031
3890.00,0.0031
3889.00,0.0031
3888.00,0.0032
3887.00,0.0032
3886.00,0.0032
3885.00,0.0032
3884.00,0.0032
3883.00,0.0032
3882.00,0.0032
3881.00,0.0032
3880.00,0.0032
3879.00,0.0031
3878.00,0.0031
3877.00,0.0031
3876.00,0.0032
3875.00,0.0032
3874.00,0.0032
3873.00,0.0032
3872.00,0.0032
3871.00,0.0032
3870.00,0.0032
3869.00,0.0032
3868.00,0.0032
3867.00,0.0032
3866.00,0.0032
3865.00,0.0032
3864.00,0.0032
3863.00,0.0032
3862.00,0.0032
3861.00,0.0032
3860.00,0.0032
3859.00,0.0032
3858.00,0.0032
3857.00,0.0032
3856.00,0.0032
3855.00,0.0032
3854.00,0.0032
3853.00,0.0032
3852.00,0.0031
3851.00,0.0031
3850.00,0.0031
3849.00,0.0032
3848.00,0.0032
3847.00,0.0032
3846.00,0.0032
3845.00,0.0032
3844.00,0.0032
3843.00,0.0032
3842.00,0.0032
3841.00,0.0032
3840.00,0.0032
3839.00,0.0031
3838.00,0.0031
3837.00,0.0031
3836.00,0.0031
3835.00,0.0032
3834.00,0.0032
3833.00,0.0032
3832.00,0.0032
3831.00,0.0031
3830.00,0.0032
3829.00,0.0032
3828.00,0.0032
3827.00,0.0032
3826.00,0.0032
3825.00,0.0032
3824.00,0.0032
3823.00,0.0032
3822.00,0.0032
3821.00,0.0032
3820.00,0.0032
3819.00,0.0031
3818.00,0.0031
3817.00,0.0031
3816.00,0.0031
3815.00,0.0031
3814.00,0.0031
3813.00,0.0031
3812.00,0.0031
3811.00,0.0031
3810.00,0.0031
3809.00,0.0031
3808.00,0.0032
3807.00,0.0032
3806.00,0.0032
3805.00,0.0031
3804.00,0.0031
3803.00,0.0031
3802.00,0.0031
3801.00,0.0031
3800.00,0.0031
3799.00,0.0032
3798.00,0.0032
3797.00,0.0032
3796.00,0.0032
3795.00,0.0032
3794.00,0.0032
3793.00,0.0031
3792.00,0.0031
3791.00,0.0031
3790.00,0.0031
3789.00,0.0031
3788.00,0.0031
3787.00,0.0031
3786.00,0.0032
3785.00,0.0032
3784.00,0.0032
3783.00,0.0031
3782.00,0.0031
3781.00,0.0031
3780.00,0.0032
3779.00,0.0031
3778.00,0.0031
3777.00,0.0031
3776.00,0.0031
3775.00,0.0031
3774.00,0.0031
3773.00,0.0031
3772.00,0.0031
3771.00,0.0031
3770.00,0.0031
3769.00,0.0031
3768.00,0.0031
3767.00,0.0031
3766.00,0.0032
3765.00,0.0032
3764.00,0.0031
3763.00,0.0031
3762.00,0.0031
3761.00,0.0031
3760.00,0.0031
3759.00,0.0031
3758.00,0.0031
3757.00,0.0031
3756.00,0.0031
3755.00,0.0031
3754.00,0.0031
3753.00,0.0030
3752.00,0.0030
3751.00,0.0030
3750.00,0.0031
3749.00,0.0031
3748.00,0.0031
3747.00,0.0031
3746.00,0.0030
3745.00,0.0030
3744.00,0.0029
3743.00,0.0029
3742.00,0.0029
3741.00,0.0030
3740.00,0.0030
3739.00,0.0031
3738.00,0.0032
3737.00,0.0032
3736.00,0.0032
3735.00,0.0031
3734.00,0.0031
3733.00,0.0030
3732.00,0.0031
3731.00,0.0031
3730.00,0.0031
3729.00,0.0032
3728.00,0.0032
3727.00,0.0032
3726.00,0.0031
3725.00,0.0031
3724.00,0.0031
3723.00,0.0031
3722.00,0.0031
3721.00,0.0031
3720.00,0.0030
3719.00,0.0030
3718.00,0.0030
3717.00,0.0030
3716.00,0.0030
3715.00,0.0030
3714.00,0.0030
3713.00,0.0030
3712.00,0.0030
3711.00,0.0030
3710.00,0.0030
3709.00,0.0030
3708.00,0.0030
3707.00,0.0030
3706.00,0.0031
3705.00,0.0031
3704.00,0.0031
3703.00,0.0031
3702.00,0.0031
3701.00,0.0030
3700.00,0.0030
3699.00,0.0030
3698.00,0.0030
3697.00,0.0030
3696.00,0.0030
3695.00,0.0030
3694.00,0.0030
3693.00,0.0031
3692.00,0.0031
3691.00,0.0031
3690.00,0.0031
3689.00,0.0030
3688.00,0.0030
3687.00,0.0030
3686.00,0.0030
3685.00,0.0031
3684.00,0.0031
3683.00,0.0031
3682.00,0.0031
3681.00,0.0030
3680.00,0.0030
3679.00,0.0031
3678.00,0.0031
3677.00,0.0031
3676.00,0.0031
3675.00,0.0031
3674.00,0.0031
3673.00,0.0031
3672.00,0.0031
3671.00,0.0032
3670.00,0.0032
3669.00,0.0032
3668.00,0.0032
3667.00,0.0032
3666.00,0.0032
3665.00,0.0032
3664.00,0.0032
3663.00,0.0032
3662.00,0.0032
3661.00,0.0033
3660.00,0.0033
3659.00,0.0033
3658.00,0.0034
3657.00,0.0034
3656.00,0.0034
3655.00,0.0034
3654.00,0.0033
3653.00,0.0033
3652.00,0.0033
3651.00,0.0033
3650.00,0.0034
3649.00,0.0034
3648.00,0.0034
3647.00,0.0034
3646.00,0.0034
3645.00,0.0034
3644.00,0.0035
3643.00,0.0035
3642.00,0.0035
3641.00,0.0035
3640.00,0.0036
3639.00,0.0036
3638.00,0.0036
3637.00,0.0036
3636.00,0.0036
3635.00,0.0037
3634.00,0.0037
3633.00,0.0037
3632.00,0.0037
3631.00,0.0037
3630.00,0.0038
3629.00,0.0038
3628.00,0.0039
3627.00,0.0039
3626.00,0.0039
3625.00,0.0040
3624.00,0.0040
3623.00,0.0040
3622.00,0.0040
3621.00,0.0040
3620.00,0.0040
3619.00,0.0041
3618.00,0.0041
3617.00,0.0042
3616.00,0.0042
3615.00,0.0042
3614.00,0.0042
3613.00,0.0042
3612.00,0.0042
3611.00,0.0043
3610.00,0.0043
3609.00,0.0044
3608.00,0.0044
3607.00,0.0044
3606.00,0.0045
3605.00,0.0045
3604.00,0.0045
3603.00,0.0045
3602.00,0.0045
3601.00,0.0045
3600.00,0.0046
3599.00,0.0046
3598.00,0.0047
3597.00,0.0047
3596.00,0.0047
3595.00,0.0047
3594.00,0.0048
3593.00,0.0048
3592.00,0.0048
3591.00,0.0047
3590.00,0.0047
3589.00,0.0048
3588.00,0.0048
3587.00,0.0048
3586.00,0.0049
3585.00,0.0049
3584.00,0.0050
3583.00,0.0050
3582.00,0.0050
3581.00,0.0051
3580.00,0.0051
3579.00,0.0051
3578.00,0.0051
3577.00,0.0052
3576.00,0.0052
3575.00,0.0053
3574.00,0.0053
3573.00,0.0053
3572.00,0.0053
3571.00,0.0053
3570.00,0.0053
3569.00,0.0053
3568.00,0.0054
3567.00,0.0055
3566.00,0.0055
3565.00,0.0055
3564.00,0.0056
3563.00,0.0056
3562.00,0.0056
3561.00,0.0056
3560.00,0.0056
3559.00,0.0057
3558.00,0.0057
3557.00,0.0058
3556.00,0.0058
3555.00,0.0059
3554.00,0.0059
3553.00,0.0059
3552.00,0.0060
3551.00,0.0060
3550.00,0.0060
3549.00,0.0061
3548.00,0.0061
3547.00,0.0062
3546.00,0.0062
3545.00,0.0063
3544.00,0.0063
3543.00,0.0063
3542.00,0.0063
3541.00,0.0063
3540.00,0.0064
3539.00,0.0064
3538.00,0.0064
3537.00,0.0064
3536.00,0.0065
3535.00,0.0065
3534.00,0.0066
3533.00,0.0066
3532.00,0.0066
3531.00,0.0066
3530.00,0.0066
3529.00,0.0066
3528.00,0.0066
3527.00,0.0067
3526.00,0.0067
3525.00,0.0067
3524.00,0.0067
3523.00,0.0068
3522.00,0.0068
3521.00,0.0069
3520.00,0.0070
3519.00,0.0070
3518.00,0.0071
3517.00,0.0071
3516.00,0.0071
3515.00,0.0071
3514.00,0.0071
3513.00,0.0071
3512.00,0.0072
3511.00,0.0072
3510.00,0.0073
3509.00,0.0073
3508.00,0.0074
3507.00,0.0074
3506.00,0.0074
3505.00,0.0074
3504.00,0.0074
3503.00,0.0075
3502.00,0.0075
3501.00,0.0075
3500.00,0.0075
3499.00,0.0075
3498.00,0.0076
3497.00,0.0076
3496.00,0.0076
3495.00,0.0077
3494.00,0.0077
3493.00,0.0077
3492.00,0.0077
3491.00,0.0077
3490.00,0.0077
3489.00,0.0078
3488.00,0.0078
3487.00,0.0078
3486.00,0.0079
3485.00,0.0079
3484.00,0.0079
3483.00,0.0080
3482.00,0.0080
3481.00,0.0080
3480.00,0.0081
3479.00,0.0081
3478.00,0.0081
3477.00,0.0082
3476.00,0.0082
3475.00,0.0083
3474.00,0.0083
3473.00,0.0083
3472.00,0.0083
3471.00,0.0083
3470.00,0.0083
3469.00,0.0084
3468.00,0.0084
3467.00,0.0085
3466.00,0.0085
3465.00,0.0085
3464.00,0.0086
3463.00,0.0087
3462.00,0.0087
3461.00,0.0087
3460.00,0.0087
3459.00,0.0087
3458.00,0.0088
3457.00,0.0088
3456.00,0.0088
3455.00,0.0089
3454.00,0.0089
3453.00,0.0089
3452.00,0.0089
3451.00,0.0090
3450.00,0.0090
3449.00,0.0090
3448.00,0.0091
3447.00,0.0091
3446.00,0.0091
3445.00,0.0092
3444.00,0.0092
3443.00,0.0092
3442.00,0.0093
3441.00,0.0093
3440.00,0.0094
3439.00,0.0094
3438.00,0.0094
3437.00,0.0094
3436.00,0.0094
3435.00,0.0095
3434.00,0.0095
3433.00,0.0096
3432.00,0.0096
3431.00,0.0097
3430.00,0.0097
3429.00,0.0097
3428.00,0.0097
3427.00,0.0097
3426.00,0.0098
3425.00,0.0098
3424.00,0.0099
3423.00,0.0100
3422.00,0.0100
3421.00,0.0101
3420.00,0.0101
3419.00,0.0102
3418.00,0.0102
3417.00,0.0102
3416.00,0.0102
3415.00,0.0102
3414.00,0.0103
3413.00,0.0103
3412.00,0.0104
3411.00,0.0104
3410.00,0.0105
3409.00,0.0105
3408.00,0.0105
3407.00,0.0106
3406.00,0.0106
3405.00,0.0107
3404.00,0.0107
3403.00,0.0107
3402.00,0.0108
3401.00,0.0108
3400.00,0.0109
3399.00,0.0109
3398.00,0.0109
3397.00,0.0110
3396.00,0.0110
3395.00,0.0110
3394.00,0.0111
3393.00,0.0111
3392.00,0.0112
3391.00,0.0112
3390.00,0.0112
3389.00,0.0113
3388.00,0.0113
3387.00,0.0113
3386.00,0.0114
3385.00,0.0114
3384.00,0.0115
3383.00,0.0115
3382.00,0.0115
3381.00,0.0116
3380.00,0.0116
3379.00,0.0117
3378.00,0.0117
3377.00,0.0118
3376.00,0.0118
3375.00,0.0118
3374.00,0.0119
3373.00,0.0119
3372.00,0.0119
3371.00,0.0119
3370.00,0.0120
3369.00,0.0120
3368.00,0.0121
3367.00,0.0122
3366.00,0.0123
3365.00,0.0124
3364.00,0.0124
3363.00,0.0125
3362.00,0.0125
3361.00,0.0126
3360.00,0.0127
3359.00,0.0128
3358.00,0.0128
3357.00,0.0129
3356.00,0.0129
3355.00,0.0130
3354.00,0.0130
3353.00,0.0131
3352.00,0.0131
3351.00,0.0132
3350.00,0.0133
3349.00,0.0134
3348.00,0.0135
3347.00,0.0135
3346.00,0.0136
3345.00,0.0137
3344.00,0.0137
3343.00,0.0138
3342.00,0.0139
3341.00,0.0140
3340.00,0.0141
3339.00,0.0141
3338.00,0.0142
3337.00,0.0143
3336.00,0.0144
3335.00,0.0145
3334.00,0.0146
3333.00,0.0147
3332.00,0.0148
3331.00,0.0148
3330.00,0.0149
3329.00,0.0150
3328.00,0.0151
3327.00,0.0152
3326.00,0.0153
3325.00,0.0155
3324.00,0.0156
3323.00,0.0157
3322.00,0.0158
3321.00,0.0159
3320.00,0.0160
3319.00,0.0161
3318.00,0.0162
3317.00,0.0163
3316.00,0.0164
3315.00,0.0165
3314.00,0.0167
3313.00,0.0168
3312.00,0.0169
3311.00,0.0170
3310.00,0.0171
3309.00,0.0172
3308.00,0.0173
3307.00,0.0174
3306.00,0.0175
3305.00,0.0176
3304.00,0.0178
3303.00,0.0179
3302.00,0.0181
3301.00,0.0182
3300.00,0.0183
3299.00,0.0184
3298.00,0.0185
3297.00,0.0186
3296.00,0.0188
3295.00,0.0189
3294.00,0.0190
3293.00,0.0191
3292.00,0.0193
3291.00,0.0194
3290.00,0.0195
3289.00,0.0196
3288.00,0.0197
3287.00,0.0197
3286.00,0.0198
3285.00,0.0199
3284.00,0.0200
3283.00,0.0201
3282.00,0.0201
3281.00,0.0202
3280.00,0.0202
3279.00,0.0203
3278.00,0.0203
3277.00,0.0204
3276.00,0.0204
3275.00,0.0204
3274.00,0.0203
3273.00,0.0203
3272.00,0.0203
3271.00,0.0202
3270.00,0.0202
3269.00,0.0202
3268.00,0.0201
3267.00,0.0200
3266.00,0.0199
3265.00,0.0198
3264.00,0.0198
3263.00,0.0197
3262.00,0.0195
3261.00,0.0194
3260.00,0.0193
3259.00,0.0191
3258.00,0.0190
3257.00,0.0189
3256.00,0.0188
3255.00,0.0187
3254.00,0.0185
3253.00,0.0184
3252.00,0.0183
3251.00,0.0182
3250.00,0.0181
3249.00,0.0180
3248.00,0.0179
3247.00,0.0178
3246.00,0.0176
3245.00,0.0176
3244.00,0.0175
3243.00,0.0175
3242.00,0.0174
3241.00,0.0173
3240.00,0.0172
3239.00,0.0172
3238.00,0.0170
3237.00,0.0169
3236.00,0.0168
3235.00,0.0167
3234.00,0.0166
3233.00,0.0166
3232.00,0.0165
3231.00,0.0165
3230.00,0.0164
3229.00,0.0164
3228.00,0.0163
3227.00,0.0163
3226.00,0.0162
3225.00,0.0161
3224.00,0.0161
3223.00,0.0160
3222.00,0.0159
3221.00,0.0159
3220.00,0.0159
3219.00,0.0159
3218.00,0.0158
3217.00,0.0157
3216.00,0.0157
3215.00,0.0156
3214.00,0.0156
3213.00,0.0155
3212.00,0.0155
3211.00,0.0154
3210.00,0.0153
3209.00,0.0153
3208.00,0.0152
3207.00,0.0152
3206.00,0.0151
3205.00,0.0150
3204.00,0.0150
3203.00,0.0149
3202.00,0.0149
3201.00,0.0148
3200.00,0.0148
3199.00,0.0147
3198.00,0.0146
3197.00,0.0146
3196.00,0.0145
3195.00,0.0145
3194.00,0.0144
3193.00,0.0143
3192.00,0.0143
3191.00,0.0142
3190.00,0.0141
3189.00,0.0140
3188.00,0.0140
3187.00,0.0139
3186.00,0.0138
3185.00,0.0138
3184.00,0.0137
3183.00,0.0136
3182.00,0.0136
3181.00,0.0135
3180.00,0.0134
3179.00,0.0133
3178.00,0.0133
3177.00,0.0132
3176.00,0.0131
3175.00,0.0130
3174.00,0.0129
3173.00,0.0128
3172.00,0.0127
3171.00,0.0127
3170.00,0.0126
3169.00,0.0126
3168.00,0.0125
3167.00,0.0124
3166.00,0.0123
3165.00,0.0123
3164.00,0.0123
3163.00,0.0122
3162.00,0.0121
3161.00,0.0121
3160.00,0.0120
3159.00,0.0119
3158.00,0.0118
3157.00,0.0117
3156.00,0.0117
3155.00,0.0116
3154.00,0.0116
3153.00,0.0115
3152.00,0.0115
3151.00,0.0114
3150.00,0.0114
3149.00,0.0113
3148.00,0.0112
3147.00,0.0112
3146.00,0.0111
3145.00,0.0111
3144.00,0.0111
3143.00,0.0110
3142.00,0.0110
3141.00,0.0110
3140.00,0.0109
3139.00,0.0108
3138.00,0.0107
3137.00,0.0107
3136.00,0.0107
3135.00,0.0107
3134.00,0.0106
3133.00,0.0106
3132.00,0.0106
3131.00,0.0105
3130.00,0.0105
3129.00,0.0105
3128.00,0.0104
3127.00,0.0104
3126.00,0.0104
3125.00,0.0104
3124.00,0.0104
3123.00,0.0104
3122.00,0.0104
3121.00,0.0103
3120.00,0.0103
3119.00,0.0103
3118.00,0.0102
3117.00,0.0102
3116.00,0.0103
3115.00,0.0103
3114.00,0.0103
3113.00,0.0104
3112.00,0.0104
3111.00,0.0104
3110.00,0.0104
3109.00,0.0104
3108.00,0.0104
3107.00,0.0104
3106.00,0.0104
3105.00,0.0104
3104.00,0.0104
3103.00,0.0104
3102.00,0.0104
3101.00,0.0104
3100.00,0.0105
3099.00,0.0105
3098.00,0.0105
3097.00,0.0105
3096.00,0.0106
3095.00,0.0106
3094.00,0.0107
3093.00,0.0107
3092.00,0.0107
3091.00,0.0107
3090.00,0.0107
3089.00,0.0108
3088.00,0.0108
3087.00,0.0108
3086.00,0.0108
3085.00,0.0108
3084.00,0.0108
3083.00,0.0108
3082.00,0.0108
3081.00,0.0108
3080.00,0.0109
3079.00,0.0109
3078.00,0.0109
3077.00,0.0109
3076.00,0.0109
3075.00,0.0109
3074.00,0.0109
3073.00,0.0110
3072.00,0.0110
3071.00,0.0110
3070.00,0.0110
3069.00,0.0110
3068.00,0.0110
3067.00,0.0110
3066.00,0.0110
3065.00,0.0110
3064.00,0.0110
3063.00,0.0110
3062.00,0.0109
3061.00,0.0109
3060.00,0.0109
3059.00,0.0108
3058.00,0.0108
3057.00,0.0108
3056.00,0.0107
3055.00,0.0107
3054.00,0.0107
3053.00,0.0107
3052.00,0.0106
3051.00,0.0106
3050.00,0.0105
3049.00,0.0104
3048.00,0.0103
3047.00,0.0103
3046.00,0.0102
3045.00,0.0101
3044.00,0.0101
3043.00,0.0100
3042.00,0.0100
3041.00,0.0099
3040.00,0.0099
3039.00,0.0099
3038.00,0.0098
3037.00,0.0098
3036.00,0.0098
3035.00,0.0097
3034.00,0.0096
3033.00,0.0096
3032.00,0.0095
3031.00,0.0095
3030.00,0.0095
3029.00,0.0094
3028.00,0.0094
3027.00,0.0093
3026.00,0.0093
3025.00,0.0093
3024.00,0.0092
3023.00,0.0092
3022.00,0.0091
3021.00,0.0091
3020.00,0.0090
3019.00,0.0090
3018.00,0.0089
3017.00,0.0089
3016.00,0.0088
3015.00,0.0088
3014.00,0.0088
3013.00,0.0088
3012.00,0.0088
3011.00,0.0088
3010.00,0.0088
3009.00,0.0087
3008.00,0.0087
3007.00,0.0086
3006.00,0.0086
3005.00,0.0086
3004.00,0.0086
3003.00,0.0087
3002.00,0.0087
3001.00,0.0087
3000.00,0.0087
2999.00,0.0087
2998.00,0.0087
2997.00,0.0087
2996.00,0.0088
2995.00,0.0088
2994.00,0.0088
2993.00,0.0089
2992.00,0.0089
2991.00,0.0090
2990.00,0.0090
2989.00,0.0091
2988.00,0.0091
2987.00,0.0092
2986.00,0.0092
2985.00,0.0093
2984.00,0.0093
2983.00,0.0093
2982.00,0.0093
2981.00,0.0094
2980.00,0.0094
2979.00,0.0095
2978.00,0.0095
2977.00,0.0096
2976.00,0.0096
2975.00,0.0097
2974.00,0.0097
2973.00,0.0098
2972.00,0.0098
2971.00,0.0099
2970.00,0.0099
2969.00,0.0100
2968.00,0.0101
2967.00,0.0101
2966.00,0.0102
2965.00,0.0102
2964.00,0.0102
2963.00,0.0102
2962.00,0.0102
2961.00,0.0103
2960.00,0.0103
2959.00,0.0103
2958.00,0.0103
2957.00,0.0103
2956.00,0.0103
2955.00,0.0103
2954.00,0.0103
2953.00,0.0102
2952.00,0.0102
2951.00,0.0102
2950.00,0.0102
2949.00,0.0102
2948.00,0.0102
2947.00,0.0102
2946.00,0.0103
2945.00,0.0104
2944.00,0.0104
2943.00,0.0105
2942.00,0.0106
2941.00,0.0107
2940.00,0.0108
2939.00,0.0109
2938.00,0.0111
2937.00,0.0112
2936.00,0.0114
2935.00,0.0116
2934.00,0.0117
2933.00,0.0119
2932.00,0.0121
2931.00,0.0122
2930.00,0.0124
2929.00,0.0126
2928.00,0.0127
2927.00,0.0129
2926.00,0.0130
2925.00,0.0132
2924.00,0.0133
2923.00,0.0134
2922.00,0.0135
2921.00,0.0136
2920.00,0.0136
2919.00,0.0136
2918.00,0.0135
2917.00,0.0133
2916.00,0.0130
2915.00,0.0126
2914.00,0.0123
2913.00,0.0119
2912.00,0.0115
2911.00,0.0112
2910.00,0.0110
2909.00,0.0107
2908.00,0.0105
2907.00,0.0104
2906.00,0.0102
2905.00,0.0101
2904.00,0.0100
2903.00,0.0100
2902.00,0.0099
2901.00,0.0098
2900.00,0.0097
2899.00,0.0096
2898.00,0.0095
2897.00,0.0095
2896.00,0.0094
2895.00,0.0094
2894.00,0.0093
2893.00,0.0093
2892.00,0.0093
2891.00,0.0092
2890.00,0.0092
2889.00,0.0091
2888.00,0.0091
2887.00,0.0090
2886.00,0.0089
2885.00,0.0089
2884.00,0.0089
2883.00,0.0089
2882.00,0.0089
2881.00,0.0089
2880.00,0.0089
2879.00,0.0089
2878.00,0.0089
2877.00,0.0089
2876.00,0.0089
2875.00,0.0089
2874.00,0.0089
2873.00,0.0089
2872.00,0.0089
2871.00,0.0089
2870.00,0.0088
2869.00,0.0088
2868.00,0.0087
2867.00,0.0087
2866.00,0.0086
2865.00,0.0086
2864.00,0.0086
2863.00,0.0087
2862.00,0.0087
2861.00,0.0088
2860.00,0.0089
2859.00,0.0090
2858.00,0.0092
2857.00,0.0093
2856.00,0.0095
2855.00,0.0097
2854.00,0.0099
2853.00,0.0101
2852.00,0.0103
2851.00,0.0103
2850.00,0.0102
2849.00,0.0100
2848.00,0.0097
2847.00,0.0094
2846.00,0.0090
2845.00,0.0087
2844.00,0.0084
2843.00,0.0082
2842.00,0.0080
2841.00,0.0078
2840.00,0.0077
2839.00,0.0076
2838.00,0.0075
2837.00,0.0075
2836.00,0.0074
2835.00,0.0073
2834.00,0.0073
2833.00,0.0072
2832.00,0.0072
2831.00,0.0072
2830.00,0.0071
2829.00,0.0071
2828.00,0.0071
2827.00,0.0071
2826.00,0.0071
2825.00,0.0070
2824.00,0.0070
2823.00,0.0070
2822.00,0.0070
2821.00,0.0070
2820.00,0.0069
2819.00,0.0069
2818.00,0.0069
2817.00,0.0069
2816.00,0.0069
2815.00,0.0069
2814.00,0.0068
2813.00,0.0068
2812.00,0.0068
2811.00,0.0068
2810.00,0.0068
2809.00,0.0068
2808.00,0.0067
2807.00,0.0067
2806.00,0.0067
2805.00,0.0067
2804.00,0.0067
2803.00,0.0067
2802.00,0.0067
2801.00,0.0067
2800.00,0.0067
2799.00,0.0067
2798.00,0.0066
2797.00,0.0066
2796.00,0.0066
2795.00,0.0066
2794.00,0.0066
2793.00,0.0066
2792.00,0.0066
2791.00,0.0066
2790.00,0.0066
2789.00,0.0065
2788.00,0.0065
2787.00,0.0064
2786.00,0.0064
2785.00,0.0064
2784.00,0.0064
2783.00,0.0064
2782.00,0.0064
2781.00,0.0064
2780.00,0.0064
2779.00,0.0064
2778.00,0.0064
2777.00,0.0063
2776.00,0.0063
2775.00,0.0063
2774.00,0.0063
2773.00,0.0063
2772.00,0.0063
2771.00,0.0063
2770.00,0.0063
2769.00,0.0063
2768.00,0.0062
2767.00,0.0062
2766.00,0.0062
2765.00,0.0062
2764.00,0.0061
2763.00,0.0061
2762.00,0.0061
2761.00,0.0061
2760.00,0.0061
2759.00,0.0060
2758.00,0.0060
2757.00,0.0060
