PE IR       SUBTECH     SPECTRUM    ASCII       PEDS        4.00        
   -1
2024_06_05_NitrileGlove.ASC
24/06/05
11:24:52.00
24/06/05
11:24:52.00
Yarger Lab
Sample 125 By YargerLab Date Tuesday, June 04 2024
400.000000
#HDR
-1
-1
#GR
cm-1
%T
1.0
0.0
4000.000000
-1.000000
3601
8
99.978189
74.559642
#DATA
4000.000000	98.510569
3999.000000	98.510599
3998.000000	98.512193
3997.000000	98.513960
3996.000000	98.515627
3995.000000	98.516153
3994.000000	98.515127
3993.000000	98.512617
3992.000000	98.509705
3991.000000	98.507791
3990.000000	98.507451
3989.000000	98.508286
3988.000000	98.509788
3987.000000	98.511703
3986.000000	98.513683
3985.000000	98.515219
3984.000000	98.516253
3983.000000	98.517079
3982.000000	98.517543
3981.000000	98.517075
3980.000000	98.515417
3979.000000	98.513208
3978.000000	98.511807
3977.000000	98.512265
3976.000000	98.514544
3975.000000	98.517612
3974.000000	98.520502
3973.000000	98.522801
3972.000000	98.524258
3971.000000	98.524960
3970.000000	98.525173
3969.000000	98.525029
3968.000000	98.524759
3967.000000	98.524645
3966.000000	98.524588
3965.000000	98.524388
3964.000000	98.524031
3963.000000	98.523662
3962.000000	98.523739
3961.000000	98.524336
3960.000000	98.524712
3959.000000	98.524816
3958.000000	98.525480
3957.000000	98.527018
3956.000000	98.528940
3955.000000	98.530577
3954.000000	98.531568
3953.000000	98.531360
3952.000000	98.529028
3951.000000	98.524110
3950.000000	98.516328
3949.000000	98.506484
3948.000000	98.497813
3947.000000	98.494070
3946.000000	98.496481
3945.000000	98.504313
3944.000000	98.516302
3943.000000	98.528770
3942.000000	98.536573
3941.000000	98.537324
3940.000000	98.533099
3939.000000	98.528531
3938.000000	98.526193
3937.000000	98.523650
3936.000000	98.516711
3935.000000	98.505117
3934.000000	98.495125
3933.000000	98.493223
3932.000000	98.499852
3931.000000	98.509343
3930.000000	98.515590
3929.000000	98.518591
3928.000000	98.522133
3927.000000	98.528524
3926.000000	98.537255
3925.000000	98.543810
3924.000000	98.541531
3923.000000	98.528550
3922.000000	98.510125
3921.000000	98.494706
3920.000000	98.486261
3919.000000	98.482513
3918.000000	98.482323
3917.000000	98.488196
3916.000000	98.500221
3915.000000	98.512636
3914.000000	98.520991
3913.000000	98.526930
3912.000000	98.533126
3911.000000	98.539438
3910.000000	98.543687
3909.000000	98.545401
3908.000000	98.545791
3907.000000	98.543265
3906.000000	98.531841
3905.000000	98.506358
3904.000000	98.467996
3903.000000	98.428893
3902.000000	98.405918
3901.000000	98.407855
3900.000000	98.432337
3899.000000	98.464400
3898.000000	98.486980
3897.000000	98.495799
3896.000000	98.497755
3895.000000	98.502245
3894.000000	98.512928
3893.000000	98.524454
3892.000000	98.529033
3891.000000	98.524731
3890.000000	98.513010
3889.000000	98.492240
3888.000000	98.464654
3887.000000	98.447164
3886.000000	98.453625
3885.000000	98.473669
3884.000000	98.483998
3883.000000	98.478850
3882.000000	98.473331
3881.000000	98.478579
3880.000000	98.489023
3879.000000	98.493982
3878.000000	98.489715
3877.000000	98.481341
3876.000000	98.480816
3875.000000	98.494742
3874.000000	98.512045
3873.000000	98.509841
3872.000000	98.481875
3871.000000	98.451119
3870.000000	98.442902
3869.000000	98.453091
3868.000000	98.457101
3867.000000	98.444369
3866.000000	98.434461
3865.000000	98.446259
3864.000000	98.466316
3863.000000	98.471705
3862.000000	98.461142
3861.000000	98.450460
3860.000000	98.453548
3859.000000	98.477999
3858.000000	98.521937
3857.000000	98.571536
3856.000000	98.602696
3855.000000	98.605117
3854.000000	98.582301
3853.000000	98.544438
3852.000000	98.509167
3851.000000	98.485120
3850.000000	98.468173
3849.000000	98.460747
3848.000000	98.462262
3847.000000	98.467736
3846.000000	98.473753
3845.000000	98.477852
3844.000000	98.476713
3843.000000	98.470242
3842.000000	98.458686
3841.000000	98.444554
3840.000000	98.435049
3839.000000	98.433777
3838.000000	98.439326
3837.000000	98.449132
3836.000000	98.459547
3835.000000	98.466112
3834.000000	98.466192
3833.000000	98.463824
3832.000000	98.465691
3831.000000	98.471606
3830.000000	98.476385
3829.000000	98.478645
3828.000000	98.481667
3827.000000	98.489489
3826.000000	98.498416
3825.000000	98.494945
3824.000000	98.471402
3823.000000	98.444359
3822.000000	98.440020
3821.000000	98.458190
3820.000000	98.471479
3819.000000	98.465680
3818.000000	98.447376
3817.000000	98.441315
3816.000000	98.464658
3815.000000	98.502555
3814.000000	98.527866
3813.000000	98.534220
3812.000000	98.536365
3811.000000	98.543979
3810.000000	98.550229
3809.000000	98.543685
3808.000000	98.527291
3807.000000	98.513335
3806.000000	98.503205
3805.000000	98.487233
3804.000000	98.463645
3803.000000	98.449826
3802.000000	98.463085
3801.000000	98.489835
3800.000000	98.503452
3799.000000	98.498387
3798.000000	98.490162
3797.000000	98.495525
3796.000000	98.516431
3795.000000	98.541023
3794.000000	98.558989
3793.000000	98.571432
3792.000000	98.584010
3791.000000	98.597579
3790.000000	98.607484
3789.000000	98.610853
3788.000000	98.609390
3787.000000	98.605911
3786.000000	98.601057
3785.000000	98.594902
3784.000000	98.587109
3783.000000	98.576420
3782.000000	98.564349
3781.000000	98.557660
3780.000000	98.561836
3779.000000	98.572316
3778.000000	98.581109
3777.000000	98.584372
3776.000000	98.585090
3775.000000	98.587650
3774.000000	98.590654
3773.000000	98.586081
3772.000000	98.570659
3771.000000	98.553962
3770.000000	98.543558
3769.000000	98.535774
3768.000000	98.526339
3767.000000	98.518266
3766.000000	98.517854
3765.000000	98.525996
3764.000000	98.532974
3763.000000	98.528677
3762.000000	98.515989
3761.000000	98.509208
3760.000000	98.511939
3759.000000	98.511075
3758.000000	98.500777
3757.000000	98.489540
3756.000000	98.481189
3755.000000	98.468604
3754.000000	98.447093
3753.000000	98.423641
3752.000000	98.403051
3751.000000	98.378959
3750.000000	98.356998
3749.000000	98.355700
3748.000000	98.372700
3747.000000	98.384248
3746.000000	98.383357
3745.000000	98.389007
3744.000000	98.411093
3743.000000	98.427970
3742.000000	98.418453
3741.000000	98.390647
3740.000000	98.364464
3739.000000	98.345578
3738.000000	98.331037
3737.000000	98.328695
3736.000000	98.348415
3735.000000	98.376781
3734.000000	98.393109
3733.000000	98.402655
3732.000000	98.423738
3731.000000	98.457568
3730.000000	98.487292
3729.000000	98.499053
3728.000000	98.498804
3727.000000	98.503041
3726.000000	98.515323
3725.000000	98.524691
3724.000000	98.528887
3723.000000	98.536410
3722.000000	98.549451
3721.000000	98.562882
3720.000000	98.572581
3719.000000	98.576462
3718.000000	98.576420
3717.000000	98.573349
3716.000000	98.563744
3715.000000	98.543983
3714.000000	98.518830
3713.000000	98.501460
3712.000000	98.496337
3711.000000	98.497027
3710.000000	98.499932
3709.000000	98.507020
3708.000000	98.521168
3707.000000	98.540952
3706.000000	98.561213
3705.000000	98.577139
3704.000000	98.589286
3703.000000	98.601601
3702.000000	98.611831
3701.000000	98.614858
3700.000000	98.610558
3699.000000	98.601402
3698.000000	98.591970
3697.000000	98.587717
3696.000000	98.586612
3695.000000	98.580014
3694.000000	98.565276
3693.000000	98.551506
3692.000000	98.546614
3691.000000	98.543904
3690.000000	98.528253
3689.000000	98.499757
3688.000000	98.478589
3687.000000	98.475621
3686.000000	98.478243
3685.000000	98.476584
3684.000000	98.471613
3683.000000	98.465689
3682.000000	98.457155
3681.000000	98.445527
3680.000000	98.433455
3679.000000	98.414570
3678.000000	98.375357
3677.000000	98.325817
3676.000000	98.294242
3675.000000	98.283973
3674.000000	98.273547
3673.000000	98.247795
3672.000000	98.215983
3671.000000	98.209200
3670.000000	98.233261
3669.000000	98.257955
3668.000000	98.264910
3667.000000	98.261960
3666.000000	98.257925
3665.000000	98.256429
3664.000000	98.256173
3663.000000	98.253896
3662.000000	98.248290
3661.000000	98.238566
3660.000000	98.223596
3659.000000	98.201794
3658.000000	98.174529
3657.000000	98.146763
3656.000000	98.121521
3655.000000	98.095429
3654.000000	98.059483
3653.000000	98.009510
3652.000000	97.955046
3651.000000	97.911857
3650.000000	97.878495
3649.000000	97.849091
3648.000000	97.837080
3647.000000	97.853169
3646.000000	97.883223
3645.000000	97.909578
3644.000000	97.929029
3643.000000	97.946879
3642.000000	97.964904
3641.000000	97.976340
3640.000000	97.976324
3639.000000	97.968223
3638.000000	97.956661
3637.000000	97.941048
3636.000000	97.920233
3635.000000	97.900452
3634.000000	97.887666
3633.000000	97.876272
3632.000000	97.853878
3631.000000	97.819999
3630.000000	97.792650
3629.000000	97.779438
3628.000000	97.767993
3627.000000	97.754225
3626.000000	97.740862
3625.000000	97.731197
3624.000000	97.728433
3623.000000	97.730671
3622.000000	97.732372
3621.000000	97.733110
3620.000000	97.731455
3619.000000	97.717805
3618.000000	97.687322
3617.000000	97.648603
3616.000000	97.611448
3615.000000	97.584722
3614.000000	97.570360
3613.000000	97.559802
3612.000000	97.543677
3611.000000	97.521828
3610.000000	97.504326
3609.000000	97.502774
3608.000000	97.514947
3607.000000	97.527218
3606.000000	97.530835
3605.000000	97.527150
3604.000000	97.522065
3603.000000	97.517810
3602.000000	97.510388
3601.000000	97.497670
3600.000000	97.480842
3599.000000	97.461689
3598.000000	97.443064
3597.000000	97.427612
3596.000000	97.415482
3595.000000	97.404380
3594.000000	97.389038
3593.000000	97.365642
3592.000000	97.335602
3591.000000	97.302687
3590.000000	97.274195
3589.000000	97.259238
3588.000000	97.257730
3587.000000	97.255462
3586.000000	97.243962
3585.000000	97.228236
3584.000000	97.216382
3583.000000	97.210910
3582.000000	97.209123
3581.000000	97.206752
3580.000000	97.201491
3579.000000	97.193284
3578.000000	97.182429
3577.000000	97.169287
3576.000000	97.153827
3575.000000	97.136027
3574.000000	97.115575
3573.000000	97.091549
3572.000000	97.063271
3571.000000	97.029643
3570.000000	96.991149
3569.000000	96.955866
3568.000000	96.933623
3567.000000	96.922857
3566.000000	96.913162
3565.000000	96.900856
3564.000000	96.889327
3563.000000	96.883448
3562.000000	96.883597
3561.000000	96.885418
3560.000000	96.884311
3559.000000	96.878237
3558.000000	96.867363
3557.000000	96.853031
3556.000000	96.837543
3555.000000	96.822974
3554.000000	96.809610
3553.000000	96.794896
3552.000000	96.775619
3551.000000	96.750756
3550.000000	96.721459
3549.000000	96.691729
3548.000000	96.667741
3547.000000	96.653370
3546.000000	96.646586
3545.000000	96.642459
3544.000000	96.638275
3543.000000	96.634037
3542.000000	96.629776
3541.000000	96.624767
3540.000000	96.619179
3539.000000	96.613032
3538.000000	96.605461
3537.000000	96.594934
3536.000000	96.580921
3535.000000	96.564514
3534.000000	96.546784
3533.000000	96.529037
3532.000000	96.512627
3531.000000	96.498045
3530.000000	96.483064
3529.000000	96.464906
3528.000000	96.443516
3527.000000	96.421516
3526.000000	96.402149
3525.000000	96.388427
3524.000000	96.381943
3523.000000	96.380170
3522.000000	96.377356
3521.000000	96.369785
3520.000000	96.359188
3519.000000	96.348538
3518.000000	96.337574
3517.000000	96.324217
3516.000000	96.308664
3515.000000	96.293678
3514.000000	96.280433
3513.000000	96.267724
3512.000000	96.255103
3511.000000	96.243269
3510.000000	96.230656
3509.000000	96.214078
3508.000000	96.193162
3507.000000	96.171710
3506.000000	96.154110
3505.000000	96.142254
3504.000000	96.134477
3503.000000	96.126958
3502.000000	96.116452
3501.000000	96.102937
3500.000000	96.089660
3499.000000	96.079422
3498.000000	96.071783
3497.000000	96.063883
3496.000000	96.053790
3495.000000	96.041940
3494.000000	96.029781
3493.000000	96.018507
3492.000000	96.008848
3491.000000	96.000686
3490.000000	95.992278
3489.000000	95.982074
3488.000000	95.970512
3487.000000	95.958808
3486.000000	95.947522
3485.000000	95.937187
3484.000000	95.929000
3483.000000	95.922901
3482.000000	95.915905
3481.000000	95.905557
3480.000000	95.893547
3479.000000	95.883741
3478.000000	95.877491
3477.000000	95.873290
3476.000000	95.869511
3475.000000	95.864836
3474.000000	95.857760
3473.000000	95.847677
3472.000000	95.836491
3471.000000	95.827110
3470.000000	95.820202
3469.000000	95.814241
3468.000000	95.808286
3467.000000	95.802550
3466.000000	95.797100
3465.000000	95.791775
3464.000000	95.787025
3463.000000	95.782951
3462.000000	95.778258
3461.000000	95.772278
3460.000000	95.766837
3459.000000	95.764117
3458.000000	95.763421
3457.000000	95.761735
3456.000000	95.757699
3455.000000	95.752510
3454.000000	95.747117
3453.000000	95.741410
3452.000000	95.735377
3451.000000	95.729950
3450.000000	95.725743
3449.000000	95.722387
3448.000000	95.718908
3447.000000	95.713901
3446.000000	95.706726
3445.000000	95.699153
3444.000000	95.694695
3443.000000	95.694926
3442.000000	95.696967
3441.000000	95.696529
3440.000000	95.692756
3439.000000	95.688305
3438.000000	95.684953
3437.000000	95.681770
3436.000000	95.677982
3435.000000	95.674621
3434.000000	95.672393
3433.000000	95.670752
3432.000000	95.669091
3431.000000	95.667957
3430.000000	95.667893
3429.000000	95.668699
3428.000000	95.670229
3427.000000	95.672354
3426.000000	95.674074
3425.000000	95.674135
3424.000000	95.673048
3423.000000	95.672819
3422.000000	95.674171
3421.000000	95.675517
3420.000000	95.675401
3419.000000	95.674542
3418.000000	95.674257
3417.000000	95.674796
3416.000000	95.675910
3415.000000	95.677694
3414.000000	95.680117
3413.000000	95.682799
3412.000000	95.685748
3411.000000	95.689355
3410.000000	95.693438
3409.000000	95.697440
3408.000000	95.701532
3407.000000	95.706003
3406.000000	95.709950
3405.000000	95.711913
3404.000000	95.712039
3403.000000	95.711977
3402.000000	95.712669
3401.000000	95.714122
3400.000000	95.716867
3399.000000	95.721667
3398.000000	95.727417
3397.000000	95.731838
3396.000000	95.734791
3395.000000	95.738696
3394.000000	95.745109
3393.000000	95.752826
3392.000000	95.760280
3391.000000	95.767871
3390.000000	95.776895
3389.000000	95.787563
3388.000000	95.798876
3387.000000	95.809343
3386.000000	95.817472
3385.000000	95.822613
3384.000000	95.825706
3383.000000	95.828504
3382.000000	95.831934
3381.000000	95.836233
3380.000000	95.841875
3379.000000	95.849176
3378.000000	95.857144
3377.000000	95.864406
3376.000000	95.871099
3375.000000	95.878269
3374.000000	95.885743
3373.000000	95.892152
3372.000000	95.896852
3371.000000	95.900237
3370.000000	95.902640
3369.000000	95.904610
3368.000000	95.908115
3367.000000	95.915402
3366.000000	95.926380
3365.000000	95.938565
3364.000000	95.949770
3363.000000	95.959570
3362.000000	95.968335
3361.000000	95.976564
3360.000000	95.985136
3359.000000	95.994693
3358.000000	96.004556
3357.000000	96.013534
3356.000000	96.021677
3355.000000	96.030078
3354.000000	96.039247
3353.000000	96.048933
3352.000000	96.059250
3351.000000	96.070412
3350.000000	96.081679
3349.000000	96.092009
3348.000000	96.101777
3347.000000	96.111983
3346.000000	96.122146
3345.000000	96.130763
3344.000000	96.137528
3343.000000	96.143765
3342.000000	96.150564
3341.000000	96.158118
3340.000000	96.166815
3339.000000	96.177343
3338.000000	96.189587
3337.000000	96.202787
3336.000000	96.216762
3335.000000	96.231558
3334.000000	96.246103
3333.000000	96.258912
3332.000000	96.270088
3331.000000	96.281134
3330.000000	96.292711
3329.000000	96.304054
3328.000000	96.314647
3327.000000	96.324712
3326.000000	96.334309
3325.000000	96.343568
3324.000000	96.353664
3323.000000	96.366027
3322.000000	96.380195
3321.000000	96.394007
3320.000000	96.406171
3319.000000	96.417164
3318.000000	96.427597
3317.000000	96.437417
3316.000000	96.446665
3315.000000	96.455790
3314.000000	96.464914
3313.000000	96.473939
3312.000000	96.483427
3311.000000	96.494146
3310.000000	96.505855
3309.000000	96.517766
3308.000000	96.529737
3307.000000	96.541682
3306.000000	96.552443
3305.000000	96.561115
3304.000000	96.569012
3303.000000	96.578337
3302.000000	96.589293
3301.000000	96.600231
3300.000000	96.610429
3299.000000	96.620642
3298.000000	96.630825
3297.000000	96.639894
3296.000000	96.647847
3295.000000	96.656209
3294.000000	96.665769
3293.000000	96.675608
3292.000000	96.684998
3291.000000	96.694494
3290.000000	96.704610
3289.000000	96.715027
3288.000000	96.725579
3287.000000	96.736551
3286.000000	96.747520
3285.000000	96.757424
3284.000000	96.766103
3283.000000	96.774540
3282.000000	96.783429
3281.000000	96.792459
3280.000000	96.801400
3279.000000	96.810298
3278.000000	96.818488
3277.000000	96.825043
3276.000000	96.830386
3275.000000	96.836263
3274.000000	96.843744
3273.000000	96.852401
3272.000000	96.861566
3271.000000	96.871000
3270.000000	96.880333
3269.000000	96.889221
3268.000000	96.898019
3267.000000	96.907148
3266.000000	96.916143
3265.000000	96.924640
3264.000000	96.933606
3263.000000	96.944108
3262.000000	96.955186
3261.000000	96.964560
3260.000000	96.971523
3259.000000	96.977331
3258.000000	96.983093
3257.000000	96.989160
3256.000000	96.996312
3255.000000	97.005373
3254.000000	97.015653
3253.000000	97.025390
3252.000000	97.033801
3251.000000	97.041377
3250.000000	97.048151
3249.000000	97.053732
3248.000000	97.058903
3247.000000	97.065274
3246.000000	97.073344
3245.000000	97.082520
3244.000000	97.092838
3243.000000	97.104943
3242.000000	97.118202
3241.000000	97.130570
3240.000000	97.140822
3239.000000	97.149381
3238.000000	97.156884
3237.000000	97.163531
3236.000000	97.169929
3235.000000	97.176908
3234.000000	97.184467
3233.000000	97.192273
3232.000000	97.200766
3231.000000	97.210800
3230.000000	97.221912
3229.000000	97.232555
3228.000000	97.242039
3227.000000	97.250838
3226.000000	97.259282
3225.000000	97.267332
3224.000000	97.275244
3223.000000	97.283316
3222.000000	97.291197
3221.000000	97.298511
3220.000000	97.305711
3219.000000	97.313059
3218.000000	97.319694
3217.000000	97.325078
3216.000000	97.330655
3215.000000	97.338165
3214.000000	97.347186
3213.000000	97.356017
3212.000000	97.364376
3211.000000	97.373253
3210.000000	97.382837
3209.000000	97.392563
3208.000000	97.402906
3207.000000	97.414875
3206.000000	97.427874
3205.000000	97.439970
3204.000000	97.450150
3203.000000	97.458772
3202.000000	97.466088
3201.000000	97.472099
3200.000000	97.478012
3199.000000	97.485732
3198.000000	97.495770
3197.000000	97.506873
3196.000000	97.517787
3195.000000	97.527808
3194.000000	97.536186
3193.000000	97.542678
3192.000000	97.548700
3191.000000	97.556351
3190.000000	97.566060
3189.000000	97.576667
3188.000000	97.587259
3187.000000	97.597760
3186.000000	97.607995
3185.000000	97.617641
3184.000000	97.627170
3183.000000	97.637040
3182.000000	97.646444
3181.000000	97.654218
3180.000000	97.660831
3179.000000	97.667965
3178.000000	97.676445
3177.000000	97.685714
3176.000000	97.695388
3175.000000	97.705474
3174.000000	97.715474
3173.000000	97.724674
3172.000000	97.733262
3171.000000	97.742112
3170.000000	97.751459
3169.000000	97.761045
3168.000000	97.770888
3167.000000	97.780755
3166.000000	97.789439
3165.000000	97.795953
3164.000000	97.801256
3163.000000	97.807056
3162.000000	97.813517
3161.000000	97.819578
3160.000000	97.825206
3159.000000	97.831591
3158.000000	97.839166
3157.000000	97.847011
3156.000000	97.854340
3155.000000	97.861236
3154.000000	97.867891
3153.000000	97.874350
3152.000000	97.880992
3151.000000	97.888099
3150.000000	97.895060
3149.000000	97.901137
3148.000000	97.906739
3147.000000	97.912740
3146.000000	97.918967
