Created as New Dataset,Sample 128 By YargerLab Date Wednesday, June 05 2024
cm-1,A
4000.00,0.0035
3999.00,0.0035
3998.00,0.0035
3997.00,0.0035
3996.00,0.0035
3995.00,0.0035
3994.00,0.0035
3993.00,0.0035
3992.00,0.0036
3991.00,0.0036
3990.00,0.0036
3989.00,0.0036
3988.00,0.0036
3987.00,0.0036
3986.00,0.0036
3985.00,0.0036
3984.00,0.0036
3983.00,0.0036
3982.00,0.0035
3981.00,0.0035
3980.00,0.0035
3979.00,0.0035
3978.00,0.0035
3977.00,0.0035
3976.00,0.0035
3975.00,0.0035
3974.00,0.0035
3973.00,0.0035
3972.00,0.0035
3971.00,0.0035
3970.00,0.0035
3969.00,0.0035
3968.00,0.0035
3967.00,0.0036
3966.00,0.0036
3965.00,0.0036
3964.00,0.0036
3963.00,0.0036
3962.00,0.0036
3961.00,0.0036
3960.00,0.0036
3959.00,0.0036
3958.00,0.0036
3957.00,0.0036
3956.00,0.0036
3955.00,0.0035
3954.00,0.0035
3953.00,0.0035
3952.00,0.0036
3951.00,0.0036
3950.00,0.0036
3949.00,0.0037
3948.00,0.0037
3947.00,0.0037
3946.00,0.0037
3945.00,0.0037
3944.00,0.0037
3943.00,0.0036
3942.00,0.0036
3941.00,0.0036
3940.00,0.0036
3939.00,0.0036
3938.00,0.0036
3937.00,0.0036
3936.00,0.0037
3935.00,0.0037
3934.00,0.0037
3933.00,0.0038
3932.00,0.0037
3931.00,0.0037
3930.00,0.0037
3929.00,0.0037
3928.00,0.0036
3927.00,0.0036
3926.00,0.0036
3925.00,0.0035
3924.00,0.0036
3923.00,0.0036
3922.00,0.0037
3921.00,0.0038
3920.00,0.0038
3919.00,0.0039
3918.00,0.0039
3917.00,0.0038
3916.00,0.0038
3915.00,0.0037
3914.00,0.0037
3913.00,0.0036
3912.00,0.0036
3911.00,0.0036
3910.00,0.0036
3909.00,0.0036
3908.00,0.0036
3907.00,0.0036
3906.00,0.0037
3905.00,0.0038
3904.00,0.0040
3903.00,0.0042
3902.00,0.0043
3901.00,0.0043
3900.00,0.0042
3899.00,0.0040
3898.00,0.0039
3897.00,0.0039
3896.00,0.0039
3895.00,0.0038
3894.00,0.0038
3893.00,0.0037
3892.00,0.0037
3891.00,0.0037
3890.00,0.0038
3889.00,0.0039
3888.00,0.0040
3887.00,0.0041
3886.00,0.0041
3885.00,0.0040
3884.00,0.0040
3883.00,0.0040
3882.00,0.0040
3881.00,0.0040
3880.00,0.0039
3879.00,0.0039
3878.00,0.0040
3877.00,0.0040
3876.00,0.0040
3875.00,0.0039
3874.00,0.0038
3873.00,0.0038
3872.00,0.0040
3871.00,0.0041
3870.00,0.0041
3869.00,0.0041
3868.00,0.0041
3867.00,0.0042
3866.00,0.0042
3865.00,0.0041
3864.00,0.0041
3863.00,0.0041
3862.00,0.0041
3861.00,0.0042
3860.00,0.0041
3859.00,0.0040
3858.00,0.0038
3857.00,0.0036
3856.00,0.0035
3855.00,0.0035
3854.00,0.0036
3853.00,0.0038
3852.00,0.0039
3851.00,0.0040
3850.00,0.0041
3849.00,0.0041
3848.00,0.0041
3847.00,0.0041
3846.00,0.0040
3845.00,0.0040
3844.00,0.0040
3843.00,0.0040
3842.00,0.0041
3841.00,0.0041
3840.00,0.0042
3839.00,0.0042
3838.00,0.0042
3837.00,0.0042
3836.00,0.0042
3835.00,0.0041
3834.00,0.0041
3833.00,0.0041
3832.00,0.0041
3831.00,0.0041
3830.00,0.0040
3829.00,0.0040
3828.00,0.0040
3827.00,0.0040
3826.00,0.0039
3825.00,0.0040
3824.00,0.0041
3823.00,0.0042
3822.00,0.0042
3821.00,0.0041
3820.00,0.0041
3819.00,0.0041
3818.00,0.0042
3817.00,0.0042
3816.00,0.0041
3815.00,0.0040
3814.00,0.0039
3813.00,0.0038
3812.00,0.0038
3811.00,0.0038
3810.00,0.0038
3809.00,0.0038
3808.00,0.0039
3807.00,0.0039
3806.00,0.0040
3805.00,0.0041
3804.00,0.0042
3803.00,0.0042
3802.00,0.0041
3801.00,0.0040
3800.00,0.0040
3799.00,0.0040
3798.00,0.0041
3797.00,0.0040
3796.00,0.0039
3795.00,0.0038
3794.00,0.0038
3793.00,0.0037
3792.00,0.0036
3791.00,0.0036
3790.00,0.0035
3789.00,0.0035
3788.00,0.0035
3787.00,0.0035
3786.00,0.0035
3785.00,0.0036
3784.00,0.0036
3783.00,0.0037
3782.00,0.0037
3781.00,0.0037
3780.00,0.0037
3779.00,0.0037
3778.00,0.0037
3777.00,0.0037
3776.00,0.0037
3775.00,0.0036
3774.00,0.0036
3773.00,0.0036
3772.00,0.0037
3771.00,0.0038
3770.00,0.0038
3769.00,0.0039
3768.00,0.0039
3767.00,0.0040
3766.00,0.0040
3765.00,0.0039
3764.00,0.0039
3763.00,0.0039
3762.00,0.0040
3761.00,0.0040
3760.00,0.0040
3759.00,0.0040
3758.00,0.0040
3757.00,0.0041
3756.00,0.0041
3755.00,0.0042
3754.00,0.0043
3753.00,0.0044
3752.00,0.0045
3751.00,0.0047
3750.00,0.0048
3749.00,0.0048
3748.00,0.0047
3747.00,0.0047
3746.00,0.0047
3745.00,0.0046
3744.00,0.0045
3743.00,0.0045
3742.00,0.0045
3741.00,0.0046
3740.00,0.0047
3739.00,0.0048
3738.00,0.0049
3737.00,0.0049
3736.00,0.0048
3735.00,0.0047
3734.00,0.0046
3733.00,0.0046
3732.00,0.0045
3731.00,0.0043
3730.00,0.0042
3729.00,0.0041
3728.00,0.0041
3727.00,0.0041
3726.00,0.0040
3725.00,0.0040
3724.00,0.0040
3723.00,0.0039
3722.00,0.0039
3721.00,0.0038
3720.00,0.0037
3719.00,0.0037
3718.00,0.0037
3717.00,0.0037
3716.00,0.0038
3715.00,0.0039
3714.00,0.0040
3713.00,0.0040
3712.00,0.0040
3711.00,0.0040
3710.00,0.0040
3709.00,0.0040
3708.00,0.0039
3707.00,0.0038
3706.00,0.0037
3705.00,0.0037
3704.00,0.0036
3703.00,0.0035
3702.00,0.0035
3701.00,0.0034
3700.00,0.0034
3699.00,0.0035
3698.00,0.0035
3697.00,0.0035
3696.00,0.0035
3695.00,0.0035
3694.00,0.0036
3693.00,0.0036
3692.00,0.0036
3691.00,0.0036
3690.00,0.0037
3689.00,0.0039
3688.00,0.0039
3687.00,0.0039
3686.00,0.0039
3685.00,0.0038
3684.00,0.0038
3683.00,0.0038
3682.00,0.0038
3681.00,0.0038
3680.00,0.0038
3679.00,0.0039
3678.00,0.0040
3677.00,0.0042
3676.00,0.0043
3675.00,0.0043
3674.00,0.0043
3673.00,0.0044
3672.00,0.0045
3671.00,0.0045
3670.00,0.0043
3669.00,0.0042
3668.00,0.0041
3667.00,0.0041
3666.00,0.0040
3665.00,0.0040
3664.00,0.0039
3663.00,0.0038
3662.00,0.0038
3661.00,0.0038
3660.00,0.0039
3659.00,0.0039
3658.00,0.0040
3657.00,0.0041
3656.00,0.0041
3655.00,0.0042
3654.00,0.0043
3653.00,0.0045
3652.00,0.0047
3651.00,0.0048
3650.00,0.0049
3649.00,0.0050
3648.00,0.0050
3647.00,0.0049
3646.00,0.0048
3645.00,0.0046
3644.00,0.0045
3643.00,0.0044
3642.00,0.0043
3641.00,0.0042
3640.00,0.0042
3639.00,0.0042
3638.00,0.0042
3637.00,0.0042
3636.00,0.0043
3635.00,0.0044
3634.00,0.0044
3633.00,0.0045
3632.00,0.0046
3631.00,0.0047
3630.00,0.0048
3629.00,0.0049
3628.00,0.0049
3627.00,0.0049
3626.00,0.0050
3625.00,0.0050
3624.00,0.0050
3623.00,0.0049
3622.00,0.0049
3621.00,0.0048
3620.00,0.0048
3619.00,0.0048
3618.00,0.0049
3617.00,0.0051
3616.00,0.0052
3615.00,0.0053
3614.00,0.0054
3613.00,0.0054
3612.00,0.0054
3611.00,0.0055
3610.00,0.0056
3609.00,0.0055
3608.00,0.0054
3607.00,0.0053
3606.00,0.0053
3605.00,0.0053
3604.00,0.0053
3603.00,0.0052
3602.00,0.0052
3601.00,0.0053
3600.00,0.0053
3599.00,0.0054
3598.00,0.0054
3597.00,0.0055
3596.00,0.0055
3595.00,0.0055
3594.00,0.0055
3593.00,0.0056
3592.00,0.0057
3591.00,0.0058
3590.00,0.0059
3589.00,0.0059
3588.00,0.0059
3587.00,0.0058
3586.00,0.0059
3585.00,0.0059
3584.00,0.0059
3583.00,0.0059
3582.00,0.0058
3581.00,0.0058
3580.00,0.0058
3579.00,0.0057
3578.00,0.0058
3577.00,0.0058
3576.00,0.0058
3575.00,0.0058
3574.00,0.0059
3573.00,0.0060
3572.00,0.0061
3571.00,0.0063
3570.00,0.0064
3569.00,0.0066
3568.00,0.0066
3567.00,0.0066
3566.00,0.0066
3565.00,0.0066
3564.00,0.0066
3563.00,0.0066
3562.00,0.0066
3561.00,0.0066
3560.00,0.0065
3559.00,0.0065
3558.00,0.0065
3557.00,0.0066
3556.00,0.0066
3555.00,0.0067
3554.00,0.0067
3553.00,0.0067
3552.00,0.0068
3551.00,0.0069
3550.00,0.0070
3549.00,0.0071
3548.00,0.0072
3547.00,0.0072
3546.00,0.0072
3545.00,0.0072
3544.00,0.0072
3543.00,0.0072
3542.00,0.0072
3541.00,0.0072
3540.00,0.0072
3539.00,0.0072
3538.00,0.0073
3537.00,0.0073
3536.00,0.0073
3535.00,0.0074
3534.00,0.0074
3533.00,0.0075
3532.00,0.0075
3531.00,0.0076
3530.00,0.0076
3529.00,0.0077
3528.00,0.0077
3527.00,0.0078
3526.00,0.0079
3525.00,0.0080
3524.00,0.0080
3523.00,0.0080
3522.00,0.0080
3521.00,0.0080
3520.00,0.0080
3519.00,0.0080
3518.00,0.0080
3517.00,0.0080
3516.00,0.0081
3515.00,0.0081
3514.00,0.0081
3513.00,0.0082
3512.00,0.0082
3511.00,0.0082
3510.00,0.0082
3509.00,0.0083
3508.00,0.0084
3507.00,0.0084
3506.00,0.0085
3505.00,0.0085
3504.00,0.0086
3503.00,0.0086
3502.00,0.0086
3501.00,0.0086
3500.00,0.0087
3499.00,0.0087
3498.00,0.0087
3497.00,0.0088
3496.00,0.0088
3495.00,0.0088
3494.00,0.0089
3493.00,0.0089
3492.00,0.0089
3491.00,0.0090
3490.00,0.0090
3489.00,0.0090
3488.00,0.0091
3487.00,0.0091
3486.00,0.0091
3485.00,0.0092
3484.00,0.0092
3483.00,0.0092
3482.00,0.0092
3481.00,0.0093
3480.00,0.0093
3479.00,0.0094
3478.00,0.0094
3477.00,0.0094
3476.00,0.0094
3475.00,0.0094
3474.00,0.0095
3473.00,0.0095
3472.00,0.0096
3471.00,0.0096
3470.00,0.0096
3469.00,0.0097
3468.00,0.0097
3467.00,0.0097
3466.00,0.0098
3465.00,0.0098
3464.00,0.0098
3463.00,0.0098
3462.00,0.0099
3461.00,0.0099
3460.00,0.0100
3459.00,0.0100
3458.00,0.0100
3457.00,0.0100
3456.00,0.0101
3455.00,0.0101
3454.00,0.0101
3453.00,0.0102
3452.00,0.0102
3451.00,0.0102
3450.00,0.0103
3449.00,0.0103
3448.00,0.0104
3447.00,0.0104
3446.00,0.0104
3445.00,0.0105
3444.00,0.0105
3443.00,0.0105
3442.00,0.0105
3441.00,0.0106
3440.00,0.0106
3439.00,0.0107
3438.00,0.0107
3437.00,0.0107
3436.00,0.0108
3435.00,0.0108
3434.00,0.0109
3433.00,0.0109
3432.00,0.0110
3431.00,0.0110
3430.00,0.0110
3429.00,0.0110
3428.00,0.0110
3427.00,0.0111
3426.00,0.0111
3425.00,0.0111
3424.00,0.0112
3423.00,0.0112
3422.00,0.0112
3421.00,0.0113
3420.00,0.0113
3419.00,0.0114
3418.00,0.0114
3417.00,0.0115
3416.00,0.0115
3415.00,0.0116
3414.00,0.0116
3413.00,0.0116
3412.00,0.0117
3411.00,0.0117
3410.00,0.0118
3409.00,0.0118
3408.00,0.0118
3407.00,0.0119
3406.00,0.0119
3405.00,0.0119
3404.00,0.0120
3403.00,0.0120
3402.00,0.0121
3401.00,0.0121
3400.00,0.0122
3399.00,0.0122
3398.00,0.0123
3397.00,0.0123
3396.00,0.0123
3395.00,0.0124
3394.00,0.0124
3393.00,0.0124
3392.00,0.0124
3391.00,0.0125
3390.00,0.0125
3389.00,0.0125
3388.00,0.0126
3387.00,0.0126
3386.00,0.0126
3385.00,0.0126
3384.00,0.0127
3383.00,0.0127
3382.00,0.0128
3381.00,0.0128
3380.00,0.0129
3379.00,0.0129
3378.00,0.0130
3377.00,0.0130
3376.00,0.0130
3375.00,0.0131
3374.00,0.0131
3373.00,0.0132
3372.00,0.0132
3371.00,0.0133
3370.00,0.0134
3369.00,0.0134
3368.00,0.0135
3367.00,0.0135
3366.00,0.0136
3365.00,0.0136
3364.00,0.0136
3363.00,0.0137
3362.00,0.0137
3361.00,0.0138
3360.00,0.0138
3359.00,0.0139
3358.00,0.0139
3357.00,0.0140
3356.00,0.0140
3355.00,0.0141
3354.00,0.0141
3353.00,0.0142
3352.00,0.0143
3351.00,0.0143
3350.00,0.0144
3349.00,0.0144
3348.00,0.0145
3347.00,0.0146
3346.00,0.0147
3345.00,0.0147
3344.00,0.0148
3343.00,0.0149
3342.00,0.0150
3341.00,0.0151
3340.00,0.0152
3339.00,0.0152
3338.00,0.0153
3337.00,0.0153
3336.00,0.0154
3335.00,0.0154
3334.00,0.0155
3333.00,0.0156
3332.00,0.0157
3331.00,0.0158
3330.00,0.0159
3329.00,0.0160
3328.00,0.0161
3327.00,0.0162
3326.00,0.0163
3325.00,0.0164
3324.00,0.0165
3323.00,0.0166
3322.00,0.0166
3321.00,0.0167
3320.00,0.0168
3319.00,0.0169
3318.00,0.0170
3317.00,0.0172
3316.00,0.0173
3315.00,0.0174
3314.00,0.0175
3313.00,0.0177
3312.00,0.0178
3311.00,0.0179
3310.00,0.0181
3309.00,0.0182
3308.00,0.0183
3307.00,0.0185
3306.00,0.0186
3305.00,0.0187
3304.00,0.0188
3303.00,0.0189
3302.00,0.0190
3301.00,0.0191
3300.00,0.0193
3299.00,0.0194
3298.00,0.0195
3297.00,0.0197
3296.00,0.0198
3295.00,0.0200
3294.00,0.0201
3293.00,0.0202
3292.00,0.0203
3291.00,0.0204
3290.00,0.0205
3289.00,0.0206
3288.00,0.0206
3287.00,0.0207
3286.00,0.0208
3285.00,0.0209
3284.00,0.0210
3283.00,0.0210
3282.00,0.0211
3281.00,0.0212
3280.00,0.0212
3279.00,0.0212
3278.00,0.0213
3277.00,0.0213
3276.00,0.0214
3275.00,0.0214
3274.00,0.0214
3273.00,0.0214
3272.00,0.0214
3271.00,0.0214
3270.00,0.0213
3269.00,0.0213
3268.00,0.0212
3267.00,0.0211
3266.00,0.0210
3265.00,0.0210
3264.00,0.0209
3263.00,0.0208
3262.00,0.0207
3261.00,0.0206
3260.00,0.0205
3259.00,0.0205
3258.00,0.0204
3257.00,0.0203
3256.00,0.0202
3255.00,0.0201
3254.00,0.0200
3253.00,0.0199
3252.00,0.0198
3251.00,0.0197
3250.00,0.0196
3249.00,0.0196
3248.00,0.0195
3247.00,0.0194
3246.00,0.0193
3245.00,0.0192
3244.00,0.0191
3243.00,0.0190
3242.00,0.0189
3241.00,0.0188
3240.00,0.0187
3239.00,0.0186
3238.00,0.0185
3237.00,0.0185
3236.00,0.0184
3235.00,0.0183
3234.00,0.0183
3233.00,0.0182
3232.00,0.0181
3231.00,0.0180
3230.00,0.0179
3229.00,0.0178
3228.00,0.0178
3227.00,0.0177
3226.00,0.0176
3225.00,0.0175
3224.00,0.0175
3223.00,0.0174
3222.00,0.0173
3221.00,0.0173
3220.00,0.0172
3219.00,0.0171
3218.00,0.0171
3217.00,0.0170
3216.00,0.0169
3215.00,0.0169
3214.00,0.0168
3213.00,0.0167
3212.00,0.0167
3211.00,0.0166
3210.00,0.0165
3209.00,0.0164
3208.00,0.0164
3207.00,0.0163
3206.00,0.0162
3205.00,0.0162
3204.00,0.0161
3203.00,0.0160
3202.00,0.0160
3201.00,0.0159
3200.00,0.0159
3199.00,0.0158
3198.00,0.0157
3197.00,0.0157
3196.00,0.0156
3195.00,0.0155
3194.00,0.0155
3193.00,0.0154
3192.00,0.0153
3191.00,0.0153
3190.00,0.0152
3189.00,0.0151
3188.00,0.0150
3187.00,0.0149
3186.00,0.0149
3185.00,0.0148
3184.00,0.0147
3183.00,0.0147
3182.00,0.0146
3181.00,0.0145
3180.00,0.0145
3179.00,0.0144
3178.00,0.0143
3177.00,0.0142
3176.00,0.0142
3175.00,0.0141
3174.00,0.0140
3173.00,0.0139
3172.00,0.0139
3171.00,0.0138
3170.00,0.0137
3169.00,0.0137
3168.00,0.0136
3167.00,0.0135
3166.00,0.0134
3165.00,0.0134
3164.00,0.0133
3163.00,0.0133
3162.00,0.0132
3161.00,0.0132
3160.00,0.0131
3159.00,0.0131
3158.00,0.0130
3157.00,0.0130
3156.00,0.0129
3155.00,0.0128
3154.00,0.0128
3153.00,0.0128
3152.00,0.0127
3151.00,0.0126
3150.00,0.0126
3149.00,0.0125
3148.00,0.0125
3147.00,0.0124
3146.00,0.0124
3145.00,0.0123
3144.00,0.0123
3143.00,0.0122
3142.00,0.0122
3141.00,0.0122
3140.00,0.0121
3139.00,0.0121
3138.00,0.0120
3137.00,0.0120
3136.00,0.0120
3135.00,0.0119
3134.00,0.0119
3133.00,0.0119
3132.00,0.0118
3131.00,0.0118
3130.00,0.0118
3129.00,0.0117
3128.00,0.0117
3127.00,0.0117
3126.00,0.0117
3125.00,0.0117
3124.00,0.0117
3123.00,0.0117
3122.00,0.0116
3121.00,0.0117
3120.00,0.0117
3119.00,0.0117
3118.00,0.0117
3117.00,0.0117
3116.00,0.0116
3115.00,0.0116
3114.00,0.0116
3113.00,0.0116
3112.00,0.0116
3111.00,0.0116
3110.00,0.0116
3109.00,0.0116
3108.00,0.0116
3107.00,0.0116
3106.00,0.0116
3105.00,0.0116
3104.00,0.0116
3103.00,0.0116
3102.00,0.0116
3101.00,0.0116
3100.00,0.0116
3099.00,0.0117
3098.00,0.0117
3097.00,0.0117
3096.00,0.0117
3095.00,0.0117
3094.00,0.0117
3093.00,0.0117
3092.00,0.0118
3091.00,0.0118
3090.00,0.0118
3089.00,0.0118
3088.00,0.0118
3087.00,0.0118
3086.00,0.0118
3085.00,0.0118
3084.00,0.0118
3083.00,0.0119
3082.00,0.0119
3081.00,0.0119
3080.00,0.0119
3079.00,0.0119
3078.00,0.0119
3077.00,0.0119
3076.00,0.0119
3075.00,0.0119
3074.00,0.0119
3073.00,0.0119
3072.00,0.0119
3071.00,0.0118
3070.00,0.0118
3069.00,0.0118
3068.00,0.0118
3067.00,0.0118
3066.00,0.0118
3065.00,0.0118
3064.00,0.0118
3063.00,0.0117
3062.00,0.0117
3061.00,0.0116
3060.00,0.0116
3059.00,0.0116
3058.00,0.0115
3057.00,0.0115
3056.00,0.0115
3055.00,0.0114
3054.00,0.0114
3053.00,0.0113
3052.00,0.0113
3051.00,0.0112
3050.00,0.0112
3049.00,0.0112
3048.00,0.0111
3047.00,0.0111
3046.00,0.0110
3045.00,0.0110
3044.00,0.0109
3043.00,0.0109
3042.00,0.0108
3041.00,0.0108
3040.00,0.0107
3039.00,0.0107
3038.00,0.0106
3037.00,0.0106
3036.00,0.0105
3035.00,0.0105
3034.00,0.0105
3033.00,0.0104
3032.00,0.0104
3031.00,0.0103
3030.00,0.0103
3029.00,0.0102
3028.00,0.0102
3027.00,0.0101
3026.00,0.0101
3025.00,0.0101
3024.00,0.0100
3023.00,0.0100
3022.00,0.0100
3021.00,0.0099
3020.00,0.0099
3019.00,0.0099
3018.00,0.0098
3017.00,0.0098
3016.00,0.0098
3015.00,0.0097
3014.00,0.0097
3013.00,0.0097
3012.00,0.0097
3011.00,0.0097
3010.00,0.0097
3009.00,0.0097
3008.00,0.0097
3007.00,0.0097
3006.00,0.0097
3005.00,0.0097
3004.00,0.0097
3003.00,0.0098
3002.00,0.0098
3001.00,0.0098
3000.00,0.0098
2999.00,0.0099
2998.00,0.0099
2997.00,0.0099
2996.00,0.0099
2995.00,0.0100
2994.00,0.0100
2993.00,0.0100
2992.00,0.0101
2991.00,0.0101
2990.00,0.0101
2989.00,0.0102
2988.00,0.0102
2987.00,0.0103
2986.00,0.0103
2985.00,0.0104
2984.00,0.0105
2983.00,0.0107
2982.00,0.0107
2981.00,0.0108
2980.00,0.0108
2979.00,0.0108
2978.00,0.0107
2977.00,0.0107
2976.00,0.0107
2975.00,0.0107
2974.00,0.0107
2973.00,0.0107
2972.00,0.0107
2971.00,0.0107
2970.00,0.0107
2969.00,0.0106
2968.00,0.0106
2967.00,0.0106
2966.00,0.0105
2965.00,0.0105
2964.00,0.0105
2963.00,0.0105
2962.00,0.0105
2961.00,0.0105
2960.00,0.0104
2959.00,0.0104
2958.00,0.0104
2957.00,0.0104
2956.00,0.0103
2955.00,0.0103
2954.00,0.0102
2953.00,0.0102
2952.00,0.0101
2951.00,0.0100
2950.00,0.0100
2949.00,0.0099
2948.00,0.0099
2947.00,0.0099
2946.00,0.0099
2945.00,0.0099
2944.00,0.0099
2943.00,0.0100
2942.00,0.0100
2941.00,0.0101
2940.00,0.0101
2939.00,0.0102
2938.00,0.0103
2937.00,0.0104
2936.00,0.0105
2935.00,0.0106
2934.00,0.0107
2933.00,0.0109
2932.00,0.0110
2931.00,0.0112
2930.00,0.0113
2929.00,0.0115
2928.00,0.0117
2927.00,0.0118
2926.00,0.0121
2925.00,0.0124
2924.00,0.0127
2923.00,0.0130
2922.00,0.0134
2921.00,0.0138
2920.00,0.0142
2919.00,0.0146
2918.00,0.0149
2917.00,0.0150
2916.00,0.0148
2915.00,0.0145
2914.00,0.0139
2913.00,0.0133
2912.00,0.0127
2911.00,0.0122
2910.00,0.0117
2909.00,0.0114
2908.00,0.0111
2907.00,0.0109
2906.00,0.0108
2905.00,0.0107
2904.00,0.0105
2903.00,0.0104
2902.00,0.0104
2901.00,0.0103
2900.00,0.0102
2899.00,0.0102
2898.00,0.0101
2897.00,0.0101
2896.00,0.0101
2895.00,0.0100
2894.00,0.0100
2893.00,0.0100
2892.00,0.0099
2891.00,0.0099
2890.00,0.0099
2889.00,0.0098
2888.00,0.0098
2887.00,0.0098
2886.00,0.0098
2885.00,0.0097
2884.00,0.0097
2883.00,0.0097
2882.00,0.0097
2881.00,0.0097
2880.00,0.0096
2879.00,0.0096
2878.00,0.0096
2877.00,0.0096
2876.00,0.0095
2875.00,0.0095
2874.00,0.0095
2873.00,0.0094
2872.00,0.0094
2871.00,0.0093
2870.00,0.0092
2869.00,0.0092
2868.00,0.0091
2867.00,0.0091
2866.00,0.0091
2865.00,0.0091
2864.00,0.0091
2863.00,0.0091
2862.00,0.0091
2861.00,0.0092
2860.00,0.0092
2859.00,0.0093
2858.00,0.0094
2857.00,0.0095
2856.00,0.0096
2855.00,0.0098
2854.00,0.0101
2853.00,0.0105
2852.00,0.0110
2851.00,0.0114
2850.00,0.0118
2849.00,0.0119
2848.00,0.0117
2847.00,0.0112
2846.00,0.0107
2845.00,0.0101
2844.00,0.0096
2843.00,0.0093
2842.00,0.0090
2841.00,0.0088
2840.00,0.0087
2839.00,0.0085
2838.00,0.0084
2837.00,0.0084
2836.00,0.0083
2835.00,0.0083
2834.00,0.0082
2833.00,0.0082
2832.00,0.0081
2831.00,0.0081
2830.00,0.0081
2829.00,0.0080
2828.00,0.0080
2827.00,0.0080
2826.00,0.0080
2825.00,0.0080
2824.00,0.0079
2823.00,0.0079
2822.00,0.0079
2821.00,0.0079
2820.00,0.0079
2819.00,0.0079
2818.00,0.0079
2817.00,0.0079
2816.00,0.0078
2815.00,0.0078
2814.00,0.0078
2813.00,0.0078
2812.00,0.0078
2811.00,0.0078
2810.00,0.0078
2809.00,0.0078
2808.00,0.0078
2807.00,0.0077
2806.00,0.0077
2805.00,0.0077
2804.00,0.0077
2803.00,0.0077
2802.00,0.0077
2801.00,0.0077
2800.00,0.0076
2799.00,0.0076
2798.00,0.0076
2797.00,0.0076
2796.00,0.0076
2795.00,0.0076
2794.00,0.0075
2793.00,0.0075
2792.00,0.0075
2791.00,0.0075
2790.00,0.0075
2789.00,0.0075
2788.00,0.0074
2787.00,0.0074
2786.00,0.0074
2785.00,0.0074
2784.00,0.0074
2783.00,0.0073
2782.00,0.0073
2781.00,0.0073
2780.00,0.0073
2779.00,0.0073
2778.00,0.0073
2777.00,0.0073
2776.00,0.0073
2775.00,0.0073
2774.00,0.0072
2773.00,0.0072
2772.00,0.0072
2771.00,0.0072
2770.00,0.0072
2769.00,0.0071
2768.00,0.0071
2767.00,0.0071
2766.00,0.0071
2765.00,0.0071
2764.00,0.0071
2763.00,0.0071
2762.00,0.0071
2761.00,0.0070
2760.00,0.0070
2759.00,0.0070
2758.00,0.0070
2757.00,0.0070
