Created as New Dataset,Sample 148 By YargerLab Date Wednesday, June 05 2024
cm-1,A
4000.00,0.0101
3999.00,0.0101
3998.00,0.0101
3997.00,0.0101
3996.00,0.0101
3995.00,0.0101
3994.00,0.0101
3993.00,0.0101
3992.00,0.0101
3991.00,0.0101
3990.00,0.0101
3989.00,0.0101
3988.00,0.0101
3987.00,0.0101
3986.00,0.0101
3985.00,0.0101
3984.00,0.0101
3983.00,0.0101
3982.00,0.0101
3981.00,0.0101
3980.00,0.0101
3979.00,0.0101
3978.00,0.0101
3977.00,0.0101
3976.00,0.0101
3975.00,0.0101
3974.00,0.0101
3973.00,0.0101
3972.00,0.0101
3971.00,0.0101
3970.00,0.0101
3969.00,0.0101
3968.00,0.0101
3967.00,0.0100
3966.00,0.0100
3965.00,0.0100
3964.00,0.0100
3963.00,0.0100
3962.00,0.0100
3961.00,0.0100
3960.00,0.0100
3959.00,0.0100
3958.00,0.0100
3957.00,0.0100
3956.00,0.0100
3955.00,0.0100
3954.00,0.0100
3953.00,0.0100
3952.00,0.0100
3951.00,0.0100
3950.00,0.0100
3949.00,0.0100
3948.00,0.0100
3947.00,0.0100
3946.00,0.0100
3945.00,0.0101
3944.00,0.0101
3943.00,0.0100
3942.00,0.0100
3941.00,0.0100
3940.00,0.0100
3939.00,0.0100
3938.00,0.0100
3937.00,0.0100
3936.00,0.0100
3935.00,0.0100
3934.00,0.0100
3933.00,0.0100
3932.00,0.0100
3931.00,0.0100
3930.00,0.0100
3929.00,0.0100
3928.00,0.0100
3927.00,0.0100
3926.00,0.0100
3925.00,0.0100
3924.00,0.0100
3923.00,0.0100
3922.00,0.0100
3921.00,0.0100
3920.00,0.0100
3919.00,0.0100
3918.00,0.0100
3917.00,0.0100
3916.00,0.0100
3915.00,0.0100
3914.00,0.0100
3913.00,0.0100
3912.00,0.0100
3911.00,0.0100
3910.00,0.0099
3909.00,0.0099
3908.00,0.0099
3907.00,0.0099
3906.00,0.0100
3905.00,0.0100
3904.00,0.0100
3903.00,0.0100
3902.00,0.0100
3901.00,0.0100
3900.00,0.0100
3899.00,0.0100
3898.00,0.0100
3897.00,0.0099
3896.00,0.0099
3895.00,0.0099
3894.00,0.0099
3893.00,0.0099
3892.00,0.0099
3891.00,0.0099
3890.00,0.0099
3889.00,0.0099
3888.00,0.0099
3887.00,0.0099
3886.00,0.0099
3885.00,0.0099
3884.00,0.0099
3883.00,0.0099
3882.00,0.0099
3881.00,0.0100
3880.00,0.0099
3879.00,0.0099
3878.00,0.0099
3877.00,0.0099
3876.00,0.0099
3875.00,0.0099
3874.00,0.0099
3873.00,0.0099
3872.00,0.0099
3871.00,0.0099
3870.00,0.0099
3869.00,0.0099
3868.00,0.0099
3867.00,0.0099
3866.00,0.0099
3865.00,0.0099
3864.00,0.0099
3863.00,0.0099
3862.00,0.0099
3861.00,0.0098
3860.00,0.0098
3859.00,0.0098
3858.00,0.0098
3857.00,0.0098
3856.00,0.0098
3855.00,0.0099
3854.00,0.0098
3853.00,0.0098
3852.00,0.0099
3851.00,0.0099
3850.00,0.0099
3849.00,0.0099
3848.00,0.0098
3847.00,0.0098
3846.00,0.0098
3845.00,0.0098
3844.00,0.0098
3843.00,0.0098
3842.00,0.0098
3841.00,0.0098
3840.00,0.0098
3839.00,0.0098
3838.00,0.0098
3837.00,0.0098
3836.00,0.0098
3835.00,0.0098
3834.00,0.0098
3833.00,0.0098
3832.00,0.0098
3831.00,0.0098
3830.00,0.0097
3829.00,0.0097
3828.00,0.0097
3827.00,0.0097
3826.00,0.0097
3825.00,0.0097
3824.00,0.0097
3823.00,0.0098
3822.00,0.0098
3821.00,0.0098
3820.00,0.0097
3819.00,0.0097
3818.00,0.0098
3817.00,0.0098
3816.00,0.0098
3815.00,0.0097
3814.00,0.0097
3813.00,0.0097
3812.00,0.0097
3811.00,0.0097
3810.00,0.0097
3809.00,0.0097
3808.00,0.0097
3807.00,0.0097
3806.00,0.0096
3805.00,0.0097
3804.00,0.0097
3803.00,0.0097
3802.00,0.0097
3801.00,0.0097
3800.00,0.0097
3799.00,0.0097
3798.00,0.0097
3797.00,0.0097
3796.00,0.0097
3795.00,0.0097
3794.00,0.0097
3793.00,0.0097
3792.00,0.0097
3791.00,0.0097
3790.00,0.0096
3789.00,0.0096
3788.00,0.0096
3787.00,0.0096
3786.00,0.0096
3785.00,0.0096
3784.00,0.0096
3783.00,0.0096
3782.00,0.0096
3781.00,0.0097
3780.00,0.0096
3779.00,0.0096
3778.00,0.0096
3777.00,0.0096
3776.00,0.0096
3775.00,0.0096
3774.00,0.0096
3773.00,0.0096
3772.00,0.0096
3771.00,0.0096
3770.00,0.0096
3769.00,0.0096
3768.00,0.0096
3767.00,0.0097
3766.00,0.0097
3765.00,0.0097
3764.00,0.0096
3763.00,0.0096
3762.00,0.0096
3761.00,0.0096
3760.00,0.0096
3759.00,0.0096
3758.00,0.0096
3757.00,0.0096
3756.00,0.0096
3755.00,0.0096
3754.00,0.0096
3753.00,0.0096
3752.00,0.0096
3751.00,0.0096
3750.00,0.0096
3749.00,0.0096
3748.00,0.0096
3747.00,0.0096
3746.00,0.0097
3745.00,0.0096
3744.00,0.0096
3743.00,0.0096
3742.00,0.0096
3741.00,0.0096
3740.00,0.0096
3739.00,0.0096
3738.00,0.0096
3737.00,0.0096
3736.00,0.0096
3735.00,0.0096
3734.00,0.0096
3733.00,0.0096
3732.00,0.0096
3731.00,0.0096
3730.00,0.0096
3729.00,0.0095
3728.00,0.0095
3727.00,0.0095
3726.00,0.0095
3725.00,0.0095
3724.00,0.0096
3723.00,0.0096
3722.00,0.0096
3721.00,0.0096
3720.00,0.0095
3719.00,0.0095
3718.00,0.0095
3717.00,0.0095
3716.00,0.0095
3715.00,0.0095
3714.00,0.0095
3713.00,0.0095
3712.00,0.0095
3711.00,0.0095
3710.00,0.0095
3709.00,0.0095
3708.00,0.0096
3707.00,0.0095
3706.00,0.0095
3705.00,0.0095
3704.00,0.0095
3703.00,0.0095
3702.00,0.0095
3701.00,0.0095
3700.00,0.0095
3699.00,0.0095
3698.00,0.0096
3697.00,0.0095
3696.00,0.0095
3695.00,0.0095
3694.00,0.0095
3693.00,0.0096
3692.00,0.0096
3691.00,0.0096
3690.00,0.0097
3689.00,0.0097
3688.00,0.0097
3687.00,0.0097
3686.00,0.0097
3685.00,0.0097
3684.00,0.0097
3683.00,0.0096
3682.00,0.0097
3681.00,0.0097
3680.00,0.0097
3679.00,0.0098
3678.00,0.0099
3677.00,0.0100
3676.00,0.0100
3675.00,0.0100
3674.00,0.0100
3673.00,0.0100
3672.00,0.0100
3671.00,0.0101
3670.00,0.0101
3669.00,0.0101
3668.00,0.0101
3667.00,0.0101
3666.00,0.0101
3665.00,0.0101
3664.00,0.0101
3663.00,0.0101
3662.00,0.0102
3661.00,0.0102
3660.00,0.0102
3659.00,0.0102
3658.00,0.0102
3657.00,0.0103
3656.00,0.0103
3655.00,0.0104
3654.00,0.0104
3653.00,0.0105
3652.00,0.0105
3651.00,0.0106
3650.00,0.0106
3649.00,0.0107
3648.00,0.0108
3647.00,0.0109
3646.00,0.0109
3645.00,0.0109
3644.00,0.0109
3643.00,0.0109
3642.00,0.0109
3641.00,0.0110
3640.00,0.0110
3639.00,0.0110
3638.00,0.0111
3637.00,0.0111
3636.00,0.0112
3635.00,0.0112
3634.00,0.0113
3633.00,0.0113
3632.00,0.0114
3631.00,0.0115
3630.00,0.0116
3629.00,0.0117
3628.00,0.0118
3627.00,0.0118
3626.00,0.0119
3625.00,0.0119
3624.00,0.0119
3623.00,0.0119
3622.00,0.0119
3621.00,0.0120
3620.00,0.0121
3619.00,0.0121
3618.00,0.0122
3617.00,0.0123
3616.00,0.0123
3615.00,0.0124
3614.00,0.0124
3613.00,0.0125
3612.00,0.0125
3611.00,0.0126
3610.00,0.0127
3609.00,0.0128
3608.00,0.0129
3607.00,0.0129
3606.00,0.0130
3605.00,0.0130
3604.00,0.0131
3603.00,0.0131
3602.00,0.0131
3601.00,0.0132
3600.00,0.0132
3599.00,0.0133
3598.00,0.0134
3597.00,0.0135
3596.00,0.0135
3595.00,0.0136
3594.00,0.0137
3593.00,0.0138
3592.00,0.0138
3591.00,0.0139
3590.00,0.0139
3589.00,0.0141
3588.00,0.0142
3587.00,0.0143
3586.00,0.0144
3585.00,0.0145
3584.00,0.0146
3583.00,0.0146
3582.00,0.0146
3581.00,0.0147
3580.00,0.0148
3579.00,0.0148
3578.00,0.0149
3577.00,0.0150
3576.00,0.0150
3575.00,0.0151
3574.00,0.0152
3573.00,0.0153
3572.00,0.0153
3571.00,0.0154
3570.00,0.0155
3569.00,0.0156
3568.00,0.0157
3567.00,0.0159
3566.00,0.0160
3565.00,0.0161
3564.00,0.0162
3563.00,0.0163
3562.00,0.0163
3561.00,0.0164
3560.00,0.0165
3559.00,0.0166
3558.00,0.0166
3557.00,0.0167
3556.00,0.0168
3555.00,0.0168
3554.00,0.0169
3553.00,0.0170
3552.00,0.0171
3551.00,0.0172
3550.00,0.0173
3549.00,0.0173
3548.00,0.0174
3547.00,0.0175
3546.00,0.0177
3545.00,0.0178
3544.00,0.0179
3543.00,0.0180
3542.00,0.0180
3541.00,0.0181
3540.00,0.0182
3539.00,0.0182
3538.00,0.0183
3537.00,0.0184
3536.00,0.0185
3535.00,0.0186
3534.00,0.0187
3533.00,0.0188
3532.00,0.0188
3531.00,0.0189
3530.00,0.0190
3529.00,0.0191
3528.00,0.0192
3527.00,0.0193
3526.00,0.0194
3525.00,0.0195
3524.00,0.0196
3523.00,0.0197
3522.00,0.0198
3521.00,0.0199
3520.00,0.0200
3519.00,0.0201
3518.00,0.0201
3517.00,0.0202
3516.00,0.0203
3515.00,0.0204
3514.00,0.0205
3513.00,0.0206
3512.00,0.0207
3511.00,0.0208
3510.00,0.0209
3509.00,0.0210
3508.00,0.0211
3507.00,0.0212
3506.00,0.0213
3505.00,0.0214
3504.00,0.0215
3503.00,0.0216
3502.00,0.0218
3501.00,0.0219
3500.00,0.0220
3499.00,0.0221
3498.00,0.0222
3497.00,0.0223
3496.00,0.0224
3495.00,0.0225
3494.00,0.0226
3493.00,0.0227
3492.00,0.0228
3491.00,0.0229
3490.00,0.0231
3489.00,0.0232
3488.00,0.0233
3487.00,0.0234
3486.00,0.0235
3485.00,0.0236
3484.00,0.0237
3483.00,0.0238
3482.00,0.0239
3481.00,0.0241
3480.00,0.0242
3479.00,0.0243
3478.00,0.0244
3477.00,0.0245
3476.00,0.0246
3475.00,0.0247
3474.00,0.0248
3473.00,0.0250
3472.00,0.0251
3471.00,0.0252
3470.00,0.0253
3469.00,0.0254
3468.00,0.0255
3467.00,0.0256
3466.00,0.0257
3465.00,0.0258
3464.00,0.0259
3463.00,0.0260
3462.00,0.0261
3461.00,0.0262
3460.00,0.0263
3459.00,0.0264
3458.00,0.0265
3457.00,0.0266
3456.00,0.0267
3455.00,0.0268
3454.00,0.0269
3453.00,0.0271
3452.00,0.0272
3451.00,0.0273
3450.00,0.0274
3449.00,0.0275
3448.00,0.0276
3447.00,0.0277
3446.00,0.0279
3445.00,0.0280
3444.00,0.0281
3443.00,0.0282
3442.00,0.0282
3441.00,0.0283
3440.00,0.0284
3439.00,0.0285
3438.00,0.0287
3437.00,0.0288
3436.00,0.0289
3435.00,0.0290
3434.00,0.0291
3433.00,0.0292
3432.00,0.0293
3431.00,0.0295
3430.00,0.0296
3429.00,0.0297
3428.00,0.0298
3427.00,0.0299
3426.00,0.0300
3425.00,0.0301
3424.00,0.0302
3423.00,0.0303
3422.00,0.0304
3421.00,0.0305
3420.00,0.0307
3419.00,0.0308
3418.00,0.0309
3417.00,0.0310
3416.00,0.0311
3415.00,0.0312
3414.00,0.0313
3413.00,0.0314
3412.00,0.0315
3411.00,0.0316
3410.00,0.0317
3409.00,0.0318
3408.00,0.0319
3407.00,0.0320
3406.00,0.0321
3405.00,0.0322
3404.00,0.0323
3403.00,0.0324
3402.00,0.0325
3401.00,0.0326
3400.00,0.0326
3399.00,0.0327
3398.00,0.0328
3397.00,0.0329
3396.00,0.0330
3395.00,0.0331
3394.00,0.0332
3393.00,0.0332
3392.00,0.0333
3391.00,0.0335
3390.00,0.0336
3389.00,0.0337
3388.00,0.0338
3387.00,0.0339
3386.00,0.0340
3385.00,0.0341
3384.00,0.0342
3383.00,0.0343
3382.00,0.0343
3381.00,0.0344
3380.00,0.0345
3379.00,0.0347
3378.00,0.0348
3377.00,0.0349
3376.00,0.0350
3375.00,0.0351
3374.00,0.0352
3373.00,0.0353
3372.00,0.0354
3371.00,0.0355
3370.00,0.0356
3369.00,0.0358
3368.00,0.0359
3367.00,0.0361
3366.00,0.0363
3365.00,0.0364
3364.00,0.0366
3363.00,0.0367
3362.00,0.0369
3361.00,0.0371
3360.00,0.0372
3359.00,0.0374
3358.00,0.0376
3357.00,0.0377
3356.00,0.0379
3355.00,0.0381
3354.00,0.0382
3353.00,0.0384
3352.00,0.0385
3351.00,0.0387
3350.00,0.0389
3349.00,0.0392
3348.00,0.0394
3347.00,0.0396
3346.00,0.0398
3345.00,0.0399
3344.00,0.0401
3343.00,0.0403
3342.00,0.0405
3341.00,0.0407
3340.00,0.0409
3339.00,0.0411
3338.00,0.0413
3337.00,0.0416
3336.00,0.0418
3335.00,0.0421
3334.00,0.0423
3333.00,0.0425
3332.00,0.0428
3331.00,0.0430
3330.00,0.0432
3329.00,0.0434
3328.00,0.0436
3327.00,0.0438
3326.00,0.0440
3325.00,0.0443
3324.00,0.0446
3323.00,0.0448
3322.00,0.0451
3321.00,0.0454
3320.00,0.0456
3319.00,0.0459
3318.00,0.0461
3317.00,0.0464
3316.00,0.0466
3315.00,0.0469
3314.00,0.0472
3313.00,0.0474
3312.00,0.0476
3311.00,0.0478
3310.00,0.0480
3309.00,0.0482
3308.00,0.0485
3307.00,0.0487
3306.00,0.0490
3305.00,0.0493
3304.00,0.0496
3303.00,0.0500
3302.00,0.0503
3301.00,0.0505
3300.00,0.0507
3299.00,0.0509
3298.00,0.0511
3297.00,0.0513
3296.00,0.0515
3295.00,0.0516
3294.00,0.0518
3293.00,0.0520
3292.00,0.0522
3291.00,0.0524
3290.00,0.0526
3289.00,0.0528
3288.00,0.0529
3287.00,0.0530
3286.00,0.0531
3285.00,0.0532
3284.00,0.0533
3283.00,0.0533
3282.00,0.0533
3281.00,0.0533
3280.00,0.0533
3279.00,0.0533
3278.00,0.0532
3277.00,0.0531
3276.00,0.0530
3275.00,0.0528
3274.00,0.0527
3273.00,0.0526
3272.00,0.0524
3271.00,0.0522
3270.00,0.0521
3269.00,0.0519
3268.00,0.0518
3267.00,0.0516
3266.00,0.0514
3265.00,0.0511
3264.00,0.0509
3263.00,0.0506
3262.00,0.0503
3261.00,0.0501
3260.00,0.0498
3259.00,0.0495
3258.00,0.0491
3257.00,0.0488
3256.00,0.0485
3255.00,0.0483
3254.00,0.0480
3253.00,0.0478
3252.00,0.0475
3251.00,0.0472
3250.00,0.0468
3249.00,0.0465
3248.00,0.0462
3247.00,0.0459
3246.00,0.0457
3245.00,0.0456
3244.00,0.0454
3243.00,0.0452
3242.00,0.0450
3241.00,0.0447
3240.00,0.0445
3239.00,0.0443
3238.00,0.0441
3237.00,0.0438
3236.00,0.0435
3235.00,0.0433
3234.00,0.0430
3233.00,0.0429
3232.00,0.0428
3231.00,0.0427
3230.00,0.0426
3229.00,0.0425
3228.00,0.0423
3227.00,0.0421
3226.00,0.0420
3225.00,0.0418
3224.00,0.0416
3223.00,0.0414
3222.00,0.0413
3221.00,0.0411
3220.00,0.0409
3219.00,0.0408
3218.00,0.0407
3217.00,0.0405
3216.00,0.0404
3215.00,0.0402
3214.00,0.0401
3213.00,0.0399
3212.00,0.0398
3211.00,0.0396
3210.00,0.0395
3209.00,0.0394
3208.00,0.0392
3207.00,0.0391
3206.00,0.0389
3205.00,0.0388
3204.00,0.0386
3203.00,0.0385
3202.00,0.0383
3201.00,0.0382
3200.00,0.0380
3199.00,0.0378
3198.00,0.0377
3197.00,0.0375
3196.00,0.0374
3195.00,0.0372
3194.00,0.0370
3193.00,0.0368
3192.00,0.0367
3191.00,0.0365
3190.00,0.0363
3189.00,0.0361
3188.00,0.0359
3187.00,0.0357
3186.00,0.0356
3185.00,0.0354
3184.00,0.0352
3183.00,0.0350
3182.00,0.0349
3181.00,0.0347
3180.00,0.0345
3179.00,0.0343
3178.00,0.0341
3177.00,0.0339
3176.00,0.0337
3175.00,0.0335
3174.00,0.0334
3173.00,0.0332
3172.00,0.0330
3171.00,0.0328
3170.00,0.0326
3169.00,0.0324
3168.00,0.0323
3167.00,0.0321
3166.00,0.0319
3165.00,0.0318
3164.00,0.0316
3163.00,0.0314
3162.00,0.0313
3161.00,0.0311
3160.00,0.0309
3159.00,0.0308
3158.00,0.0306
3157.00,0.0304
3156.00,0.0302
3155.00,0.0301
3154.00,0.0299
3153.00,0.0298
3152.00,0.0296
3151.00,0.0295
3150.00,0.0294
3149.00,0.0293
3148.00,0.0292
3147.00,0.0290
3146.00,0.0289
3145.00,0.0288
3144.00,0.0287
3143.00,0.0285
3142.00,0.0284
3141.00,0.0282
3140.00,0.0281
3139.00,0.0280
3138.00,0.0279
3137.00,0.0279
3136.00,0.0278
3135.00,0.0277
3134.00,0.0276
3133.00,0.0275
3132.00,0.0274
3131.00,0.0273
3130.00,0.0272
3129.00,0.0272
3128.00,0.0271
3127.00,0.0271
3126.00,0.0270
3125.00,0.0269
3124.00,0.0268
3123.00,0.0267
3122.00,0.0266
3121.00,0.0265
3120.00,0.0265
3119.00,0.0264
3118.00,0.0264
3117.00,0.0263
3116.00,0.0264
3115.00,0.0264
3114.00,0.0264
3113.00,0.0264
3112.00,0.0264
3111.00,0.0264
3110.00,0.0264
3109.00,0.0264
3108.00,0.0264
3107.00,0.0264
3106.00,0.0264
3105.00,0.0264
3104.00,0.0264
3103.00,0.0264
3102.00,0.0264
3101.00,0.0264
3100.00,0.0264
3099.00,0.0264
3098.00,0.0265
3097.00,0.0265
3096.00,0.0266
3095.00,0.0266
3094.00,0.0266
3093.00,0.0266
3092.00,0.0266
3091.00,0.0266
3090.00,0.0266
3089.00,0.0267
3088.00,0.0267
3087.00,0.0267
3086.00,0.0267
3085.00,0.0267
3084.00,0.0267
3083.00,0.0267
3082.00,0.0267
3081.00,0.0267
3080.00,0.0267
3079.00,0.0267
3078.00,0.0267
3077.00,0.0268
3076.00,0.0269
3075.00,0.0269
3074.00,0.0269
3073.00,0.0269
3072.00,0.0269
3071.00,0.0268
3070.00,0.0268
3069.00,0.0267
3068.00,0.0266
3067.00,0.0266
3066.00,0.0266
3065.00,0.0266
3064.00,0.0266
3063.00,0.0266
3062.00,0.0266
3061.00,0.0265
3060.00,0.0264
3059.00,0.0263
3058.00,0.0262
3057.00,0.0261
3056.00,0.0260
3055.00,0.0259
3054.00,0.0258
3053.00,0.0257
3052.00,0.0256
3051.00,0.0255
3050.00,0.0254
3049.00,0.0253
3048.00,0.0252
3047.00,0.0251
3046.00,0.0249
3045.00,0.0248
3044.00,0.0246
3043.00,0.0245
3042.00,0.0244
3041.00,0.0244
3040.00,0.0243
3039.00,0.0243
3038.00,0.0242
3037.00,0.0241
3036.00,0.0240
3035.00,0.0239
3034.00,0.0238
3033.00,0.0237
3032.00,0.0237
3031.00,0.0237
3030.00,0.0236
3029.00,0.0235
3028.00,0.0235
3027.00,0.0233
3026.00,0.0232
3025.00,0.0231
3024.00,0.0230
3023.00,0.0229
3022.00,0.0228
3021.00,0.0227
3020.00,0.0226
3019.00,0.0225
3018.00,0.0224
3017.00,0.0223
3016.00,0.0222
3015.00,0.0221
3014.00,0.0221
3013.00,0.0221
3012.00,0.0221
3011.00,0.0221
3010.00,0.0222
3009.00,0.0222
3008.00,0.0222
3007.00,0.0223
3006.00,0.0222
3005.00,0.0222
3004.00,0.0223
3003.00,0.0223
3002.00,0.0223
3001.00,0.0223
3000.00,0.0224
2999.00,0.0224
2998.00,0.0225
2997.00,0.0226
2996.00,0.0227
2995.00,0.0228
2994.00,0.0229
2993.00,0.0230
2992.00,0.0232
2991.00,0.0234
2990.00,0.0236
2989.00,0.0238
2988.00,0.0240
2987.00,0.0242
2986.00,0.0244
2985.00,0.0246
2984.00,0.0248
2983.00,0.0250
2982.00,0.0252
2981.00,0.0254
2980.00,0.0256
2979.00,0.0258
2978.00,0.0261
2977.00,0.0263
2976.00,0.0265
2975.00,0.0267
2974.00,0.0270
2973.00,0.0272
2972.00,0.0274
2971.00,0.0276
2970.00,0.0278
2969.00,0.0279
2968.00,0.0281
2967.00,0.0282
2966.00,0.0284
2965.00,0.0285
2964.00,0.0285
2963.00,0.0286
2962.00,0.0287
2961.00,0.0287
2960.00,0.0287
2959.00,0.0287
2958.00,0.0287
2957.00,0.0286
2956.00,0.0286
2955.00,0.0285
2954.00,0.0283
2953.00,0.0283
2952.00,0.0282
2951.00,0.0281
2950.00,0.0281
2949.00,0.0281
2948.00,0.0281
2947.00,0.0281
2946.00,0.0282
2945.00,0.0284
2944.00,0.0286
2943.00,0.0288
2942.00,0.0290
2941.00,0.0293
2940.00,0.0295
2939.00,0.0298
2938.00,0.0300
2937.00,0.0303
2936.00,0.0305
2935.00,0.0307
2934.00,0.0309
2933.00,0.0311
2932.00,0.0312
2931.00,0.0314
2930.00,0.0315
2929.00,0.0317
2928.00,0.0318
2927.00,0.0320
2926.00,0.0321
2925.00,0.0322
2924.00,0.0324
2923.00,0.0325
2922.00,0.0326
2921.00,0.0327
2920.00,0.0327
2919.00,0.0326
2918.00,0.0325
2917.00,0.0322
2916.00,0.0319
2915.00,0.0314
2914.00,0.0308
2913.00,0.0302
2912.00,0.0297
2911.00,0.0292
2910.00,0.0287
2909.00,0.0284
2908.00,0.0280
2907.00,0.0278
2906.00,0.0275
2905.00,0.0273
2904.00,0.0271
2903.00,0.0270
2902.00,0.0268
2901.00,0.0267
2900.00,0.0266
2899.00,0.0264
2898.00,0.0263
2897.00,0.0262
2896.00,0.0261
2895.00,0.0260
2894.00,0.0259
2893.00,0.0259
2892.00,0.0258
2891.00,0.0258
2890.00,0.0257
2889.00,0.0257
2888.00,0.0257
2887.00,0.0257
2886.00,0.0257
2885.00,0.0257
2884.00,0.0257
2883.00,0.0258
2882.00,0.0258
2881.00,0.0259
2880.00,0.0260
2879.00,0.0260
2878.00,0.0260
2877.00,0.0260
2876.00,0.0260
2875.00,0.0260
2874.00,0.0259
2873.00,0.0259
2872.00,0.0258
2871.00,0.0257
2870.00,0.0255
2869.00,0.0253
2868.00,0.0252
2867.00,0.0250
2866.00,0.0248
2865.00,0.0247
2864.00,0.0245
2863.00,0.0244
2862.00,0.0243
2861.00,0.0243
2860.00,0.0243
2859.00,0.0243
2858.00,0.0244
2857.00,0.0245
2856.00,0.0246
2855.00,0.0248
2854.00,0.0250
2853.00,0.0252
2852.00,0.0253
2851.00,0.0254
2850.00,0.0253
2849.00,0.0251
2848.00,0.0246
2847.00,0.0241
2846.00,0.0236
2845.00,0.0230
2844.00,0.0225
2843.00,0.0221
2842.00,0.0218
2841.00,0.0215
2840.00,0.0212
2839.00,0.0210
2838.00,0.0208
2837.00,0.0207
2836.00,0.0206
2835.00,0.0204
2834.00,0.0203
2833.00,0.0203
2832.00,0.0202
2831.00,0.0201
2830.00,0.0200
2829.00,0.0200
2828.00,0.0199
2827.00,0.0198
2826.00,0.0198
2825.00,0.0197
2824.00,0.0196
2823.00,0.0196
2822.00,0.0195
2821.00,0.0195
2820.00,0.0194
2819.00,0.0194
2818.00,0.0194
2817.00,0.0193
2816.00,0.0193
2815.00,0.0192
2814.00,0.0192
2813.00,0.0191
2812.00,0.0191
2811.00,0.0190
2810.00,0.0190
2809.00,0.0190
2808.00,0.0189
2807.00,0.0189
2806.00,0.0188
2805.00,0.0188
2804.00,0.0188
2803.00,0.0187
2802.00,0.0187
2801.00,0.0186
2800.00,0.0186
2799.00,0.0185
2798.00,0.0185
2797.00,0.0185
2796.00,0.0184
2795.00,0.0184
2794.00,0.0184
2793.00,0.0184
2792.00,0.0183
2791.00,0.0183
2790.00,0.0183
2789.00,0.0182
2788.00,0.0182
2787.00,0.0182
2786.00,0.0182
2785.00,0.0181
2784.00,0.0181
2783.00,0.0181
2782.00,0.0180
2781.00,0.0180
2780.00,0.0180
2779.00,0.0179
2778.00,0.0179
2777.00,0.0179
2776.00,0.0178
2775.00,0.0178
2774.00,0.0178
2773.00,0.0177
2772.00,0.0177
2771.00,0.0177
2770.00,0.0176
2769.00,0.0176
2768.00,0.0176
2767.00,0.0175
2766.00,0.0175
2765.00,0.0175
2764.00,0.0175
2763.00,0.0174
2762.00,0.0174
2761.00,0.0174
2760.00,0.0173
2759.00,0.0173
2758.00,0.0173
2757.00,0.0173
