Created as New Dataset,Sample 129 By YargerLab Date Wednesday, June 05 2024
cm-1,A
4000.00,0.0088
3999.00,0.0088
3998.00,0.0088
3997.00,0.0088
3996.00,0.0088
3995.00,0.0088
3994.00,0.0088
3993.00,0.0088
3992.00,0.0088
3991.00,0.0088
3990.00,0.0088
3989.00,0.0088
3988.00,0.0088
3987.00,0.0088
3986.00,0.0088
3985.00,0.0088
3984.00,0.0088
3983.00,0.0088
3982.00,0.0088
3981.00,0.0088
3980.00,0.0088
3979.00,0.0088
3978.00,0.0089
3977.00,0.0089
3976.00,0.0088
3975.00,0.0088
3974.00,0.0088
3973.00,0.0088
3972.00,0.0088
3971.00,0.0088
3970.00,0.0088
3969.00,0.0088
3968.00,0.0088
3967.00,0.0088
3966.00,0.0088
3965.00,0.0089
3964.00,0.0089
3963.00,0.0089
3962.00,0.0089
3961.00,0.0088
3960.00,0.0089
3959.00,0.0089
3958.00,0.0088
3957.00,0.0088
3956.00,0.0088
3955.00,0.0088
3954.00,0.0088
3953.00,0.0088
3952.00,0.0088
3951.00,0.0089
3950.00,0.0089
3949.00,0.0090
3948.00,0.0090
3947.00,0.0090
3946.00,0.0090
3945.00,0.0089
3944.00,0.0089
3943.00,0.0088
3942.00,0.0088
3941.00,0.0088
3940.00,0.0089
3939.00,0.0089
3938.00,0.0089
3937.00,0.0089
3936.00,0.0089
3935.00,0.0090
3934.00,0.0090
3933.00,0.0090
3932.00,0.0090
3931.00,0.0090
3930.00,0.0089
3929.00,0.0089
3928.00,0.0089
3927.00,0.0088
3926.00,0.0088
3925.00,0.0088
3924.00,0.0088
3923.00,0.0089
3922.00,0.0090
3921.00,0.0091
3920.00,0.0091
3919.00,0.0091
3918.00,0.0091
3917.00,0.0091
3916.00,0.0090
3915.00,0.0090
3914.00,0.0089
3913.00,0.0089
3912.00,0.0089
3911.00,0.0088
3910.00,0.0088
3909.00,0.0088
3908.00,0.0088
3907.00,0.0088
3906.00,0.0089
3905.00,0.0090
3904.00,0.0092
3903.00,0.0094
3902.00,0.0095
3901.00,0.0095
3900.00,0.0094
3899.00,0.0092
3898.00,0.0091
3897.00,0.0091
3896.00,0.0090
3895.00,0.0090
3894.00,0.0090
3893.00,0.0089
3892.00,0.0089
3891.00,0.0090
3890.00,0.0090
3889.00,0.0091
3888.00,0.0092
3887.00,0.0093
3886.00,0.0093
3885.00,0.0092
3884.00,0.0091
3883.00,0.0091
3882.00,0.0092
3881.00,0.0092
3880.00,0.0091
3879.00,0.0091
3878.00,0.0091
3877.00,0.0091
3876.00,0.0091
3875.00,0.0091
3874.00,0.0090
3873.00,0.0090
3872.00,0.0091
3871.00,0.0092
3870.00,0.0093
3869.00,0.0092
3868.00,0.0092
3867.00,0.0093
3866.00,0.0093
3865.00,0.0093
3864.00,0.0092
3863.00,0.0092
3862.00,0.0093
3861.00,0.0093
3860.00,0.0093
3859.00,0.0091
3858.00,0.0089
3857.00,0.0087
3856.00,0.0086
3855.00,0.0086
3854.00,0.0087
3853.00,0.0088
3852.00,0.0090
3851.00,0.0091
3850.00,0.0092
3849.00,0.0092
3848.00,0.0092
3847.00,0.0092
3846.00,0.0092
3845.00,0.0092
3844.00,0.0091
3843.00,0.0091
3842.00,0.0092
3841.00,0.0092
3840.00,0.0092
3839.00,0.0092
3838.00,0.0092
3837.00,0.0092
3836.00,0.0092
3835.00,0.0092
3834.00,0.0092
3833.00,0.0093
3832.00,0.0093
3831.00,0.0092
3830.00,0.0092
3829.00,0.0092
3828.00,0.0091
3827.00,0.0091
3826.00,0.0091
3825.00,0.0091
3824.00,0.0092
3823.00,0.0093
3822.00,0.0093
3821.00,0.0092
3820.00,0.0091
3819.00,0.0092
3818.00,0.0093
3817.00,0.0093
3816.00,0.0093
3815.00,0.0091
3814.00,0.0090
3813.00,0.0090
3812.00,0.0090
3811.00,0.0089
3810.00,0.0089
3809.00,0.0089
3808.00,0.0090
3807.00,0.0090
3806.00,0.0090
3805.00,0.0091
3804.00,0.0092
3803.00,0.0092
3802.00,0.0092
3801.00,0.0091
3800.00,0.0090
3799.00,0.0091
3798.00,0.0091
3797.00,0.0091
3796.00,0.0091
3795.00,0.0090
3794.00,0.0089
3793.00,0.0088
3792.00,0.0088
3791.00,0.0087
3790.00,0.0086
3789.00,0.0086
3788.00,0.0086
3787.00,0.0086
3786.00,0.0086
3785.00,0.0087
3784.00,0.0087
3783.00,0.0087
3782.00,0.0088
3781.00,0.0088
3780.00,0.0088
3779.00,0.0088
3778.00,0.0087
3777.00,0.0088
3776.00,0.0088
3775.00,0.0087
3774.00,0.0087
3773.00,0.0087
3772.00,0.0088
3771.00,0.0088
3770.00,0.0089
3769.00,0.0089
3768.00,0.0089
3767.00,0.0090
3766.00,0.0090
3765.00,0.0090
3764.00,0.0090
3763.00,0.0090
3762.00,0.0090
3761.00,0.0090
3760.00,0.0090
3759.00,0.0090
3758.00,0.0090
3757.00,0.0091
3756.00,0.0091
3755.00,0.0092
3754.00,0.0093
3753.00,0.0093
3752.00,0.0094
3751.00,0.0095
3750.00,0.0096
3749.00,0.0096
3748.00,0.0096
3747.00,0.0096
3746.00,0.0096
3745.00,0.0096
3744.00,0.0095
3743.00,0.0094
3742.00,0.0094
3741.00,0.0095
3740.00,0.0096
3739.00,0.0097
3738.00,0.0098
3737.00,0.0098
3736.00,0.0097
3735.00,0.0096
3734.00,0.0095
3733.00,0.0095
3732.00,0.0094
3731.00,0.0092
3730.00,0.0091
3729.00,0.0090
3728.00,0.0090
3727.00,0.0090
3726.00,0.0089
3725.00,0.0089
3724.00,0.0089
3723.00,0.0088
3722.00,0.0088
3721.00,0.0087
3720.00,0.0087
3719.00,0.0086
3718.00,0.0086
3717.00,0.0086
3716.00,0.0087
3715.00,0.0087
3714.00,0.0088
3713.00,0.0088
3712.00,0.0088
3711.00,0.0089
3710.00,0.0089
3709.00,0.0089
3708.00,0.0088
3707.00,0.0087
3706.00,0.0086
3705.00,0.0085
3704.00,0.0085
3703.00,0.0084
3702.00,0.0083
3701.00,0.0083
3700.00,0.0083
3699.00,0.0083
3698.00,0.0084
3697.00,0.0084
3696.00,0.0084
3695.00,0.0084
3694.00,0.0084
3693.00,0.0084
3692.00,0.0084
3691.00,0.0084
3690.00,0.0085
3689.00,0.0087
3688.00,0.0087
3687.00,0.0087
3686.00,0.0087
3685.00,0.0087
3684.00,0.0087
3683.00,0.0087
3682.00,0.0087
3681.00,0.0087
3680.00,0.0086
3679.00,0.0087
3678.00,0.0088
3677.00,0.0089
3676.00,0.0090
3675.00,0.0090
3674.00,0.0090
3673.00,0.0091
3672.00,0.0092
3671.00,0.0092
3670.00,0.0091
3669.00,0.0089
3668.00,0.0088
3667.00,0.0088
3666.00,0.0088
3665.00,0.0088
3664.00,0.0087
3663.00,0.0087
3662.00,0.0086
3661.00,0.0086
3660.00,0.0086
3659.00,0.0087
3658.00,0.0088
3657.00,0.0088
3656.00,0.0089
3655.00,0.0090
3654.00,0.0091
3653.00,0.0092
3652.00,0.0094
3651.00,0.0095
3650.00,0.0096
3649.00,0.0097
3648.00,0.0097
3647.00,0.0097
3646.00,0.0095
3645.00,0.0094
3644.00,0.0093
3643.00,0.0092
3642.00,0.0091
3641.00,0.0090
3640.00,0.0090
3639.00,0.0090
3638.00,0.0090
3637.00,0.0091
3636.00,0.0091
3635.00,0.0092
3634.00,0.0092
3633.00,0.0093
3632.00,0.0094
3631.00,0.0096
3630.00,0.0097
3629.00,0.0097
3628.00,0.0098
3627.00,0.0098
3626.00,0.0098
3625.00,0.0098
3624.00,0.0098
3623.00,0.0097
3622.00,0.0097
3621.00,0.0097
3620.00,0.0097
3619.00,0.0097
3618.00,0.0098
3617.00,0.0100
3616.00,0.0101
3615.00,0.0102
3614.00,0.0102
3613.00,0.0103
3612.00,0.0103
3611.00,0.0104
3610.00,0.0105
3609.00,0.0105
3608.00,0.0104
3607.00,0.0103
3606.00,0.0102
3605.00,0.0102
3604.00,0.0102
3603.00,0.0102
3602.00,0.0102
3601.00,0.0102
3600.00,0.0103
3599.00,0.0103
3598.00,0.0104
3597.00,0.0104
3596.00,0.0104
3595.00,0.0104
3594.00,0.0105
3593.00,0.0106
3592.00,0.0107
3591.00,0.0108
3590.00,0.0109
3589.00,0.0109
3588.00,0.0109
3587.00,0.0109
3586.00,0.0109
3585.00,0.0109
3584.00,0.0110
3583.00,0.0110
3582.00,0.0109
3581.00,0.0109
3580.00,0.0109
3579.00,0.0109
3578.00,0.0109
3577.00,0.0110
3576.00,0.0110
3575.00,0.0111
3574.00,0.0111
3573.00,0.0112
3572.00,0.0113
3571.00,0.0115
3570.00,0.0116
3569.00,0.0118
3568.00,0.0118
3567.00,0.0118
3566.00,0.0118
3565.00,0.0119
3564.00,0.0119
3563.00,0.0119
3562.00,0.0119
3561.00,0.0119
3560.00,0.0119
3559.00,0.0119
3558.00,0.0119
3557.00,0.0120
3556.00,0.0120
3555.00,0.0121
3554.00,0.0121
3553.00,0.0122
3552.00,0.0122
3551.00,0.0123
3550.00,0.0124
3549.00,0.0126
3548.00,0.0127
3547.00,0.0127
3546.00,0.0128
3545.00,0.0128
3544.00,0.0128
3543.00,0.0128
3542.00,0.0128
3541.00,0.0128
3540.00,0.0128
3539.00,0.0128
3538.00,0.0129
3537.00,0.0129
3536.00,0.0130
3535.00,0.0130
3534.00,0.0131
3533.00,0.0131
3532.00,0.0132
3531.00,0.0133
3530.00,0.0133
3529.00,0.0134
3528.00,0.0135
3527.00,0.0136
3526.00,0.0137
3525.00,0.0137
3524.00,0.0138
3523.00,0.0138
3522.00,0.0138
3521.00,0.0138
3520.00,0.0138
3519.00,0.0138
3518.00,0.0139
3517.00,0.0139
3516.00,0.0140
3515.00,0.0140
3514.00,0.0141
3513.00,0.0141
3512.00,0.0141
3511.00,0.0142
3510.00,0.0142
3509.00,0.0143
3508.00,0.0143
3507.00,0.0144
3506.00,0.0145
3505.00,0.0146
3504.00,0.0146
3503.00,0.0146
3502.00,0.0147
3501.00,0.0147
3500.00,0.0148
3499.00,0.0148
3498.00,0.0148
3497.00,0.0149
3496.00,0.0149
3495.00,0.0149
3494.00,0.0150
3493.00,0.0150
3492.00,0.0151
3491.00,0.0151
3490.00,0.0152
3489.00,0.0152
3488.00,0.0153
3487.00,0.0153
3486.00,0.0154
3485.00,0.0154
3484.00,0.0154
3483.00,0.0155
3482.00,0.0155
3481.00,0.0156
3480.00,0.0156
3479.00,0.0157
3478.00,0.0157
3477.00,0.0158
3476.00,0.0158
3475.00,0.0158
3474.00,0.0158
3473.00,0.0159
3472.00,0.0160
3471.00,0.0160
3470.00,0.0161
3469.00,0.0162
3468.00,0.0162
3467.00,0.0162
3466.00,0.0163
3465.00,0.0163
3464.00,0.0164
3463.00,0.0164
3462.00,0.0165
3461.00,0.0165
3460.00,0.0165
3459.00,0.0166
3458.00,0.0166
3457.00,0.0166
3456.00,0.0167
3455.00,0.0167
3454.00,0.0168
3453.00,0.0168
3452.00,0.0168
3451.00,0.0169
3450.00,0.0169
3449.00,0.0170
3448.00,0.0170
3447.00,0.0171
3446.00,0.0172
3445.00,0.0172
3444.00,0.0173
3443.00,0.0173
3442.00,0.0174
3441.00,0.0174
3440.00,0.0174
3439.00,0.0175
3438.00,0.0176
3437.00,0.0176
3436.00,0.0177
3435.00,0.0177
3434.00,0.0178
3433.00,0.0178
3432.00,0.0179
3431.00,0.0179
3430.00,0.0180
3429.00,0.0180
3428.00,0.0180
3427.00,0.0181
3426.00,0.0181
3425.00,0.0182
3424.00,0.0182
3423.00,0.0183
3422.00,0.0183
3421.00,0.0184
3420.00,0.0184
3419.00,0.0185
3418.00,0.0186
3417.00,0.0186
3416.00,0.0187
3415.00,0.0188
3414.00,0.0188
3413.00,0.0189
3412.00,0.0189
3411.00,0.0190
3410.00,0.0191
3409.00,0.0191
3408.00,0.0192
3407.00,0.0192
3406.00,0.0192
3405.00,0.0193
3404.00,0.0194
3403.00,0.0194
3402.00,0.0195
3401.00,0.0196
3400.00,0.0197
3399.00,0.0197
3398.00,0.0198
3397.00,0.0198
3396.00,0.0199
3395.00,0.0199
3394.00,0.0200
3393.00,0.0200
3392.00,0.0201
3391.00,0.0202
3390.00,0.0202
3389.00,0.0202
3388.00,0.0203
3387.00,0.0203
3386.00,0.0204
3385.00,0.0204
3384.00,0.0205
3383.00,0.0206
3382.00,0.0206
3381.00,0.0207
3380.00,0.0208
3379.00,0.0209
3378.00,0.0209
3377.00,0.0210
3376.00,0.0210
3375.00,0.0211
3374.00,0.0212
3373.00,0.0213
3372.00,0.0213
3371.00,0.0214
3370.00,0.0215
3369.00,0.0216
3368.00,0.0217
3367.00,0.0218
3366.00,0.0219
3365.00,0.0220
3364.00,0.0220
3363.00,0.0221
3362.00,0.0222
3361.00,0.0223
3360.00,0.0224
3359.00,0.0225
3358.00,0.0226
3357.00,0.0226
3356.00,0.0227
3355.00,0.0228
3354.00,0.0230
3353.00,0.0231
3352.00,0.0232
3351.00,0.0233
3350.00,0.0234
3349.00,0.0235
3348.00,0.0236
3347.00,0.0237
3346.00,0.0238
3345.00,0.0239
3344.00,0.0240
3343.00,0.0241
3342.00,0.0243
3341.00,0.0244
3340.00,0.0245
3339.00,0.0246
3338.00,0.0247
3337.00,0.0248
3336.00,0.0250
3335.00,0.0251
3334.00,0.0252
3333.00,0.0253
3332.00,0.0254
3331.00,0.0256
3330.00,0.0257
3329.00,0.0259
3328.00,0.0260
3327.00,0.0261
3326.00,0.0263
3325.00,0.0264
3324.00,0.0265
3323.00,0.0267
3322.00,0.0268
3321.00,0.0269
3320.00,0.0271
3319.00,0.0272
3318.00,0.0274
3317.00,0.0276
3316.00,0.0277
3315.00,0.0279
3314.00,0.0280
3313.00,0.0282
3312.00,0.0284
3311.00,0.0285
3310.00,0.0287
3309.00,0.0288
3308.00,0.0289
3307.00,0.0291
3306.00,0.0292
3305.00,0.0294
3304.00,0.0296
3303.00,0.0298
3302.00,0.0299
3301.00,0.0301
3300.00,0.0302
3299.00,0.0304
3298.00,0.0305
3297.00,0.0307
3296.00,0.0308
3295.00,0.0310
3294.00,0.0311
3293.00,0.0313
3292.00,0.0314
3291.00,0.0315
3290.00,0.0317
3289.00,0.0318
3288.00,0.0319
3287.00,0.0321
3286.00,0.0322
3285.00,0.0323
3284.00,0.0324
3283.00,0.0325
3282.00,0.0326
3281.00,0.0327
3280.00,0.0327
3279.00,0.0328
3278.00,0.0329
3277.00,0.0330
3276.00,0.0330
3275.00,0.0331
3274.00,0.0331
3273.00,0.0331
3272.00,0.0331
3271.00,0.0331
3270.00,0.0331
3269.00,0.0331
3268.00,0.0330
3267.00,0.0330
3266.00,0.0329
3265.00,0.0329
3264.00,0.0328
3263.00,0.0327
3262.00,0.0326
3261.00,0.0325
3260.00,0.0324
3259.00,0.0323
3258.00,0.0322
3257.00,0.0321
3256.00,0.0319
3255.00,0.0318
3254.00,0.0317
3253.00,0.0315
3252.00,0.0314
3251.00,0.0313
3250.00,0.0312
3249.00,0.0310
3248.00,0.0309
3247.00,0.0308
3246.00,0.0306
3245.00,0.0305
3244.00,0.0303
3243.00,0.0302
3242.00,0.0301
3241.00,0.0299
3240.00,0.0298
3239.00,0.0297
3238.00,0.0296
3237.00,0.0294
3236.00,0.0293
3235.00,0.0292
3234.00,0.0291
3233.00,0.0290
3232.00,0.0289
3231.00,0.0288
3230.00,0.0287
3229.00,0.0286
3228.00,0.0285
3227.00,0.0284
3226.00,0.0283
3225.00,0.0282
3224.00,0.0281
3223.00,0.0280
3222.00,0.0279
3221.00,0.0278
3220.00,0.0278
3219.00,0.0277
3218.00,0.0276
3217.00,0.0275
3216.00,0.0275
3215.00,0.0274
3214.00,0.0273
3213.00,0.0272
3212.00,0.0272
3211.00,0.0271
3210.00,0.0270
3209.00,0.0270
3208.00,0.0269
3207.00,0.0268
3206.00,0.0267
3205.00,0.0266
3204.00,0.0265
3203.00,0.0265
3202.00,0.0264
3201.00,0.0263
3200.00,0.0262
3199.00,0.0262
3198.00,0.0261
3197.00,0.0260
3196.00,0.0259
3195.00,0.0258
3194.00,0.0257
3193.00,0.0257
3192.00,0.0256
3191.00,0.0255
3190.00,0.0254
3189.00,0.0253
3188.00,0.0252
3187.00,0.0251
3186.00,0.0250
3185.00,0.0249
3184.00,0.0248
3183.00,0.0247
3182.00,0.0247
3181.00,0.0246
3180.00,0.0245
3179.00,0.0244
3178.00,0.0243
3177.00,0.0242
3176.00,0.0241
3175.00,0.0240
3174.00,0.0239
3173.00,0.0238
3172.00,0.0237
3171.00,0.0236
3170.00,0.0235
3169.00,0.0234
3168.00,0.0233
3167.00,0.0232
3166.00,0.0231
3165.00,0.0230
3164.00,0.0229
3163.00,0.0228
3162.00,0.0227
3161.00,0.0226
3160.00,0.0226
3159.00,0.0225
3158.00,0.0224
3157.00,0.0223
3156.00,0.0222
3155.00,0.0221
3154.00,0.0220
3153.00,0.0219
3152.00,0.0219
3151.00,0.0218
3150.00,0.0217
3149.00,0.0216
3148.00,0.0215
3147.00,0.0215
3146.00,0.0214
3145.00,0.0213
3144.00,0.0212
3143.00,0.0212
3142.00,0.0211
3141.00,0.0210
3140.00,0.0209
3139.00,0.0209
3138.00,0.0208
3137.00,0.0207
3136.00,0.0207
3135.00,0.0206
3134.00,0.0205
3133.00,0.0205
3132.00,0.0204
3131.00,0.0204
3130.00,0.0203
3129.00,0.0203
3128.00,0.0202
3127.00,0.0202
3126.00,0.0201
3125.00,0.0201
3124.00,0.0200
3123.00,0.0200
3122.00,0.0200
3121.00,0.0199
3120.00,0.0199
3119.00,0.0199
3118.00,0.0198
3117.00,0.0198
3116.00,0.0198
3115.00,0.0198
3114.00,0.0198
3113.00,0.0197
3112.00,0.0197
3111.00,0.0197
3110.00,0.0196
3109.00,0.0196
3108.00,0.0196
3107.00,0.0196
3106.00,0.0196
3105.00,0.0196
3104.00,0.0196
3103.00,0.0196
3102.00,0.0196
3101.00,0.0196
3100.00,0.0196
3099.00,0.0196
3098.00,0.0196
3097.00,0.0196
3096.00,0.0196
3095.00,0.0196
3094.00,0.0197
3093.00,0.0197
3092.00,0.0197
3091.00,0.0197
3090.00,0.0197
3089.00,0.0197
3088.00,0.0197
3087.00,0.0197
3086.00,0.0197
3085.00,0.0197
3084.00,0.0198
3083.00,0.0198
3082.00,0.0198
3081.00,0.0198
3080.00,0.0199
3079.00,0.0199
3078.00,0.0199
3077.00,0.0199
3076.00,0.0200
3075.00,0.0200
3074.00,0.0200
3073.00,0.0200
3072.00,0.0200
3071.00,0.0200
3070.00,0.0200
3069.00,0.0200
3068.00,0.0200
3067.00,0.0200
3066.00,0.0200
3065.00,0.0200
3064.00,0.0200
3063.00,0.0200
3062.00,0.0200
3061.00,0.0200
3060.00,0.0200
3059.00,0.0200
3058.00,0.0199
3057.00,0.0199
3056.00,0.0199
3055.00,0.0199
3054.00,0.0198
3053.00,0.0198
3052.00,0.0198
3051.00,0.0197
3050.00,0.0197
3049.00,0.0197
3048.00,0.0197
3047.00,0.0196
3046.00,0.0196
3045.00,0.0195
3044.00,0.0195
3043.00,0.0194
3042.00,0.0194
3041.00,0.0193
3040.00,0.0193
3039.00,0.0192
3038.00,0.0192
3037.00,0.0191
3036.00,0.0191
3035.00,0.0190
3034.00,0.0190
3033.00,0.0190
3032.00,0.0190
3031.00,0.0189
3030.00,0.0189
3029.00,0.0188
3028.00,0.0187
3027.00,0.0187
3026.00,0.0186
3025.00,0.0185
3024.00,0.0185
3023.00,0.0184
3022.00,0.0184
3021.00,0.0183
3020.00,0.0183
3019.00,0.0182
3018.00,0.0181
3017.00,0.0181
3016.00,0.0180
3015.00,0.0179
3014.00,0.0179
3013.00,0.0179
3012.00,0.0179
3011.00,0.0178
3010.00,0.0178
3009.00,0.0178
3008.00,0.0178
3007.00,0.0178
3006.00,0.0178
3005.00,0.0178
3004.00,0.0178
3003.00,0.0178
3002.00,0.0178
3001.00,0.0178
3000.00,0.0178
2999.00,0.0178
2998.00,0.0178
2997.00,0.0179
2996.00,0.0179
2995.00,0.0179
2994.00,0.0180
2993.00,0.0180
2992.00,0.0181
2991.00,0.0181
2990.00,0.0182
2989.00,0.0182
2988.00,0.0183
2987.00,0.0184
2986.00,0.0184
2985.00,0.0185
2984.00,0.0187
2983.00,0.0188
2982.00,0.0189
2981.00,0.0190
2980.00,0.0190
2979.00,0.0190
2978.00,0.0191
2977.00,0.0191
2976.00,0.0191
2975.00,0.0192
2974.00,0.0192
2973.00,0.0193
2972.00,0.0194
2971.00,0.0194
2970.00,0.0194
2969.00,0.0195
2968.00,0.0195
2967.00,0.0195
2966.00,0.0195
2965.00,0.0195
2964.00,0.0195
2963.00,0.0195
2962.00,0.0195
2961.00,0.0195
2960.00,0.0195
2959.00,0.0195
2958.00,0.0195
2957.00,0.0195
2956.00,0.0194
2955.00,0.0194
2954.00,0.0194
2953.00,0.0193
2952.00,0.0193
2951.00,0.0192
2950.00,0.0191
2949.00,0.0191
2948.00,0.0191
2947.00,0.0191
2946.00,0.0191
2945.00,0.0192
2944.00,0.0193
2943.00,0.0193
2942.00,0.0194
2941.00,0.0195
2940.00,0.0196
2939.00,0.0197
2938.00,0.0199
2937.00,0.0200
2936.00,0.0202
2935.00,0.0203
2934.00,0.0205
2933.00,0.0206
2932.00,0.0208
2931.00,0.0209
2930.00,0.0210
2929.00,0.0212
2928.00,0.0213
2927.00,0.0214
2926.00,0.0214
2925.00,0.0215
2924.00,0.0216
2923.00,0.0216
2922.00,0.0217
2921.00,0.0217
2920.00,0.0217
2919.00,0.0217
2918.00,0.0217
2917.00,0.0216
2916.00,0.0215
2915.00,0.0213
2914.00,0.0211
2913.00,0.0208
2912.00,0.0206
2911.00,0.0204
2910.00,0.0201
2909.00,0.0199
2908.00,0.0197
2907.00,0.0196
2906.00,0.0194
2905.00,0.0193
2904.00,0.0192
2903.00,0.0191
2902.00,0.0190
2901.00,0.0189
2900.00,0.0188
2899.00,0.0187
2898.00,0.0187
2897.00,0.0186
2896.00,0.0186
2895.00,0.0185
2894.00,0.0185
2893.00,0.0184
2892.00,0.0184
2891.00,0.0183
2890.00,0.0183
2889.00,0.0183
2888.00,0.0182
2887.00,0.0182
2886.00,0.0182
2885.00,0.0182
2884.00,0.0182
2883.00,0.0182
2882.00,0.0182
2881.00,0.0182
2880.00,0.0182
2879.00,0.0183
2878.00,0.0183
2877.00,0.0183
2876.00,0.0183
2875.00,0.0183
2874.00,0.0183
2873.00,0.0182
2872.00,0.0182
2871.00,0.0182
2870.00,0.0181
2869.00,0.0181
2868.00,0.0180
2867.00,0.0179
2866.00,0.0179
2865.00,0.0178
2864.00,0.0178
2863.00,0.0178
2862.00,0.0178
2861.00,0.0178
2860.00,0.0178
2859.00,0.0179
2858.00,0.0179
2857.00,0.0179
2856.00,0.0180
2855.00,0.0181
2854.00,0.0181
2853.00,0.0182
2852.00,0.0182
2851.00,0.0183
2850.00,0.0183
2849.00,0.0183
2848.00,0.0181
2847.00,0.0180
2846.00,0.0178
2845.00,0.0175
2844.00,0.0173
2843.00,0.0172
2842.00,0.0170
2841.00,0.0169
2840.00,0.0167
2839.00,0.0166
2838.00,0.0165
2837.00,0.0165
2836.00,0.0164
2835.00,0.0163
2834.00,0.0163
2833.00,0.0162
2832.00,0.0162
2831.00,0.0161
2830.00,0.0161
2829.00,0.0160
2828.00,0.0160
2827.00,0.0160
2826.00,0.0160
2825.00,0.0159
2824.00,0.0159
2823.00,0.0159
2822.00,0.0159
2821.00,0.0158
2820.00,0.0158
2819.00,0.0158
2818.00,0.0158
2817.00,0.0158
2816.00,0.0158
2815.00,0.0157
2814.00,0.0157
2813.00,0.0157
2812.00,0.0157
2811.00,0.0157
2810.00,0.0157
2809.00,0.0156
2808.00,0.0156
2807.00,0.0156
2806.00,0.0156
2805.00,0.0156
2804.00,0.0155
2803.00,0.0155
2802.00,0.0155
2801.00,0.0155
2800.00,0.0155
2799.00,0.0154
2798.00,0.0154
2797.00,0.0154
2796.00,0.0154
2795.00,0.0154
2794.00,0.0153
2793.00,0.0153
2792.00,0.0153
2791.00,0.0153
2790.00,0.0153
2789.00,0.0153
2788.00,0.0152
2787.00,0.0152
2786.00,0.0152
2785.00,0.0151
2784.00,0.0151
2783.00,0.0151
2782.00,0.0151
2781.00,0.0151
2780.00,0.0151
2779.00,0.0151
2778.00,0.0150
2777.00,0.0150
2776.00,0.0150
2775.00,0.0150
2774.00,0.0150
2773.00,0.0150
2772.00,0.0149
2771.00,0.0149
2770.00,0.0149
2769.00,0.0149
2768.00,0.0149
2767.00,0.0149
2766.00,0.0149
2765.00,0.0148
2764.00,0.0148
2763.00,0.0148
2762.00,0.0148
2761.00,0.0148
2760.00,0.0148
2759.00,0.0147
2758.00,0.0147
2757.00,0.0147
