Created as New Dataset,Sample 146 By YargerLab Date Wednesday, June 05 2024
cm-1,A
4000.00,0.0025
3999.00,0.0025
3998.00,0.0025
3997.00,0.0025
3996.00,0.0025
3995.00,0.0025
3994.00,0.0025
3993.00,0.0025
3992.00,0.0025
3991.00,0.0025
3990.00,0.0025
3989.00,0.0025
3988.00,0.0025
3987.00,0.0025
3986.00,0.0025
3985.00,0.0025
3984.00,0.0025
3983.00,0.0025
3982.00,0.0025
3981.00,0.0025
3980.00,0.0025
3979.00,0.0025
3978.00,0.0025
3977.00,0.0025
3976.00,0.0025
3975.00,0.0025
3974.00,0.0025
3973.00,0.0025
3972.00,0.0025
3971.00,0.0025
3970.00,0.0025
3969.00,0.0025
3968.00,0.0025
3967.00,0.0025
3966.00,0.0025
3965.00,0.0025
3964.00,0.0025
3963.00,0.0025
3962.00,0.0025
3961.00,0.0025
3960.00,0.0025
3959.00,0.0025
3958.00,0.0025
3957.00,0.0025
3956.00,0.0025
3955.00,0.0025
3954.00,0.0025
3953.00,0.0025
3952.00,0.0025
3951.00,0.0025
3950.00,0.0025
3949.00,0.0025
3948.00,0.0025
3947.00,0.0025
3946.00,0.0025
3945.00,0.0025
3944.00,0.0025
3943.00,0.0025
3942.00,0.0025
3941.00,0.0025
3940.00,0.0025
3939.00,0.0025
3938.00,0.0025
3937.00,0.0025
3936.00,0.0025
3935.00,0.0025
3934.00,0.0025
3933.00,0.0025
3932.00,0.0025
3931.00,0.0025
3930.00,0.0025
3929.00,0.0025
3928.00,0.0025
3927.00,0.0025
3926.00,0.0025
3925.00,0.0025
3924.00,0.0025
3923.00,0.0025
3922.00,0.0025
3921.00,0.0025
3920.00,0.0025
3919.00,0.0025
3918.00,0.0025
3917.00,0.0025
3916.00,0.0025
3915.00,0.0025
3914.00,0.0025
3913.00,0.0025
3912.00,0.0025
3911.00,0.0025
3910.00,0.0025
3909.00,0.0025
3908.00,0.0025
3907.00,0.0025
3906.00,0.0025
3905.00,0.0025
3904.00,0.0025
3903.00,0.0024
3902.00,0.0024
3901.00,0.0024
3900.00,0.0024
3899.00,0.0024
3898.00,0.0024
3897.00,0.0024
3896.00,0.0024
3895.00,0.0024
3894.00,0.0025
3893.00,0.0025
3892.00,0.0025
3891.00,0.0025
3890.00,0.0025
3889.00,0.0024
3888.00,0.0024
3887.00,0.0024
3886.00,0.0024
3885.00,0.0024
3884.00,0.0024
3883.00,0.0024
3882.00,0.0024
3881.00,0.0024
3880.00,0.0024
3879.00,0.0024
3878.00,0.0024
3877.00,0.0024
3876.00,0.0024
3875.00,0.0024
3874.00,0.0024
3873.00,0.0024
3872.00,0.0024
3871.00,0.0024
3870.00,0.0024
3869.00,0.0024
3868.00,0.0024
3867.00,0.0024
3866.00,0.0024
3865.00,0.0024
3864.00,0.0024
3863.00,0.0024
3862.00,0.0024
3861.00,0.0024
3860.00,0.0024
3859.00,0.0024
3858.00,0.0025
3857.00,0.0025
3856.00,0.0025
3855.00,0.0024
3854.00,0.0024
3853.00,0.0024
3852.00,0.0024
3851.00,0.0024
3850.00,0.0024
3849.00,0.0024
3848.00,0.0024
3847.00,0.0024
3846.00,0.0024
3845.00,0.0024
3844.00,0.0024
3843.00,0.0024
3842.00,0.0024
3841.00,0.0024
3840.00,0.0024
3839.00,0.0024
3838.00,0.0024
3837.00,0.0024
3836.00,0.0024
3835.00,0.0024
3834.00,0.0024
3833.00,0.0024
3832.00,0.0023
3831.00,0.0023
3830.00,0.0023
3829.00,0.0023
3828.00,0.0024
3827.00,0.0024
3826.00,0.0024
3825.00,0.0024
3824.00,0.0024
3823.00,0.0024
3822.00,0.0024
3821.00,0.0024
3820.00,0.0024
3819.00,0.0024
3818.00,0.0024
3817.00,0.0024
3816.00,0.0024
3815.00,0.0024
3814.00,0.0024
3813.00,0.0024
3812.00,0.0024
3811.00,0.0024
3810.00,0.0024
3809.00,0.0024
3808.00,0.0024
3807.00,0.0024
3806.00,0.0024
3805.00,0.0024
3804.00,0.0024
3803.00,0.0024
3802.00,0.0024
3801.00,0.0024
3800.00,0.0024
3799.00,0.0024
3798.00,0.0024
3797.00,0.0024
3796.00,0.0024
3795.00,0.0024
3794.00,0.0024
3793.00,0.0024
3792.00,0.0024
3791.00,0.0024
3790.00,0.0024
3789.00,0.0024
3788.00,0.0024
3787.00,0.0024
3786.00,0.0024
3785.00,0.0024
3784.00,0.0024
3783.00,0.0024
3782.00,0.0024
3781.00,0.0024
3780.00,0.0024
3779.00,0.0024
3778.00,0.0024
3777.00,0.0024
3776.00,0.0024
3775.00,0.0024
3774.00,0.0024
3773.00,0.0024
3772.00,0.0024
3771.00,0.0024
3770.00,0.0024
3769.00,0.0024
3768.00,0.0024
3767.00,0.0024
3766.00,0.0024
3765.00,0.0024
3764.00,0.0024
3763.00,0.0024
3762.00,0.0024
3761.00,0.0024
3760.00,0.0024
3759.00,0.0023
3758.00,0.0023
3757.00,0.0023
3756.00,0.0023
3755.00,0.0023
3754.00,0.0023
3753.00,0.0023
3752.00,0.0023
3751.00,0.0023
3750.00,0.0023
3749.00,0.0023
3748.00,0.0023
3747.00,0.0023
3746.00,0.0023
3745.00,0.0023
3744.00,0.0023
3743.00,0.0023
3742.00,0.0023
3741.00,0.0023
3740.00,0.0023
3739.00,0.0023
3738.00,0.0023
3737.00,0.0023
3736.00,0.0023
3735.00,0.0023
3734.00,0.0024
3733.00,0.0024
3732.00,0.0024
3731.00,0.0024
3730.00,0.0024
3729.00,0.0024
3728.00,0.0024
3727.00,0.0024
3726.00,0.0024
3725.00,0.0024
3724.00,0.0024
3723.00,0.0024
3722.00,0.0024
3721.00,0.0024
3720.00,0.0024
3719.00,0.0024
3718.00,0.0024
3717.00,0.0024
3716.00,0.0024
3715.00,0.0024
3714.00,0.0024
3713.00,0.0024
3712.00,0.0024
3711.00,0.0024
3710.00,0.0024
3709.00,0.0024
3708.00,0.0024
3707.00,0.0024
3706.00,0.0024
3705.00,0.0024
3704.00,0.0024
3703.00,0.0024
3702.00,0.0024
3701.00,0.0024
3700.00,0.0024
3699.00,0.0024
3698.00,0.0024
3697.00,0.0024
3696.00,0.0024
3695.00,0.0024
3694.00,0.0024
3693.00,0.0024
3692.00,0.0024
3691.00,0.0024
3690.00,0.0024
3689.00,0.0024
3688.00,0.0024
3687.00,0.0024
3686.00,0.0024
3685.00,0.0024
3684.00,0.0024
3683.00,0.0024
3682.00,0.0024
3681.00,0.0024
3680.00,0.0024
3679.00,0.0024
3678.00,0.0025
3677.00,0.0025
3676.00,0.0025
3675.00,0.0025
3674.00,0.0025
3673.00,0.0025
3672.00,0.0024
3671.00,0.0024
3670.00,0.0024
3669.00,0.0025
3668.00,0.0025
3667.00,0.0025
3666.00,0.0025
3665.00,0.0025
3664.00,0.0025
3663.00,0.0025
3662.00,0.0025
3661.00,0.0025
3660.00,0.0025
3659.00,0.0025
3658.00,0.0025
3657.00,0.0025
3656.00,0.0025
3655.00,0.0025
3654.00,0.0025
3653.00,0.0025
3652.00,0.0026
3651.00,0.0025
3650.00,0.0025
3649.00,0.0025
3648.00,0.0026
3647.00,0.0026
3646.00,0.0026
3645.00,0.0026
3644.00,0.0026
3643.00,0.0026
3642.00,0.0027
3641.00,0.0027
3640.00,0.0027
3639.00,0.0027
3638.00,0.0027
3637.00,0.0027
3636.00,0.0027
3635.00,0.0027
3634.00,0.0027
3633.00,0.0028
3632.00,0.0028
3631.00,0.0028
3630.00,0.0028
3629.00,0.0028
3628.00,0.0028
3627.00,0.0028
3626.00,0.0028
3625.00,0.0028
3624.00,0.0028
3623.00,0.0028
3622.00,0.0028
3621.00,0.0028
3620.00,0.0028
3619.00,0.0029
3618.00,0.0029
3617.00,0.0029
3616.00,0.0029
3615.00,0.0029
3614.00,0.0029
3613.00,0.0029
3612.00,0.0029
3611.00,0.0029
3610.00,0.0029
3609.00,0.0029
3608.00,0.0030
3607.00,0.0030
3606.00,0.0030
3605.00,0.0030
3604.00,0.0031
3603.00,0.0031
3602.00,0.0031
3601.00,0.0031
3600.00,0.0031
3599.00,0.0031
3598.00,0.0031
3597.00,0.0031
3596.00,0.0031
3595.00,0.0032
3594.00,0.0032
3593.00,0.0032
3592.00,0.0032
3591.00,0.0032
3590.00,0.0032
3589.00,0.0032
3588.00,0.0032
3587.00,0.0032
3586.00,0.0033
3585.00,0.0033
3584.00,0.0033
3583.00,0.0033
3582.00,0.0034
3581.00,0.0034
3580.00,0.0034
3579.00,0.0034
3578.00,0.0034
3577.00,0.0034
3576.00,0.0034
3575.00,0.0035
3574.00,0.0035
3573.00,0.0035
3572.00,0.0035
3571.00,0.0035
3570.00,0.0036
3569.00,0.0036
3568.00,0.0036
3567.00,0.0036
3566.00,0.0036
3565.00,0.0036
3564.00,0.0036
3563.00,0.0036
3562.00,0.0036
3561.00,0.0036
3560.00,0.0037
3559.00,0.0037
3558.00,0.0037
3557.00,0.0037
3556.00,0.0038
3555.00,0.0038
3554.00,0.0038
3553.00,0.0038
3552.00,0.0038
3551.00,0.0038
3550.00,0.0038
3549.00,0.0038
3548.00,0.0038
3547.00,0.0039
3546.00,0.0039
3545.00,0.0039
3544.00,0.0039
3543.00,0.0039
3542.00,0.0040
3541.00,0.0040
3540.00,0.0040
3539.00,0.0040
3538.00,0.0040
3537.00,0.0041
3536.00,0.0041
3535.00,0.0041
3534.00,0.0041
3533.00,0.0041
3532.00,0.0041
3531.00,0.0041
3530.00,0.0041
3529.00,0.0042
3528.00,0.0042
3527.00,0.0042
3526.00,0.0042
3525.00,0.0042
3524.00,0.0042
3523.00,0.0043
3522.00,0.0043
3521.00,0.0043
3520.00,0.0043
3519.00,0.0043
3518.00,0.0044
3517.00,0.0044
3516.00,0.0044
3515.00,0.0044
3514.00,0.0045
3513.00,0.0045
3512.00,0.0045
3511.00,0.0045
3510.00,0.0045
3509.00,0.0045
3508.00,0.0045
3507.00,0.0045
3506.00,0.0046
3505.00,0.0046
3504.00,0.0046
3503.00,0.0046
3502.00,0.0046
3501.00,0.0047
3500.00,0.0047
3499.00,0.0047
3498.00,0.0047
3497.00,0.0048
3496.00,0.0048
3495.00,0.0048
3494.00,0.0048
3493.00,0.0048
3492.00,0.0048
3491.00,0.0048
3490.00,0.0049
3489.00,0.0049
3488.00,0.0049
3487.00,0.0049
3486.00,0.0050
3485.00,0.0050
3484.00,0.0050
3483.00,0.0050
3482.00,0.0050
3481.00,0.0050
3480.00,0.0050
3479.00,0.0051
3478.00,0.0051
3477.00,0.0052
3476.00,0.0052
3475.00,0.0052
3474.00,0.0052
3473.00,0.0053
3472.00,0.0053
3471.00,0.0053
3470.00,0.0053
3469.00,0.0053
3468.00,0.0053
3467.00,0.0054
3466.00,0.0054
3465.00,0.0054
3464.00,0.0054
3463.00,0.0054
3462.00,0.0054
3461.00,0.0055
3460.00,0.0055
3459.00,0.0055
3458.00,0.0055
3457.00,0.0055
3456.00,0.0056
3455.00,0.0056
3454.00,0.0056
3453.00,0.0056
3452.00,0.0057
3451.00,0.0057
3450.00,0.0057
3449.00,0.0057
3448.00,0.0057
3447.00,0.0057
3446.00,0.0057
3445.00,0.0057
3444.00,0.0058
3443.00,0.0058
3442.00,0.0058
3441.00,0.0058
3440.00,0.0058
3439.00,0.0059
3438.00,0.0059
3437.00,0.0059
3436.00,0.0059
3435.00,0.0060
3434.00,0.0060
3433.00,0.0060
3432.00,0.0060
3431.00,0.0061
3430.00,0.0061
3429.00,0.0061
3428.00,0.0061
3427.00,0.0061
3426.00,0.0062
3425.00,0.0062
3424.00,0.0062
3423.00,0.0062
3422.00,0.0062
3421.00,0.0063
3420.00,0.0063
3419.00,0.0063
3418.00,0.0063
3417.00,0.0064
3416.00,0.0064
3415.00,0.0064
3414.00,0.0064
3413.00,0.0064
3412.00,0.0065
3411.00,0.0065
3410.00,0.0065
3409.00,0.0065
3408.00,0.0065
3407.00,0.0066
3406.00,0.0066
3405.00,0.0066
3404.00,0.0066
3403.00,0.0066
3402.00,0.0066
3401.00,0.0066
3400.00,0.0067
3399.00,0.0067
3398.00,0.0067
3397.00,0.0067
3396.00,0.0067
3395.00,0.0067
3394.00,0.0068
3393.00,0.0068
3392.00,0.0068
3391.00,0.0068
3390.00,0.0068
3389.00,0.0069
3388.00,0.0069
3387.00,0.0069
3386.00,0.0069
3385.00,0.0069
3384.00,0.0069
3383.00,0.0070
3382.00,0.0070
3381.00,0.0070
3380.00,0.0070
3379.00,0.0071
3378.00,0.0071
3377.00,0.0071
3376.00,0.0071
3375.00,0.0071
3374.00,0.0072
3373.00,0.0072
3372.00,0.0072
3371.00,0.0072
3370.00,0.0073
3369.00,0.0073
3368.00,0.0073
3367.00,0.0073
3366.00,0.0073
3365.00,0.0074
3364.00,0.0074
3363.00,0.0074
3362.00,0.0074
3361.00,0.0075
3360.00,0.0075
3359.00,0.0076
3358.00,0.0076
3357.00,0.0076
3356.00,0.0077
3355.00,0.0077
3354.00,0.0077
3353.00,0.0078
3352.00,0.0078
3351.00,0.0078
3350.00,0.0078
3349.00,0.0079
3348.00,0.0079
3347.00,0.0080
3346.00,0.0080
3345.00,0.0080
3344.00,0.0081
3343.00,0.0081
3342.00,0.0081
3341.00,0.0082
3340.00,0.0082
3339.00,0.0083
3338.00,0.0083
3337.00,0.0083
3336.00,0.0084
3335.00,0.0084
3334.00,0.0085
3333.00,0.0085
3332.00,0.0086
3331.00,0.0086
3330.00,0.0086
3329.00,0.0087
3328.00,0.0087
3327.00,0.0088
3326.00,0.0088
3325.00,0.0088
3324.00,0.0089
3323.00,0.0089
3322.00,0.0090
3321.00,0.0091
3320.00,0.0091
3319.00,0.0091
3318.00,0.0092
3317.00,0.0093
3316.00,0.0093
3315.00,0.0094
3314.00,0.0094
3313.00,0.0095
3312.00,0.0095
3311.00,0.0096
3310.00,0.0096
3309.00,0.0096
3308.00,0.0097
3307.00,0.0097
3306.00,0.0098
3305.00,0.0098
3304.00,0.0099
3303.00,0.0099
3302.00,0.0100
3301.00,0.0101
3300.00,0.0101
3299.00,0.0102
3298.00,0.0102
3297.00,0.0103
3296.00,0.0103
3295.00,0.0103
3294.00,0.0104
3293.00,0.0104
3292.00,0.0104
3291.00,0.0105
3290.00,0.0106
3289.00,0.0106
3288.00,0.0107
3287.00,0.0107
3286.00,0.0107
3285.00,0.0107
3284.00,0.0107
3283.00,0.0108
3282.00,0.0108
3281.00,0.0108
3280.00,0.0108
3279.00,0.0108
3278.00,0.0108
3277.00,0.0108
3276.00,0.0108
3275.00,0.0108
3274.00,0.0107
3273.00,0.0107
3272.00,0.0107
3271.00,0.0107
3270.00,0.0106
3269.00,0.0106
3268.00,0.0106
3267.00,0.0106
3266.00,0.0106
3265.00,0.0106
3264.00,0.0105
3263.00,0.0105
3262.00,0.0104
3261.00,0.0104
3260.00,0.0104
3259.00,0.0103
3258.00,0.0102
3257.00,0.0102
3256.00,0.0101
3255.00,0.0101
3254.00,0.0100
3253.00,0.0100
3252.00,0.0099
3251.00,0.0099
3250.00,0.0098
3249.00,0.0097
3248.00,0.0097
3247.00,0.0096
3246.00,0.0096
3245.00,0.0096
3244.00,0.0095
3243.00,0.0095
3242.00,0.0095
3241.00,0.0094
3240.00,0.0094
3239.00,0.0094
3238.00,0.0093
3237.00,0.0093
3236.00,0.0092
3235.00,0.0092
3234.00,0.0091
3233.00,0.0091
3232.00,0.0091
3231.00,0.0090
3230.00,0.0090
3229.00,0.0090
3228.00,0.0090
3227.00,0.0090
3226.00,0.0090
3225.00,0.0089
3224.00,0.0089
3223.00,0.0088
3222.00,0.0088
3221.00,0.0088
3220.00,0.0087
3219.00,0.0087
3218.00,0.0087
3217.00,0.0086
3216.00,0.0086
3215.00,0.0086
3214.00,0.0086
3213.00,0.0086
3212.00,0.0085
3211.00,0.0085
3210.00,0.0085
3209.00,0.0085
3208.00,0.0084
3207.00,0.0084
3206.00,0.0084
3205.00,0.0084
3204.00,0.0084
3203.00,0.0083
3202.00,0.0083
3201.00,0.0083
3200.00,0.0082
3199.00,0.0082
3198.00,0.0082
3197.00,0.0082
3196.00,0.0081
3195.00,0.0081
3194.00,0.0081
3193.00,0.0080
3192.00,0.0080
3191.00,0.0080
3190.00,0.0080
3189.00,0.0079
3188.00,0.0079
3187.00,0.0079
3186.00,0.0078
3185.00,0.0078
3184.00,0.0078
3183.00,0.0077
3182.00,0.0077
3181.00,0.0077
3180.00,0.0076
3179.00,0.0076
3178.00,0.0076
3177.00,0.0075
3176.00,0.0075
3175.00,0.0075
3174.00,0.0074
3173.00,0.0074
3172.00,0.0074
3171.00,0.0073
3170.00,0.0073
3169.00,0.0073
3168.00,0.0073
3167.00,0.0072
3166.00,0.0072
3165.00,0.0072
3164.00,0.0071
3163.00,0.0071
3162.00,0.0071
3161.00,0.0070
3160.00,0.0070
3159.00,0.0070
3158.00,0.0069
3157.00,0.0069
3156.00,0.0069
3155.00,0.0068
3154.00,0.0068
3153.00,0.0068
3152.00,0.0067
3151.00,0.0067
3150.00,0.0067
3149.00,0.0067
3148.00,0.0066
3147.00,0.0066
3146.00,0.0066
3145.00,0.0066
3144.00,0.0066
3143.00,0.0065
3142.00,0.0065
3141.00,0.0065
3140.00,0.0064
3139.00,0.0064
3138.00,0.0064
3137.00,0.0064
3136.00,0.0064
3135.00,0.0064
3134.00,0.0064
3133.00,0.0063
3132.00,0.0063
3131.00,0.0063
3130.00,0.0063
3129.00,0.0063
3128.00,0.0062
3127.00,0.0062
3126.00,0.0062
3125.00,0.0062
3124.00,0.0062
3123.00,0.0062
3122.00,0.0061
3121.00,0.0061
3120.00,0.0061
3119.00,0.0061
3118.00,0.0061
3117.00,0.0061
3116.00,0.0061
3115.00,0.0061
3114.00,0.0061
3113.00,0.0061
3112.00,0.0061
3111.00,0.0061
3110.00,0.0061
3109.00,0.0061
3108.00,0.0061
3107.00,0.0061
3106.00,0.0061
3105.00,0.0061
3104.00,0.0061
3103.00,0.0061
3102.00,0.0061
3101.00,0.0060
3100.00,0.0060
3099.00,0.0060
3098.00,0.0060
3097.00,0.0061
3096.00,0.0061
3095.00,0.0061
3094.00,0.0061
3093.00,0.0061
3092.00,0.0061
3091.00,0.0061
3090.00,0.0061
3089.00,0.0061
3088.00,0.0061
3087.00,0.0061
3086.00,0.0061
3085.00,0.0061
3084.00,0.0061
3083.00,0.0061
3082.00,0.0061
3081.00,0.0061
3080.00,0.0061
3079.00,0.0061
3078.00,0.0061
3077.00,0.0061
3076.00,0.0061
3075.00,0.0062
3074.00,0.0062
3073.00,0.0062
3072.00,0.0062
3071.00,0.0062
3070.00,0.0062
3069.00,0.0062
3068.00,0.0061
3067.00,0.0061
3066.00,0.0061
3065.00,0.0061
3064.00,0.0061
3063.00,0.0061
3062.00,0.0061
3061.00,0.0061
3060.00,0.0061
3059.00,0.0061
3058.00,0.0061
3057.00,0.0060
3056.00,0.0060
3055.00,0.0060
3054.00,0.0060
3053.00,0.0060
3052.00,0.0060
3051.00,0.0059
3050.00,0.0059
3049.00,0.0059
3048.00,0.0059
3047.00,0.0059
3046.00,0.0058
3045.00,0.0058
3044.00,0.0058
3043.00,0.0057
3042.00,0.0057
3041.00,0.0057
3040.00,0.0057
3039.00,0.0057
3038.00,0.0057
3037.00,0.0057
3036.00,0.0057
3035.00,0.0056
3034.00,0.0056
3033.00,0.0056
3032.00,0.0056
3031.00,0.0056
3030.00,0.0056
3029.00,0.0056
3028.00,0.0056
3027.00,0.0055
3026.00,0.0055
3025.00,0.0055
3024.00,0.0055
3023.00,0.0054
3022.00,0.0054
3021.00,0.0054
3020.00,0.0054
3019.00,0.0054
3018.00,0.0053
3017.00,0.0053
3016.00,0.0053
3015.00,0.0052
3014.00,0.0052
3013.00,0.0052
3012.00,0.0052
3011.00,0.0052
3010.00,0.0052
3009.00,0.0052
3008.00,0.0052
3007.00,0.0052
3006.00,0.0052
3005.00,0.0052
3004.00,0.0052
3003.00,0.0052
3002.00,0.0052
3001.00,0.0052
3000.00,0.0052
2999.00,0.0052
2998.00,0.0052
2997.00,0.0052
2996.00,0.0052
2995.00,0.0052
2994.00,0.0053
2993.00,0.0053
2992.00,0.0053
2991.00,0.0053
2990.00,0.0053
2989.00,0.0054
2988.00,0.0054
2987.00,0.0054
2986.00,0.0055
2985.00,0.0055
2984.00,0.0056
2983.00,0.0056
2982.00,0.0056
2981.00,0.0056
2980.00,0.0057
2979.00,0.0057
2978.00,0.0058
2977.00,0.0058
2976.00,0.0059
2975.00,0.0060
2974.00,0.0060
2973.00,0.0061
2972.00,0.0062
2971.00,0.0062
2970.00,0.0063
2969.00,0.0064
2968.00,0.0064
2967.00,0.0065
2966.00,0.0065
2965.00,0.0066
2964.00,0.0066
2963.00,0.0067
2962.00,0.0067
2961.00,0.0068
2960.00,0.0068
2959.00,0.0068
2958.00,0.0068
2957.00,0.0068
2956.00,0.0068
2955.00,0.0068
2954.00,0.0068
2953.00,0.0068
2952.00,0.0068
2951.00,0.0067
2950.00,0.0067
2949.00,0.0067
2948.00,0.0067
2947.00,0.0067
2946.00,0.0067
2945.00,0.0067
2944.00,0.0068
2943.00,0.0069
2942.00,0.0069
2941.00,0.0070
2940.00,0.0071
2939.00,0.0072
2938.00,0.0073
2937.00,0.0074
2936.00,0.0075
2935.00,0.0076
2934.00,0.0077
2933.00,0.0079
2932.00,0.0080
2931.00,0.0081
2930.00,0.0082
2929.00,0.0084
2928.00,0.0085
2927.00,0.0087
2926.00,0.0088
2925.00,0.0090
2924.00,0.0091
2923.00,0.0093
2922.00,0.0094
2921.00,0.0095
2920.00,0.0096
2919.00,0.0097
2918.00,0.0097
2917.00,0.0097
2916.00,0.0095
2915.00,0.0093
2914.00,0.0091
2913.00,0.0088
2912.00,0.0085
2911.00,0.0083
2910.00,0.0080
2909.00,0.0078
2908.00,0.0076
2907.00,0.0075
2906.00,0.0073
2905.00,0.0072
2904.00,0.0072
2903.00,0.0071
2902.00,0.0070
2901.00,0.0069
2900.00,0.0069
2899.00,0.0068
2898.00,0.0068
2897.00,0.0067
2896.00,0.0066
2895.00,0.0066
2894.00,0.0065
2893.00,0.0065
2892.00,0.0065
2891.00,0.0064
2890.00,0.0064
2889.00,0.0064
2888.00,0.0063
2887.00,0.0063
2886.00,0.0063
2885.00,0.0063
2884.00,0.0063
2883.00,0.0062
2882.00,0.0062
2881.00,0.0062
2880.00,0.0062
2879.00,0.0063
2878.00,0.0063
2877.00,0.0063
2876.00,0.0063
2875.00,0.0063
2874.00,0.0063
2873.00,0.0063
2872.00,0.0063
2871.00,0.0063
2870.00,0.0063
2869.00,0.0063
2868.00,0.0063
2867.00,0.0062
2866.00,0.0062
2865.00,0.0062
2864.00,0.0062
2863.00,0.0062
2862.00,0.0063
2861.00,0.0063
2860.00,0.0064
2859.00,0.0064
2858.00,0.0065
2857.00,0.0066
2856.00,0.0067
2855.00,0.0069
2854.00,0.0070
2853.00,0.0072
2852.00,0.0074
2851.00,0.0075
2850.00,0.0076
2849.00,0.0075
2848.00,0.0074
2847.00,0.0071
2846.00,0.0069
2845.00,0.0066
2844.00,0.0063
2843.00,0.0061
2842.00,0.0059
2841.00,0.0058
2840.00,0.0057
2839.00,0.0056
2838.00,0.0055
2837.00,0.0054
2836.00,0.0053
2835.00,0.0053
2834.00,0.0052
2833.00,0.0052
2832.00,0.0052
2831.00,0.0051
2830.00,0.0051
2829.00,0.0051
2828.00,0.0051
2827.00,0.0050
2826.00,0.0050
2825.00,0.0050
2824.00,0.0049
2823.00,0.0049
2822.00,0.0049
2821.00,0.0049
2820.00,0.0049
2819.00,0.0049
2818.00,0.0048
2817.00,0.0048
2816.00,0.0048
2815.00,0.0048
2814.00,0.0048
2813.00,0.0048
2812.00,0.0048
2811.00,0.0048
2810.00,0.0047
2809.00,0.0047
2808.00,0.0047
2807.00,0.0047
2806.00,0.0047
2805.00,0.0047
2804.00,0.0047
2803.00,0.0047
2802.00,0.0046
2801.00,0.0046
2800.00,0.0046
2799.00,0.0046
2798.00,0.0046
2797.00,0.0046
2796.00,0.0046
2795.00,0.0046
2794.00,0.0046
2793.00,0.0046
2792.00,0.0045
2791.00,0.0045
2790.00,0.0045
2789.00,0.0045
2788.00,0.0045
2787.00,0.0045
2786.00,0.0045
2785.00,0.0045
2784.00,0.0045
2783.00,0.0045
2782.00,0.0045
2781.00,0.0045
2780.00,0.0045
2779.00,0.0045
2778.00,0.0045
2777.00,0.0044
2776.00,0.0044
2775.00,0.0044
2774.00,0.0044
2773.00,0.0044
2772.00,0.0044
2771.00,0.0044
2770.00,0.0044
2769.00,0.0043
2768.00,0.0043
2767.00,0.0043
2766.00,0.0043
2765.00,0.0043
2764.00,0.0043
2763.00,0.0043
2762.00,0.0043
2761.00,0.0043
2760.00,0.0043
2759.00,0.0043
2758.00,0.0043
2757.00,0.0043
