Created as New Dataset,Sample 526 By YargerLab Date Monday, May 19 2025
cm-1,A
4000.00,0.0290
3999.00,0.0290
3998.00,0.0290
3997.00,0.0289
3996.00,0.0289
3995.00,0.0289
3994.00,0.0289
3993.00,0.0288
3992.00,0.0288
3991.00,0.0288
3990.00,0.0288
3989.00,0.0288
3988.00,0.0288
3987.00,0.0288
3986.00,0.0287
3985.00,0.0287
3984.00,0.0287
3983.00,0.0287
3982.00,0.0287
3981.00,0.0287
3980.00,0.0287
3979.00,0.0287
3978.00,0.0287
3977.00,0.0287
3976.00,0.0287
3975.00,0.0287
3974.00,0.0287
3973.00,0.0287
3972.00,0.0287
3971.00,0.0287
3970.00,0.0287
3969.00,0.0287
3968.00,0.0287
3967.00,0.0287
3966.00,0.0288
3965.00,0.0288
3964.00,0.0288
3963.00,0.0288
3962.00,0.0288
3961.00,0.0288
3960.00,0.0288
3959.00,0.0288
3958.00,0.0288
3957.00,0.0288
3956.00,0.0288
3955.00,0.0288
3954.00,0.0288
3953.00,0.0288
3952.00,0.0288
3951.00,0.0288
3950.00,0.0288
3949.00,0.0289
3948.00,0.0289
3947.00,0.0289
3946.00,0.0289
3945.00,0.0289
3944.00,0.0290
3943.00,0.0290
3942.00,0.0290
3941.00,0.0290
3940.00,0.0290
3939.00,0.0291
3938.00,0.0291
3937.00,0.0291
3936.00,0.0291
3935.00,0.0291
3934.00,0.0292
3933.00,0.0292
3932.00,0.0292
3931.00,0.0292
3930.00,0.0292
3929.00,0.0292
3928.00,0.0292
3927.00,0.0292
3926.00,0.0293
3925.00,0.0293
3924.00,0.0293
3923.00,0.0293
3922.00,0.0292
3921.00,0.0292
3920.00,0.0293
3919.00,0.0293
3918.00,0.0293
3917.00,0.0294
3916.00,0.0294
3915.00,0.0295
3914.00,0.0295
3913.00,0.0296
3912.00,0.0297
3911.00,0.0297
3910.00,0.0297
3909.00,0.0296
3908.00,0.0295
3907.00,0.0294
3906.00,0.0294
3905.00,0.0293
3904.00,0.0292
3903.00,0.0291
3902.00,0.0291
3901.00,0.0292
3900.00,0.0294
3899.00,0.0295
3898.00,0.0296
3897.00,0.0297
3896.00,0.0298
3895.00,0.0299
3894.00,0.0299
3893.00,0.0299
3892.00,0.0299
3891.00,0.0298
3890.00,0.0296
3889.00,0.0295
3888.00,0.0295
3887.00,0.0296
3886.00,0.0296
3885.00,0.0296
3884.00,0.0295
3883.00,0.0294
3882.00,0.0295
3881.00,0.0297
3880.00,0.0297
3879.00,0.0297
3878.00,0.0296
3877.00,0.0296
3876.00,0.0297
3875.00,0.0298
3874.00,0.0297
3873.00,0.0296
3872.00,0.0296
3871.00,0.0297
3870.00,0.0298
3869.00,0.0298
3868.00,0.0297
3867.00,0.0296
3866.00,0.0297
3865.00,0.0298
3864.00,0.0298
3863.00,0.0298
3862.00,0.0298
3861.00,0.0298
3860.00,0.0299
3859.00,0.0298
3858.00,0.0296
3857.00,0.0293
3856.00,0.0291
3855.00,0.0290
3854.00,0.0291
3853.00,0.0292
3852.00,0.0292
3851.00,0.0293
3850.00,0.0297
3849.00,0.0300
3848.00,0.0302
3847.00,0.0302
3846.00,0.0302
3845.00,0.0301
3844.00,0.0300
3843.00,0.0299
3842.00,0.0297
3841.00,0.0296
3840.00,0.0296
3839.00,0.0297
3838.00,0.0297
3837.00,0.0297
3836.00,0.0298
3835.00,0.0299
3834.00,0.0300
3833.00,0.0301
3832.00,0.0302
3831.00,0.0302
3830.00,0.0302
3829.00,0.0303
3828.00,0.0303
3827.00,0.0303
3826.00,0.0303
3825.00,0.0301
3824.00,0.0299
3823.00,0.0299
3822.00,0.0300
3821.00,0.0300
3820.00,0.0298
3819.00,0.0297
3818.00,0.0297
3817.00,0.0300
3816.00,0.0302
3815.00,0.0303
3814.00,0.0303
3813.00,0.0304
3812.00,0.0304
3811.00,0.0304
3810.00,0.0304
3809.00,0.0303
3808.00,0.0303
3807.00,0.0303
3806.00,0.0301
3805.00,0.0300
3804.00,0.0299
3803.00,0.0300
3802.00,0.0301
3801.00,0.0301
3800.00,0.0300
3799.00,0.0299
3798.00,0.0301
3797.00,0.0302
3796.00,0.0303
3795.00,0.0303
3794.00,0.0303
3793.00,0.0303
3792.00,0.0304
3791.00,0.0304
3790.00,0.0304
3789.00,0.0303
3788.00,0.0303
3787.00,0.0302
3786.00,0.0302
3785.00,0.0302
3784.00,0.0301
3783.00,0.0300
3782.00,0.0299
3781.00,0.0299
3780.00,0.0299
3779.00,0.0298
3778.00,0.0297
3777.00,0.0297
3776.00,0.0297
3775.00,0.0297
3774.00,0.0296
3773.00,0.0296
3772.00,0.0295
3771.00,0.0295
3770.00,0.0294
3769.00,0.0293
3768.00,0.0292
3767.00,0.0292
3766.00,0.0293
3765.00,0.0293
3764.00,0.0293
3763.00,0.0292
3762.00,0.0292
3761.00,0.0292
3760.00,0.0292
3759.00,0.0291
3758.00,0.0291
3757.00,0.0290
3756.00,0.0289
3755.00,0.0287
3754.00,0.0286
3753.00,0.0286
3752.00,0.0286
3751.00,0.0286
3750.00,0.0286
3749.00,0.0285
3748.00,0.0283
3747.00,0.0283
3746.00,0.0284
3745.00,0.0285
3744.00,0.0286
3743.00,0.0286
3742.00,0.0287
3741.00,0.0289
3740.00,0.0290
3739.00,0.0290
3738.00,0.0289
3737.00,0.0288
3736.00,0.0289
3735.00,0.0289
3734.00,0.0290
3733.00,0.0290
3732.00,0.0291
3731.00,0.0292
3730.00,0.0292
3729.00,0.0293
3728.00,0.0295
3727.00,0.0295
3726.00,0.0296
3725.00,0.0295
3724.00,0.0295
3723.00,0.0296
3722.00,0.0296
3721.00,0.0297
3720.00,0.0298
3719.00,0.0298
3718.00,0.0298
3717.00,0.0298
3716.00,0.0297
3715.00,0.0296
3714.00,0.0295
3713.00,0.0295
3712.00,0.0295
3711.00,0.0295
3710.00,0.0296
3709.00,0.0296
3708.00,0.0297
3707.00,0.0299
3706.00,0.0300
3705.00,0.0300
3704.00,0.0301
3703.00,0.0302
3702.00,0.0303
3701.00,0.0303
3700.00,0.0304
3699.00,0.0305
3698.00,0.0307
3697.00,0.0309
3696.00,0.0311
3695.00,0.0312
3694.00,0.0313
3693.00,0.0315
3692.00,0.0318
3691.00,0.0322
3690.00,0.0329
3689.00,0.0337
3688.00,0.0346
3687.00,0.0355
3686.00,0.0366
3685.00,0.0377
3684.00,0.0389
3683.00,0.0401
3682.00,0.0413
3681.00,0.0427
3680.00,0.0440
3679.00,0.0452
3678.00,0.0466
3677.00,0.0483
3676.00,0.0503
3675.00,0.0521
3674.00,0.0534
3673.00,0.0544
3672.00,0.0555
3671.00,0.0565
3670.00,0.0575
3669.00,0.0581
3668.00,0.0586
3667.00,0.0591
3666.00,0.0598
3665.00,0.0605
3664.00,0.0613
3663.00,0.0620
3662.00,0.0626
3661.00,0.0630
3660.00,0.0632
3659.00,0.0632
3658.00,0.0632
3657.00,0.0632
3656.00,0.0629
3655.00,0.0624
3654.00,0.0617
3653.00,0.0611
3652.00,0.0606
3651.00,0.0602
3650.00,0.0600
3649.00,0.0597
3648.00,0.0592
3647.00,0.0586
3646.00,0.0579
3645.00,0.0572
3644.00,0.0563
3643.00,0.0554
3642.00,0.0544
3641.00,0.0536
3640.00,0.0531
3639.00,0.0531
3638.00,0.0530
3637.00,0.0524
3636.00,0.0506
3635.00,0.0479
3634.00,0.0450
3633.00,0.0424
3632.00,0.0404
3631.00,0.0392
3630.00,0.0384
3629.00,0.0378
3628.00,0.0371
3627.00,0.0366
3626.00,0.0363
3625.00,0.0361
3624.00,0.0360
3623.00,0.0356
3622.00,0.0353
3621.00,0.0349
3620.00,0.0346
3619.00,0.0342
3618.00,0.0338
3617.00,0.0335
3616.00,0.0333
3615.00,0.0331
3614.00,0.0330
3613.00,0.0329
3612.00,0.0326
3611.00,0.0324
3610.00,0.0323
3609.00,0.0322
3608.00,0.0321
3607.00,0.0320
3606.00,0.0318
3605.00,0.0317
3604.00,0.0317
3603.00,0.0316
3602.00,0.0316
3601.00,0.0316
3600.00,0.0315
3599.00,0.0315
3598.00,0.0315
3597.00,0.0315
3596.00,0.0316
3595.00,0.0316
3594.00,0.0316
3593.00,0.0316
3592.00,0.0316
3591.00,0.0316
3590.00,0.0316
3589.00,0.0317
3588.00,0.0318
3587.00,0.0319
3586.00,0.0319
3585.00,0.0320
3584.00,0.0322
3583.00,0.0323
3582.00,0.0325
3581.00,0.0326
3580.00,0.0327
3579.00,0.0328
3578.00,0.0329
3577.00,0.0330
3576.00,0.0331
3575.00,0.0332
3574.00,0.0332
3573.00,0.0333
3572.00,0.0333
3571.00,0.0333
3570.00,0.0333
3569.00,0.0334
3568.00,0.0335
3567.00,0.0337
3566.00,0.0339
3565.00,0.0340
3564.00,0.0342
3563.00,0.0344
3562.00,0.0346
3561.00,0.0348
3560.00,0.0350
3559.00,0.0351
3558.00,0.0352
3557.00,0.0353
3556.00,0.0354
3555.00,0.0355
3554.00,0.0356
3553.00,0.0358
3552.00,0.0359
3551.00,0.0360
3550.00,0.0361
3549.00,0.0363
3548.00,0.0364
3547.00,0.0366
3546.00,0.0368
3545.00,0.0370
3544.00,0.0372
3543.00,0.0374
3542.00,0.0375
3541.00,0.0377
3540.00,0.0379
3539.00,0.0380
3538.00,0.0382
3537.00,0.0383
3536.00,0.0385
3535.00,0.0387
3534.00,0.0389
3533.00,0.0391
3532.00,0.0393
3531.00,0.0395
3530.00,0.0397
3529.00,0.0399
3528.00,0.0401
3527.00,0.0403
3526.00,0.0405
3525.00,0.0407
3524.00,0.0409
3523.00,0.0412
3522.00,0.0415
3521.00,0.0417
3520.00,0.0420
3519.00,0.0422
3518.00,0.0425
3517.00,0.0427
3516.00,0.0429
3515.00,0.0432
3514.00,0.0434
3513.00,0.0437
3512.00,0.0440
3511.00,0.0443
3510.00,0.0446
3509.00,0.0449
3508.00,0.0451
3507.00,0.0454
3506.00,0.0457
3505.00,0.0460
3504.00,0.0463
3503.00,0.0466
3502.00,0.0469
3501.00,0.0472
3500.00,0.0476
3499.00,0.0479
3498.00,0.0483
3497.00,0.0486
3496.00,0.0490
3495.00,0.0493
3494.00,0.0497
3493.00,0.0500
3492.00,0.0504
3491.00,0.0507
3490.00,0.0511
3489.00,0.0514
3488.00,0.0518
3487.00,0.0522
3486.00,0.0526
3485.00,0.0530
3484.00,0.0534
3483.00,0.0538
3482.00,0.0542
3481.00,0.0546
3480.00,0.0550
3479.00,0.0554
3478.00,0.0559
3477.00,0.0563
3476.00,0.0567
3475.00,0.0571
3474.00,0.0576
3473.00,0.0580
3472.00,0.0584
3471.00,0.0588
3470.00,0.0593
3469.00,0.0597
3468.00,0.0602
3467.00,0.0607
3466.00,0.0612
3465.00,0.0616
3464.00,0.0621
3463.00,0.0625
3462.00,0.0630
3461.00,0.0635
3460.00,0.0639
3459.00,0.0644
3458.00,0.0648
3457.00,0.0653
3456.00,0.0657
3455.00,0.0662
3454.00,0.0667
3453.00,0.0672
3452.00,0.0677
3451.00,0.0682
3450.00,0.0687
3449.00,0.0691
3448.00,0.0695
3447.00,0.0699
3446.00,0.0704
3445.00,0.0708
3444.00,0.0713
3443.00,0.0717
3442.00,0.0722
3441.00,0.0727
3440.00,0.0731
3439.00,0.0736
3438.00,0.0740
3437.00,0.0745
3436.00,0.0749
3435.00,0.0754
3434.00,0.0759
3433.00,0.0763
3432.00,0.0768
3431.00,0.0773
3430.00,0.0778
3429.00,0.0783
3428.00,0.0787
3427.00,0.0792
3426.00,0.0797
3425.00,0.0802
3424.00,0.0807
3423.00,0.0812
3422.00,0.0817
3421.00,0.0821
3420.00,0.0826
3419.00,0.0831
3418.00,0.0836
3417.00,0.0841
3416.00,0.0846
3415.00,0.0851
3414.00,0.0856
3413.00,0.0861
3412.00,0.0866
3411.00,0.0871
3410.00,0.0876
3409.00,0.0881
3408.00,0.0886
3407.00,0.0891
3406.00,0.0897
3405.00,0.0902
3404.00,0.0907
3403.00,0.0912
3402.00,0.0918
3401.00,0.0923
3400.00,0.0928
3399.00,0.0933
3398.00,0.0937
3397.00,0.0942
3396.00,0.0947
3395.00,0.0952
3394.00,0.0957
3393.00,0.0963
3392.00,0.0968
3391.00,0.0972
3390.00,0.0976
3389.00,0.0980
3388.00,0.0985
3387.00,0.0989
3386.00,0.0994
3385.00,0.0998
3384.00,0.1003
3383.00,0.1008
3382.00,0.1013
3381.00,0.1017
3380.00,0.1022
3379.00,0.1026
3378.00,0.1031
3377.00,0.1035
3376.00,0.1039
3375.00,0.1043
3374.00,0.1047
3373.00,0.1052
3372.00,0.1056
3371.00,0.1060
3370.00,0.1065
3369.00,0.1069
3368.00,0.1072
3367.00,0.1075
3366.00,0.1079
3365.00,0.1082
3364.00,0.1084
3363.00,0.1087
3362.00,0.1090
3361.00,0.1093
3360.00,0.1096
3359.00,0.1099
3358.00,0.1102
3357.00,0.1104
3356.00,0.1106
3355.00,0.1109
3354.00,0.1111
3353.00,0.1114
3352.00,0.1117
3351.00,0.1119
3350.00,0.1121
3349.00,0.1122
3348.00,0.1123
3347.00,0.1124
3346.00,0.1125
3345.00,0.1126
3344.00,0.1127
3343.00,0.1128
3342.00,0.1128
3341.00,0.1129
3340.00,0.1130
3339.00,0.1130
3338.00,0.1130
3337.00,0.1129
3336.00,0.1128
3335.00,0.1127
3334.00,0.1126
3333.00,0.1125
3332.00,0.1125
3331.00,0.1124
3330.00,0.1123
3329.00,0.1121
3328.00,0.1120
3327.00,0.1118
3326.00,0.1117
3325.00,0.1115
3324.00,0.1113
3323.00,0.1111
3322.00,0.1109
3321.00,0.1107
3320.00,0.1105
3319.00,0.1103
3318.00,0.1101
3317.00,0.1098
3316.00,0.1096
3315.00,0.1093
3314.00,0.1091
3313.00,0.1089
3312.00,0.1086
3311.00,0.1084
3310.00,0.1082
3309.00,0.1079
3308.00,0.1077
3307.00,0.1074
3306.00,0.1071
3305.00,0.1068
3304.00,0.1064
3303.00,0.1061
3302.00,0.1057
3301.00,0.1054
3300.00,0.1051
3299.00,0.1048
3298.00,0.1045
3297.00,0.1042
3296.00,0.1039
3295.00,0.1035
3294.00,0.1032
3293.00,0.1028
3292.00,0.1024
3291.00,0.1021
3290.00,0.1017
3289.00,0.1013
3288.00,0.1009
3287.00,0.1005
3286.00,0.1002
3285.00,0.0998
3284.00,0.0995
3283.00,0.0992
3282.00,0.0988
3281.00,0.0985
3280.00,0.0981
3279.00,0.0978
3278.00,0.0974
3277.00,0.0971
3276.00,0.0968
3275.00,0.0965
3274.00,0.0962
3273.00,0.0959
3272.00,0.0956
3271.00,0.0953
3270.00,0.0949
3269.00,0.0946
3268.00,0.0942
3267.00,0.0939
3266.00,0.0935
3265.00,0.0932
3264.00,0.0929
3263.00,0.0926
3262.00,0.0923
3261.00,0.0920
3260.00,0.0917
3259.00,0.0915
3258.00,0.0912
3257.00,0.0910
3256.00,0.0907
3255.00,0.0904
3254.00,0.0901
3253.00,0.0898
3252.00,0.0895
3251.00,0.0893
3250.00,0.0890
3249.00,0.0887
3248.00,0.0885
3247.00,0.0881
3246.00,0.0878
3245.00,0.0875
3244.00,0.0871
3243.00,0.0868
3242.00,0.0865
3241.00,0.0861
3240.00,0.0858
3239.00,0.0855
3238.00,0.0852
3237.00,0.0849
3236.00,0.0846
3235.00,0.0843
3234.00,0.0840
3233.00,0.0836
3232.00,0.0832
3231.00,0.0828
3230.00,0.0824
3229.00,0.0820
3228.00,0.0817
3227.00,0.0814
3226.00,0.0810
3225.00,0.0806
3224.00,0.0803
3223.00,0.0798
3222.00,0.0794
3221.00,0.0790
3220.00,0.0786
3219.00,0.0782
3218.00,0.0779
3217.00,0.0775
3216.00,0.0772
3215.00,0.0768
3214.00,0.0764
3213.00,0.0760
3212.00,0.0756
3211.00,0.0753
3210.00,0.0749
3209.00,0.0746
3208.00,0.0743
3207.00,0.0739
3206.00,0.0736
3205.00,0.0733
3204.00,0.0729
3203.00,0.0726
3202.00,0.0723
3201.00,0.0719
3200.00,0.0716
3199.00,0.0712
3198.00,0.0709
3197.00,0.0705
3196.00,0.0702
3195.00,0.0698
3194.00,0.0695
3193.00,0.0691
3192.00,0.0688
3191.00,0.0685
3190.00,0.0682
3189.00,0.0678
3188.00,0.0675
3187.00,0.0671
3186.00,0.0667
3185.00,0.0663
3184.00,0.0660
3183.00,0.0656
3182.00,0.0653
3181.00,0.0650
3180.00,0.0647
3179.00,0.0643
3178.00,0.0639
3177.00,0.0636
3176.00,0.0632
3175.00,0.0629
3174.00,0.0625
3173.00,0.0622
3172.00,0.0618
3171.00,0.0615
3170.00,0.0612
3169.00,0.0608
3168.00,0.0605
3167.00,0.0602
3166.00,0.0598
3165.00,0.0595
3164.00,0.0593
3163.00,0.0589
3162.00,0.0586
3161.00,0.0583
3160.00,0.0580
3159.00,0.0576
3158.00,0.0573
3157.00,0.0570
3156.00,0.0568
3155.00,0.0565
3154.00,0.0563
3153.00,0.0560
3152.00,0.0558
3151.00,0.0555
3150.00,0.0553
3149.00,0.0550
3148.00,0.0548
3147.00,0.0545
3146.00,0.0543
3145.00,0.0541
3144.00,0.0539
3143.00,0.0536
3142.00,0.0534
3141.00,0.0532
3140.00,0.0529
3139.00,0.0527
3138.00,0.0525
3137.00,0.0524
3136.00,0.0522
3135.00,0.0520
3134.00,0.0518
3133.00,0.0516
3132.00,0.0514
3131.00,0.0512
3130.00,0.0510
3129.00,0.0508
3128.00,0.0506
3127.00,0.0504
3126.00,0.0503
3125.00,0.0501
3124.00,0.0499
3123.00,0.0497
3122.00,0.0495
3121.00,0.0493
3120.00,0.0491
3119.00,0.0490
3118.00,0.0488
3117.00,0.0487
3116.00,0.0486
3115.00,0.0484
3114.00,0.0482
3113.00,0.0480
3112.00,0.0479
3111.00,0.0477
3110.00,0.0475
3109.00,0.0474
3108.00,0.0473
3107.00,0.0471
3106.00,0.0470
3105.00,0.0468
3104.00,0.0466
3103.00,0.0464
3102.00,0.0463
3101.00,0.0461
3100.00,0.0460
3099.00,0.0459
3098.00,0.0457
3097.00,0.0456
3096.00,0.0454
3095.00,0.0453
3094.00,0.0452
3093.00,0.0450
3092.00,0.0449
3091.00,0.0448
3090.00,0.0446
3089.00,0.0445
3088.00,0.0444
3087.00,0.0442
3086.00,0.0441
3085.00,0.0440
3084.00,0.0439
3083.00,0.0438
3082.00,0.0436
3081.00,0.0435
3080.00,0.0434
3079.00,0.0433
3078.00,0.0432
3077.00,0.0431
3076.00,0.0430
3075.00,0.0429
3074.00,0.0428
3073.00,0.0427
3072.00,0.0426
3071.00,0.0425
3070.00,0.0424
3069.00,0.0424
3068.00,0.0423
3067.00,0.0422
3066.00,0.0422
3065.00,0.0421
3064.00,0.0420
3063.00,0.0420
3062.00,0.0419
3061.00,0.0419
3060.00,0.0419
3059.00,0.0418
3058.00,0.0418
3057.00,0.0418
3056.00,0.0417
3055.00,0.0417
3054.00,0.0417
3053.00,0.0417
3052.00,0.0417
3051.00,0.0417
3050.00,0.0417
3049.00,0.0417
3048.00,0.0417
3047.00,0.0418
3046.00,0.0418
3045.00,0.0418
3044.00,0.0419
3043.00,0.0419
3042.00,0.0419
3041.00,0.0420
3040.00,0.0420
3039.00,0.0421
3038.00,0.0422
3037.00,0.0423
3036.00,0.0424
3035.00,0.0425
3034.00,0.0426
3033.00,0.0428
3032.00,0.0430
3031.00,0.0432
3030.00,0.0435
3029.00,0.0438
3028.00,0.0441
3027.00,0.0446
3026.00,0.0451
3025.00,0.0457
3024.00,0.0464
3023.00,0.0472
3022.00,0.0482
3021.00,0.0494
3020.00,0.0509
3019.00,0.0526
3018.00,0.0547
3017.00,0.0571
3016.00,0.0601
3015.00,0.0635
3014.00,0.0674
3013.00,0.0720
3012.00,0.0773
3011.00,0.0832
3010.00,0.0898
3009.00,0.0971
3008.00,0.1051
3007.00,0.1137
3006.00,0.1228
3005.00,0.1324
3004.00,0.1424
3003.00,0.1523
3002.00,0.1622
3001.00,0.1719
3000.00,0.1812
2999.00,0.1899
2998.00,0.1979
2997.00,0.2053
2996.00,0.2120
2995.00,0.2184
2994.00,0.2246
2993.00,0.2308
2992.00,0.2370
2991.00,0.2433
2990.00,0.2497
2989.00,0.2568
2988.00,0.2655
2987.00,0.2769
2986.00,0.2936
2985.00,0.3176
2984.00,0.3489
2983.00,0.3832
2982.00,0.4127
2981.00,0.4305
2980.00,0.4355
2979.00,0.4320
2978.00,0.4261
2977.00,0.4218
2976.00,0.4215
2975.00,0.4261
2974.00,0.4352
2973.00,0.4464
2972.00,0.4553
2971.00,0.4572
2970.00,0.4502
2969.00,0.4361
2968.00,0.4188
2967.00,0.4006
2966.00,0.3824
2965.00,0.3640
2964.00,0.3458
2963.00,0.3283
2962.00,0.3120
2961.00,0.2969
2960.00,0.2832
2959.00,0.2707
2958.00,0.2594
2957.00,0.2490
2956.00,0.2393
2955.00,0.2303
2954.00,0.2219
2953.00,0.2140
2952.00,0.2066
2951.00,0.2000
2950.00,0.1940
2949.00,0.1887
2948.00,0.1837
2947.00,0.1789
2946.00,0.1742
2945.00,0.1698
2944.00,0.1661
2943.00,0.1634
2942.00,0.1618
2941.00,0.1611
2940.00,0.1608
2939.00,0.1606
2938.00,0.1602
2937.00,0.1598
2936.00,0.1595
2935.00,0.1597
2934.00,0.1602
2933.00,0.1608
2932.00,0.1611
2931.00,0.1606
2930.00,0.1594
2929.00,0.1576
2928.00,0.1555
2927.00,0.1534
2926.00,0.1514
2925.00,0.1497
2924.00,0.1482
2923.00,0.1473
2922.00,0.1467
2921.00,0.1466
2920.00,0.1469
2919.00,0.1475
2918.00,0.1482
2917.00,0.1490
2916.00,0.1497
2915.00,0.1503
2914.00,0.1509
2913.00,0.1516
2912.00,0.1523
2911.00,0.1533
2910.00,0.1543
2909.00,0.1555
2908.00,0.1566
2907.00,0.1578
2906.00,0.1589
2905.00,0.1600
2904.00,0.1610
2903.00,0.1619
2902.00,0.1627
2901.00,0.1636
2900.00,0.1645
2899.00,0.1655
2898.00,0.1667
2897.00,0.1682
2896.00,0.1701
2895.00,0.1724
2894.00,0.1751
2893.00,0.1781
2892.00,0.1810
2891.00,0.1836
2890.00,0.1855
2889.00,0.1864
2888.00,0.1866
2887.00,0.1866
2886.00,0.1867
2885.00,0.1868
2884.00,0.1862
2883.00,0.1840
2882.00,0.1800
2881.00,0.1747
2880.00,0.1689
2879.00,0.1633
2878.00,0.1585
2877.00,0.1544
2876.00,0.1510
2875.00,0.1482
2874.00,0.1456
2873.00,0.1431
2872.00,0.1408
2871.00,0.1383
2870.00,0.1358
2869.00,0.1331
2868.00,0.1304
2867.00,0.1276
2866.00,0.1248
2865.00,0.1220
2864.00,0.1191
2863.00,0.1162
2862.00,0.1133
2861.00,0.1103
2860.00,0.1074
2859.00,0.1046
2858.00,0.1019
2857.00,0.0994
2856.00,0.0972
2855.00,0.0951
2854.00,0.0931
2853.00,0.0912
2852.00,0.0893
2851.00,0.0875
2850.00,0.0856
2849.00,0.0838
2848.00,0.0821
2847.00,0.0805
2846.00,0.0791
2845.00,0.0778
2844.00,0.0767
2843.00,0.0757
2842.00,0.0748
2841.00,0.0741
2840.00,0.0734
2839.00,0.0728
2838.00,0.0723
2837.00,0.0719
2836.00,0.0715
2835.00,0.0711
2834.00,0.0707
2833.00,0.0704
2832.00,0.0700
2831.00,0.0697
2830.00,0.0693
2829.00,0.0689
2828.00,0.0685
2827.00,0.0680
2826.00,0.0677
2825.00,0.0674
2824.00,0.0671
2823.00,0.0669
2822.00,0.0666
2821.00,0.0662
2820.00,0.0659
2819.00,0.0655
2818.00,0.0653
2817.00,0.0650
2816.00,0.0648
2815.00,0.0646
2814.00,0.0643
2813.00,0.0639
2812.00,0.0636
2811.00,0.0632
2810.00,0.0629
2809.00,0.0626
2808.00,0.0623
2807.00,0.0621
2806.00,0.0619
2805.00,0.0617
2804.00,0.0615
2803.00,0.0613
2802.00,0.0611
2801.00,0.0608
2800.00,0.0606
2799.00,0.0604
2798.00,0.0603
2797.00,0.0602
2796.00,0.0601
2795.00,0.0599
2794.00,0.0598
2793.00,0.0596
2792.00,0.0594
2791.00,0.0592
2790.00,0.0591
2789.00,0.0590
2788.00,0.0589
2787.00,0.0588
2786.00,0.0587
2785.00,0.0585
2784.00,0.0583
2783.00,0.0581
2782.00,0.0580
2781.00,0.0578
2780.00,0.0577
2779.00,0.0575
2778.00,0.0574
2777.00,0.0572
2776.00,0.0571
2775.00,0.0570
2774.00,0.0569
2773.00,0.0569
2772.00,0.0568
2771.00,0.0568
2770.00,0.0567
2769.00,0.0566
2768.00,0.0565
2767.00,0.0563
2766.00,0.0562
2765.00,0.0560
2764.00,0.0559
2763.00,0.0557
2762.00,0.0556
2761.00,0.0555
2760.00,0.0553
2759.00,0.0552
2758.00,0.0551
2757.00,0.0550
