Created as New Dataset,Sample 534 By YargerLab Date Wednesday, June 04 2025
cm-1,A
4000.00,-0.0235
3999.00,-0.0235
3998.00,-0.0235
3997.00,-0.0235
3996.00,-0.0236
3995.00,-0.0236
3994.00,-0.0236
3993.00,-0.0236
3992.00,-0.0236
3991.00,-0.0235
3990.00,-0.0235
3989.00,-0.0235
3988.00,-0.0235
3987.00,-0.0235
3986.00,-0.0235
3985.00,-0.0235
3984.00,-0.0235
3983.00,-0.0235
3982.00,-0.0235
3981.00,-0.0236
3980.00,-0.0236
3979.00,-0.0236
3978.00,-0.0236
3977.00,-0.0236
3976.00,-0.0236
3975.00,-0.0236
3974.00,-0.0235
3973.00,-0.0235
3972.00,-0.0236
3971.00,-0.0236
3970.00,-0.0236
3969.00,-0.0236
3968.00,-0.0237
3967.00,-0.0237
3966.00,-0.0237
3965.00,-0.0237
3964.00,-0.0237
3963.00,-0.0237
3962.00,-0.0237
3961.00,-0.0237
3960.00,-0.0237
3959.00,-0.0237
3958.00,-0.0237
3957.00,-0.0237
3956.00,-0.0237
3955.00,-0.0237
3954.00,-0.0237
3953.00,-0.0237
3952.00,-0.0237
3951.00,-0.0237
3950.00,-0.0237
3949.00,-0.0237
3948.00,-0.0237
3947.00,-0.0237
3946.00,-0.0237
3945.00,-0.0237
3944.00,-0.0237
3943.00,-0.0237
3942.00,-0.0237
3941.00,-0.0238
3940.00,-0.0238
3939.00,-0.0238
3938.00,-0.0238
3937.00,-0.0238
3936.00,-0.0238
3935.00,-0.0238
3934.00,-0.0238
3933.00,-0.0238
3932.00,-0.0238
3931.00,-0.0239
3930.00,-0.0239
3929.00,-0.0239
3928.00,-0.0238
3927.00,-0.0238
3926.00,-0.0238
3925.00,-0.0238
3924.00,-0.0238
3923.00,-0.0238
3922.00,-0.0238
3921.00,-0.0238
3920.00,-0.0238
3919.00,-0.0238
3918.00,-0.0239
3917.00,-0.0239
3916.00,-0.0239
3915.00,-0.0239
3914.00,-0.0240
3913.00,-0.0240
3912.00,-0.0240
3911.00,-0.0240
3910.00,-0.0240
3909.00,-0.0240
3908.00,-0.0240
3907.00,-0.0239
3906.00,-0.0239
3905.00,-0.0238
3904.00,-0.0238
3903.00,-0.0238
3902.00,-0.0238
3901.00,-0.0238
3900.00,-0.0239
3899.00,-0.0239
3898.00,-0.0240
3897.00,-0.0240
3896.00,-0.0240
3895.00,-0.0240
3894.00,-0.0240
3893.00,-0.0240
3892.00,-0.0240
3891.00,-0.0240
3890.00,-0.0241
3889.00,-0.0240
3888.00,-0.0240
3887.00,-0.0240
3886.00,-0.0240
3885.00,-0.0240
3884.00,-0.0241
3883.00,-0.0240
3882.00,-0.0240
3881.00,-0.0240
3880.00,-0.0240
3879.00,-0.0241
3878.00,-0.0241
3877.00,-0.0241
3876.00,-0.0241
3875.00,-0.0241
3874.00,-0.0241
3873.00,-0.0241
3872.00,-0.0240
3871.00,-0.0240
3870.00,-0.0240
3869.00,-0.0240
3868.00,-0.0241
3867.00,-0.0240
3866.00,-0.0240
3865.00,-0.0241
3864.00,-0.0241
3863.00,-0.0242
3862.00,-0.0242
3861.00,-0.0242
3860.00,-0.0242
3859.00,-0.0242
3858.00,-0.0241
3857.00,-0.0241
3856.00,-0.0239
3855.00,-0.0238
3854.00,-0.0237
3853.00,-0.0238
3852.00,-0.0238
3851.00,-0.0239
3850.00,-0.0239
3849.00,-0.0241
3848.00,-0.0242
3847.00,-0.0243
3846.00,-0.0244
3845.00,-0.0244
3844.00,-0.0244
3843.00,-0.0243
3842.00,-0.0243
3841.00,-0.0242
3840.00,-0.0241
3839.00,-0.0241
3838.00,-0.0241
3837.00,-0.0242
3836.00,-0.0242
3835.00,-0.0242
3834.00,-0.0242
3833.00,-0.0243
3832.00,-0.0243
3831.00,-0.0243
3830.00,-0.0244
3829.00,-0.0244
3828.00,-0.0244
3827.00,-0.0244
3826.00,-0.0244
3825.00,-0.0244
3824.00,-0.0244
3823.00,-0.0243
3822.00,-0.0243
3821.00,-0.0243
3820.00,-0.0243
3819.00,-0.0243
3818.00,-0.0243
3817.00,-0.0243
3816.00,-0.0243
3815.00,-0.0244
3814.00,-0.0244
3813.00,-0.0244
3812.00,-0.0243
3811.00,-0.0244
3810.00,-0.0244
3809.00,-0.0244
3808.00,-0.0244
3807.00,-0.0244
3806.00,-0.0244
3805.00,-0.0243
3804.00,-0.0243
3803.00,-0.0242
3802.00,-0.0242
3801.00,-0.0243
3800.00,-0.0243
3799.00,-0.0244
3798.00,-0.0243
3797.00,-0.0244
3796.00,-0.0245
3795.00,-0.0245
3794.00,-0.0246
3793.00,-0.0246
3792.00,-0.0246
3791.00,-0.0246
3790.00,-0.0247
3789.00,-0.0247
3788.00,-0.0247
3787.00,-0.0247
3786.00,-0.0247
3785.00,-0.0247
3784.00,-0.0246
3783.00,-0.0246
3782.00,-0.0246
3781.00,-0.0246
3780.00,-0.0246
3779.00,-0.0246
3778.00,-0.0247
3777.00,-0.0247
3776.00,-0.0247
3775.00,-0.0246
3774.00,-0.0246
3773.00,-0.0246
3772.00,-0.0246
3771.00,-0.0245
3770.00,-0.0245
3769.00,-0.0245
3768.00,-0.0245
3767.00,-0.0245
3766.00,-0.0245
3765.00,-0.0246
3764.00,-0.0246
3763.00,-0.0246
3762.00,-0.0246
3761.00,-0.0246
3760.00,-0.0246
3759.00,-0.0246
3758.00,-0.0246
3757.00,-0.0246
3756.00,-0.0245
3755.00,-0.0245
3754.00,-0.0244
3753.00,-0.0244
3752.00,-0.0243
3751.00,-0.0243
3750.00,-0.0243
3749.00,-0.0243
3748.00,-0.0243
3747.00,-0.0242
3746.00,-0.0242
3745.00,-0.0243
3744.00,-0.0244
3743.00,-0.0245
3742.00,-0.0245
3741.00,-0.0244
3740.00,-0.0245
3739.00,-0.0245
3738.00,-0.0245
3737.00,-0.0245
3736.00,-0.0245
3735.00,-0.0245
3734.00,-0.0245
3733.00,-0.0245
3732.00,-0.0245
3731.00,-0.0245
3730.00,-0.0245
3729.00,-0.0245
3728.00,-0.0245
3727.00,-0.0245
3726.00,-0.0246
3725.00,-0.0246
3724.00,-0.0246
3723.00,-0.0246
3722.00,-0.0246
3721.00,-0.0246
3720.00,-0.0246
3719.00,-0.0246
3718.00,-0.0246
3717.00,-0.0246
3716.00,-0.0246
3715.00,-0.0246
3714.00,-0.0245
3713.00,-0.0245
3712.00,-0.0244
3711.00,-0.0245
3710.00,-0.0245
3709.00,-0.0245
3708.00,-0.0245
3707.00,-0.0246
3706.00,-0.0246
3705.00,-0.0247
3704.00,-0.0247
3703.00,-0.0247
3702.00,-0.0247
3701.00,-0.0247
3700.00,-0.0246
3699.00,-0.0246
3698.00,-0.0246
3697.00,-0.0246
3696.00,-0.0246
3695.00,-0.0246
3694.00,-0.0246
3693.00,-0.0246
3692.00,-0.0245
3691.00,-0.0245
3690.00,-0.0245
3689.00,-0.0245
3688.00,-0.0245
3687.00,-0.0245
3686.00,-0.0244
3685.00,-0.0245
3684.00,-0.0245
3683.00,-0.0246
3682.00,-0.0246
3681.00,-0.0247
3680.00,-0.0246
3679.00,-0.0246
3678.00,-0.0245
3677.00,-0.0244
3676.00,-0.0244
3675.00,-0.0244
3674.00,-0.0244
3673.00,-0.0243
3672.00,-0.0243
3671.00,-0.0243
3670.00,-0.0243
3669.00,-0.0244
3668.00,-0.0244
3667.00,-0.0244
3666.00,-0.0244
3665.00,-0.0245
3664.00,-0.0246
3663.00,-0.0246
3662.00,-0.0246
3661.00,-0.0245
3660.00,-0.0245
3659.00,-0.0244
3658.00,-0.0243
3657.00,-0.0242
3656.00,-0.0241
3655.00,-0.0240
3654.00,-0.0239
3653.00,-0.0238
3652.00,-0.0237
3651.00,-0.0236
3650.00,-0.0234
3649.00,-0.0232
3648.00,-0.0230
3647.00,-0.0229
3646.00,-0.0228
3645.00,-0.0228
3644.00,-0.0229
3643.00,-0.0229
3642.00,-0.0228
3641.00,-0.0227
3640.00,-0.0227
3639.00,-0.0226
3638.00,-0.0225
3637.00,-0.0224
3636.00,-0.0223
3635.00,-0.0221
3634.00,-0.0220
3633.00,-0.0218
3632.00,-0.0217
3631.00,-0.0215
3630.00,-0.0213
3629.00,-0.0210
3628.00,-0.0207
3627.00,-0.0206
3626.00,-0.0205
3625.00,-0.0206
3624.00,-0.0207
3623.00,-0.0207
3622.00,-0.0207
3621.00,-0.0206
3620.00,-0.0204
3619.00,-0.0201
3618.00,-0.0199
3617.00,-0.0198
3616.00,-0.0197
3615.00,-0.0196
3614.00,-0.0196
3613.00,-0.0195
3612.00,-0.0194
3611.00,-0.0193
3610.00,-0.0192
3609.00,-0.0190
3608.00,-0.0188
3607.00,-0.0187
3606.00,-0.0187
3605.00,-0.0186
3604.00,-0.0187
3603.00,-0.0186
3602.00,-0.0186
3601.00,-0.0184
3600.00,-0.0183
3599.00,-0.0182
3598.00,-0.0180
3597.00,-0.0179
3596.00,-0.0178
3595.00,-0.0177
3594.00,-0.0176
3593.00,-0.0175
3592.00,-0.0175
3591.00,-0.0175
3590.00,-0.0174
3589.00,-0.0172
3588.00,-0.0169
3587.00,-0.0166
3586.00,-0.0165
3585.00,-0.0164
3584.00,-0.0163
3583.00,-0.0164
3582.00,-0.0163
3581.00,-0.0163
3580.00,-0.0162
3579.00,-0.0161
3578.00,-0.0160
3577.00,-0.0159
3576.00,-0.0157
3575.00,-0.0156
3574.00,-0.0155
3573.00,-0.0154
3572.00,-0.0154
3571.00,-0.0154
3570.00,-0.0154
3569.00,-0.0152
3568.00,-0.0149
3567.00,-0.0145
3566.00,-0.0142
3565.00,-0.0140
3564.00,-0.0140
3563.00,-0.0140
3562.00,-0.0139
3561.00,-0.0139
3560.00,-0.0139
3559.00,-0.0138
3558.00,-0.0137
3557.00,-0.0137
3556.00,-0.0136
3555.00,-0.0135
3554.00,-0.0134
3553.00,-0.0132
3552.00,-0.0130
3551.00,-0.0129
3550.00,-0.0128
3549.00,-0.0128
3548.00,-0.0127
3547.00,-0.0125
3546.00,-0.0122
3545.00,-0.0120
3544.00,-0.0118
3543.00,-0.0117
3542.00,-0.0116
3541.00,-0.0116
3540.00,-0.0116
3539.00,-0.0115
3538.00,-0.0114
3537.00,-0.0113
3536.00,-0.0112
3535.00,-0.0111
3534.00,-0.0110
3533.00,-0.0110
3532.00,-0.0109
3531.00,-0.0108
3530.00,-0.0107
3529.00,-0.0105
3528.00,-0.0104
3527.00,-0.0102
3526.00,-0.0101
3525.00,-0.0099
3524.00,-0.0098
3523.00,-0.0096
3522.00,-0.0095
3521.00,-0.0094
3520.00,-0.0094
3519.00,-0.0093
3518.00,-0.0092
3517.00,-0.0091
3516.00,-0.0090
3515.00,-0.0089
3514.00,-0.0088
3513.00,-0.0087
3512.00,-0.0086
3511.00,-0.0085
3510.00,-0.0083
3509.00,-0.0081
3508.00,-0.0080
3507.00,-0.0079
3506.00,-0.0078
3505.00,-0.0078
3504.00,-0.0076
3503.00,-0.0074
3502.00,-0.0072
3501.00,-0.0071
3500.00,-0.0070
3499.00,-0.0070
3498.00,-0.0069
3497.00,-0.0068
3496.00,-0.0067
3495.00,-0.0066
3494.00,-0.0065
3493.00,-0.0064
3492.00,-0.0063
3491.00,-0.0062
3490.00,-0.0061
3489.00,-0.0059
3488.00,-0.0058
3487.00,-0.0057
3486.00,-0.0056
3485.00,-0.0055
3484.00,-0.0054
3483.00,-0.0053
3482.00,-0.0051
3481.00,-0.0049
3480.00,-0.0047
3479.00,-0.0046
3478.00,-0.0046
3477.00,-0.0045
3476.00,-0.0044
3475.00,-0.0043
3474.00,-0.0042
3473.00,-0.0040
3472.00,-0.0039
3471.00,-0.0038
3470.00,-0.0037
3469.00,-0.0036
3468.00,-0.0035
3467.00,-0.0034
3466.00,-0.0033
3465.00,-0.0032
3464.00,-0.0030
3463.00,-0.0029
3462.00,-0.0028
3461.00,-0.0027
3460.00,-0.0026
3459.00,-0.0025
3458.00,-0.0024
3457.00,-0.0023
3456.00,-0.0022
3455.00,-0.0021
3454.00,-0.0020
3453.00,-0.0019
3452.00,-0.0018
3451.00,-0.0017
3450.00,-0.0016
3449.00,-0.0015
3448.00,-0.0013
3447.00,-0.0010
3446.00,-0.0008
3445.00,-0.0007
3444.00,-0.0006
3443.00,-0.0005
3442.00,-0.0004
3441.00,-0.0002
3440.00,-0.0000
3439.00,0.0001
3438.00,0.0002
3437.00,0.0004
3436.00,0.0005
3435.00,0.0006
3434.00,0.0008
3433.00,0.0009
3432.00,0.0011
3431.00,0.0012
3430.00,0.0013
3429.00,0.0015
3428.00,0.0016
3427.00,0.0017
3426.00,0.0018
3425.00,0.0019
3424.00,0.0020
3423.00,0.0022
3422.00,0.0024
3421.00,0.0026
3420.00,0.0028
3419.00,0.0029
3418.00,0.0031
3417.00,0.0032
3416.00,0.0033
3415.00,0.0034
3414.00,0.0035
3413.00,0.0037
3412.00,0.0038
3411.00,0.0039
3410.00,0.0041
3409.00,0.0042
3408.00,0.0044
3407.00,0.0045
3406.00,0.0047
3405.00,0.0048
3404.00,0.0049
3403.00,0.0050
3402.00,0.0052
3401.00,0.0053
3400.00,0.0054
3399.00,0.0055
3398.00,0.0057
3397.00,0.0058
3396.00,0.0058
3395.00,0.0059
3394.00,0.0061
3393.00,0.0062
3392.00,0.0064
3391.00,0.0066
3390.00,0.0067
3389.00,0.0069
3388.00,0.0070
3387.00,0.0071
3386.00,0.0072
3385.00,0.0074
3384.00,0.0076
3383.00,0.0078
3382.00,0.0079
3381.00,0.0081
3380.00,0.0082
3379.00,0.0083
3378.00,0.0084
3377.00,0.0086
3376.00,0.0087
3375.00,0.0089
3374.00,0.0090
3373.00,0.0092
3372.00,0.0093
3371.00,0.0094
3370.00,0.0095
3369.00,0.0097
3368.00,0.0099
3367.00,0.0101
3366.00,0.0104
3365.00,0.0106
3364.00,0.0108
3363.00,0.0109
3362.00,0.0111
3361.00,0.0113
3360.00,0.0115
3359.00,0.0118
3358.00,0.0120
3357.00,0.0122
3356.00,0.0124
3355.00,0.0126
3354.00,0.0128
3353.00,0.0130
3352.00,0.0131
3351.00,0.0134
3350.00,0.0136
3349.00,0.0138
3348.00,0.0141
3347.00,0.0143
3346.00,0.0145
3345.00,0.0147
3344.00,0.0149
3343.00,0.0151
3342.00,0.0153
3341.00,0.0155
3340.00,0.0158
3339.00,0.0160
3338.00,0.0163
3337.00,0.0166
3336.00,0.0169
3335.00,0.0173
3334.00,0.0175
3333.00,0.0178
3332.00,0.0180
3331.00,0.0182
3330.00,0.0185
3329.00,0.0187
3328.00,0.0189
3327.00,0.0192
3326.00,0.0194
3325.00,0.0198
3324.00,0.0201
3323.00,0.0205
3322.00,0.0208
3321.00,0.0211
3320.00,0.0214
3319.00,0.0217
3318.00,0.0219
3317.00,0.0222
3316.00,0.0225
3315.00,0.0227
3314.00,0.0230
3313.00,0.0233
3312.00,0.0236
3311.00,0.0238
3310.00,0.0240
3309.00,0.0242
3308.00,0.0245
3307.00,0.0248
3306.00,0.0251
3305.00,0.0254
3304.00,0.0259
3303.00,0.0263
3302.00,0.0267
3301.00,0.0270
3300.00,0.0272
3299.00,0.0274
3298.00,0.0276
3297.00,0.0278
3296.00,0.0280
3295.00,0.0282
3294.00,0.0285
3293.00,0.0288
3292.00,0.0291
3291.00,0.0294
3290.00,0.0297
3289.00,0.0300
3288.00,0.0302
3287.00,0.0304
3286.00,0.0305
3285.00,0.0306
3284.00,0.0308
3283.00,0.0308
3282.00,0.0309
3281.00,0.0309
3280.00,0.0309
3279.00,0.0309
3278.00,0.0308
3277.00,0.0307
3276.00,0.0307
3275.00,0.0306
3274.00,0.0304
3273.00,0.0303
3272.00,0.0301
3271.00,0.0300
3270.00,0.0299
3269.00,0.0299
3268.00,0.0298
3267.00,0.0296
3266.00,0.0294
3265.00,0.0292
3264.00,0.0289
3263.00,0.0286
3262.00,0.0283
3261.00,0.0280
3260.00,0.0277
3259.00,0.0274
3258.00,0.0270
3257.00,0.0266
3256.00,0.0263
3255.00,0.0261
3254.00,0.0258
3253.00,0.0256
3252.00,0.0253
3251.00,0.0250
3250.00,0.0246
3249.00,0.0241
3248.00,0.0238
3247.00,0.0234
3246.00,0.0232
3245.00,0.0231
3244.00,0.0230
3243.00,0.0228
3242.00,0.0226
3241.00,0.0223
3240.00,0.0220
3239.00,0.0217
3238.00,0.0214
3237.00,0.0211
3236.00,0.0208
3235.00,0.0204
3234.00,0.0201
3233.00,0.0200
3232.00,0.0199
3231.00,0.0198
3230.00,0.0197
3229.00,0.0196
3228.00,0.0194
3227.00,0.0192
3226.00,0.0190
3225.00,0.0188
3224.00,0.0186
3223.00,0.0184
3222.00,0.0182
3221.00,0.0180
3220.00,0.0178
3219.00,0.0177
3218.00,0.0175
3217.00,0.0173
3216.00,0.0171
3215.00,0.0170
3214.00,0.0168
3213.00,0.0166
3212.00,0.0165
3211.00,0.0163
3210.00,0.0162
3209.00,0.0160
3208.00,0.0158
3207.00,0.0157
3206.00,0.0155
3205.00,0.0153
3204.00,0.0151
3203.00,0.0149
3202.00,0.0147
3201.00,0.0145
3200.00,0.0144
3199.00,0.0142
3198.00,0.0141
3197.00,0.0140
3196.00,0.0138
3195.00,0.0136
3194.00,0.0134
3193.00,0.0132
3192.00,0.0130
3191.00,0.0128
3190.00,0.0126
3189.00,0.0124
3188.00,0.0122
3187.00,0.0120
3186.00,0.0118
3185.00,0.0116
3184.00,0.0114
3183.00,0.0112
3182.00,0.0110
3181.00,0.0108
3180.00,0.0106
3179.00,0.0104
3178.00,0.0102
3177.00,0.0101
3176.00,0.0099
3175.00,0.0097
3174.00,0.0094
3173.00,0.0092
3172.00,0.0090
3171.00,0.0088
3170.00,0.0086
3169.00,0.0084
3168.00,0.0083
3167.00,0.0081
3166.00,0.0079
3165.00,0.0078
3164.00,0.0076
3163.00,0.0074
3162.00,0.0072
3161.00,0.0070
3160.00,0.0068
3159.00,0.0066
3158.00,0.0064
3157.00,0.0062
3156.00,0.0060
3155.00,0.0057
3154.00,0.0055
3153.00,0.0054
3152.00,0.0052
3151.00,0.0051
3150.00,0.0050
3149.00,0.0049
3148.00,0.0048
3147.00,0.0046
3146.00,0.0045
3145.00,0.0043
3144.00,0.0042
3143.00,0.0040
3142.00,0.0038
3141.00,0.0036
3140.00,0.0035
3139.00,0.0034
3138.00,0.0033
3137.00,0.0032
3136.00,0.0031
3135.00,0.0031
3134.00,0.0030
3133.00,0.0028
3132.00,0.0027
3131.00,0.0026
3130.00,0.0025
3129.00,0.0024
3128.00,0.0023
3127.00,0.0023
3126.00,0.0022
3125.00,0.0020
3124.00,0.0019
3123.00,0.0018
3122.00,0.0016
3121.00,0.0015
3120.00,0.0014
3119.00,0.0013
3118.00,0.0013
3117.00,0.0013
3116.00,0.0013
3115.00,0.0014
3114.00,0.0015
3113.00,0.0015
3112.00,0.0014
3111.00,0.0014
3110.00,0.0013
3109.00,0.0013
3108.00,0.0014
3107.00,0.0014
3106.00,0.0015
3105.00,0.0015
3104.00,0.0015
3103.00,0.0015
3102.00,0.0015
3101.00,0.0015
3100.00,0.0015
3099.00,0.0016
3098.00,0.0017
3097.00,0.0018
3096.00,0.0018
3095.00,0.0019
3094.00,0.0018
3093.00,0.0018
3092.00,0.0017
3091.00,0.0017
3090.00,0.0017
3089.00,0.0018
3088.00,0.0018
3087.00,0.0018
3086.00,0.0018
3085.00,0.0017
3084.00,0.0017
3083.00,0.0017
3082.00,0.0017
3081.00,0.0017
3080.00,0.0017
3079.00,0.0018
3078.00,0.0019
3077.00,0.0020
3076.00,0.0021
3075.00,0.0021
3074.00,0.0022
3073.00,0.0022
3072.00,0.0021
3071.00,0.0020
3070.00,0.0019
3069.00,0.0017
3068.00,0.0016
3067.00,0.0016
3066.00,0.0016
3065.00,0.0016
3064.00,0.0017
3063.00,0.0017
3062.00,0.0016
3061.00,0.0015
3060.00,0.0013
3059.00,0.0011
3058.00,0.0009
3057.00,0.0008
3056.00,0.0006
3055.00,0.0005
3054.00,0.0003
3053.00,0.0001
3052.00,-0.0001
3051.00,-0.0002
3050.00,-0.0003
3049.00,-0.0005
3048.00,-0.0006
3047.00,-0.0008
3046.00,-0.0010
3045.00,-0.0013
3044.00,-0.0015
3043.00,-0.0016
3042.00,-0.0017
3041.00,-0.0018
3040.00,-0.0019
3039.00,-0.0019
3038.00,-0.0021
3037.00,-0.0023
3036.00,-0.0025
3035.00,-0.0027
3034.00,-0.0028
3033.00,-0.0029
3032.00,-0.0030
3031.00,-0.0030
3030.00,-0.0031
3029.00,-0.0032
3028.00,-0.0034
3027.00,-0.0036
3026.00,-0.0038
3025.00,-0.0039
3024.00,-0.0041
3023.00,-0.0043
3022.00,-0.0045
3021.00,-0.0047
3020.00,-0.0050
3019.00,-0.0052
3018.00,-0.0055
3017.00,-0.0057
3016.00,-0.0060
3015.00,-0.0062
3014.00,-0.0065
3013.00,-0.0067
3012.00,-0.0069
3011.00,-0.0071
3010.00,-0.0072
3009.00,-0.0075
3008.00,-0.0077
3007.00,-0.0081
3006.00,-0.0084
3005.00,-0.0088
3004.00,-0.0091
3003.00,-0.0095
3002.00,-0.0098
3001.00,-0.0101
3000.00,-0.0105
2999.00,-0.0107
2998.00,-0.0109
2997.00,-0.0111
2996.00,-0.0111
2995.00,-0.0112
2994.00,-0.0113
2993.00,-0.0113
2992.00,-0.0112
2991.00,-0.0111
2990.00,-0.0110
2989.00,-0.0109
2988.00,-0.0108
2987.00,-0.0108
2986.00,-0.0110
2985.00,-0.0114
2984.00,-0.0120
2983.00,-0.0126
2982.00,-0.0129
2981.00,-0.0127
2980.00,-0.0120
2979.00,-0.0111
2978.00,-0.0101
2977.00,-0.0092
2976.00,-0.0084
2975.00,-0.0077
2974.00,-0.0072
2973.00,-0.0068
2972.00,-0.0064
2971.00,-0.0058
2970.00,-0.0050
2969.00,-0.0042
2968.00,-0.0034
2967.00,-0.0027
2966.00,-0.0021
2965.00,-0.0015
2964.00,-0.0011
2963.00,-0.0007
2962.00,-0.0003
2961.00,-0.0000
2960.00,0.0002
2959.00,0.0003
2958.00,0.0004
2957.00,0.0003
2956.00,0.0002
2955.00,0.0001
2954.00,-0.0001
2953.00,-0.0002
2952.00,-0.0003
2951.00,-0.0003
2950.00,-0.0003
2949.00,-0.0003
2948.00,-0.0002
2947.00,-0.0001
2946.00,0.0002
2945.00,0.0006
2944.00,0.0010
2943.00,0.0015
2942.00,0.0020
2941.00,0.0025
2940.00,0.0030
2939.00,0.0035
2938.00,0.0040
2937.00,0.0045
2936.00,0.0049
2935.00,0.0053
2934.00,0.0057
2933.00,0.0060
2932.00,0.0063
2931.00,0.0066
2930.00,0.0069
2929.00,0.0072
2928.00,0.0075
2927.00,0.0077
2926.00,0.0078
2925.00,0.0079
2924.00,0.0079
2923.00,0.0078
2922.00,0.0076
2921.00,0.0073
2920.00,0.0069
2919.00,0.0064
2918.00,0.0059
2917.00,0.0052
2916.00,0.0044
2915.00,0.0035
2914.00,0.0026
2913.00,0.0018
2912.00,0.0010
2911.00,0.0003
2910.00,-0.0004
2909.00,-0.0009
2908.00,-0.0015
2907.00,-0.0020
2906.00,-0.0025
2905.00,-0.0029
2904.00,-0.0033
2903.00,-0.0036
2902.00,-0.0040
2901.00,-0.0043
2900.00,-0.0046
2899.00,-0.0049
2898.00,-0.0052
2897.00,-0.0055
2896.00,-0.0058
2895.00,-0.0061
2894.00,-0.0064
2893.00,-0.0067
2892.00,-0.0069
2891.00,-0.0072
2890.00,-0.0074
2889.00,-0.0075
2888.00,-0.0076
2887.00,-0.0076
2886.00,-0.0076
2885.00,-0.0076
2884.00,-0.0075
2883.00,-0.0074
2882.00,-0.0071
2881.00,-0.0068
2880.00,-0.0065
2879.00,-0.0063
2878.00,-0.0060
2877.00,-0.0058
2876.00,-0.0057
2875.00,-0.0056
2874.00,-0.0056
2873.00,-0.0057
2872.00,-0.0057
2871.00,-0.0059
2870.00,-0.0061
2869.00,-0.0063
2868.00,-0.0065
2867.00,-0.0067
2866.00,-0.0068
2865.00,-0.0069
2864.00,-0.0069
2863.00,-0.0069
2862.00,-0.0068
2861.00,-0.0067
2860.00,-0.0066
2859.00,-0.0064
2858.00,-0.0062
2857.00,-0.0060
2856.00,-0.0058
2855.00,-0.0057
2854.00,-0.0055
2853.00,-0.0055
2852.00,-0.0056
2851.00,-0.0059
2850.00,-0.0063
2849.00,-0.0069
2848.00,-0.0076
2847.00,-0.0084
2846.00,-0.0091
2845.00,-0.0098
2844.00,-0.0104
2843.00,-0.0109
2842.00,-0.0114
2841.00,-0.0119
2840.00,-0.0122
2839.00,-0.0125
2838.00,-0.0128
2837.00,-0.0130
2836.00,-0.0132
2835.00,-0.0134
2834.00,-0.0135
2833.00,-0.0137
2832.00,-0.0138
2831.00,-0.0139
2830.00,-0.0140
2829.00,-0.0142
2828.00,-0.0143
2827.00,-0.0144
2826.00,-0.0145
2825.00,-0.0146
2824.00,-0.0147
2823.00,-0.0148
2822.00,-0.0149
2821.00,-0.0149
2820.00,-0.0150
2819.00,-0.0151
2818.00,-0.0152
2817.00,-0.0153
2816.00,-0.0153
2815.00,-0.0154
2814.00,-0.0155
2813.00,-0.0156
2812.00,-0.0157
2811.00,-0.0158
2810.00,-0.0159
2809.00,-0.0159
2808.00,-0.0160
2807.00,-0.0161
2806.00,-0.0161
2805.00,-0.0162
