Created as New Dataset,Sample 244 By YargerLab Date Sunday, October 05 2025
cm-1,A
4000.00,0.0006
3999.00,0.0006
3998.00,0.0006
3997.00,0.0006
3996.00,0.0006
3995.00,0.0006
3994.00,0.0006
3993.00,0.0005
3992.00,0.0005
3991.00,0.0006
3990.00,0.0006
3989.00,0.0006
3988.00,0.0006
3987.00,0.0006
3986.00,0.0007
3985.00,0.0007
3984.00,0.0007
3983.00,0.0006
3982.00,0.0006
3981.00,0.0006
3980.00,0.0006
3979.00,0.0006
3978.00,0.0006
3977.00,0.0007
3976.00,0.0006
3975.00,0.0006
3974.00,0.0006
3973.00,0.0006
3972.00,0.0006
3971.00,0.0006
3970.00,0.0006
3969.00,0.0006
3968.00,0.0006
3967.00,0.0006
3966.00,0.0006
3965.00,0.0006
3964.00,0.0006
3963.00,0.0006
3962.00,0.0006
3961.00,0.0006
3960.00,0.0006
3959.00,0.0006
3958.00,0.0006
3957.00,0.0006
3956.00,0.0006
3955.00,0.0006
3954.00,0.0006
3953.00,0.0006
3952.00,0.0006
3951.00,0.0006
3950.00,0.0006
3949.00,0.0006
3948.00,0.0006
3947.00,0.0006
3946.00,0.0006
3945.00,0.0006
3944.00,0.0006
3943.00,0.0006
3942.00,0.0006
3941.00,0.0006
3940.00,0.0006
3939.00,0.0006
3938.00,0.0006
3937.00,0.0006
3936.00,0.0006
3935.00,0.0006
3934.00,0.0005
3933.00,0.0005
3932.00,0.0005
3931.00,0.0005
3930.00,0.0005
3929.00,0.0005
3928.00,0.0005
3927.00,0.0005
3926.00,0.0005
3925.00,0.0005
3924.00,0.0005
3923.00,0.0005
3922.00,0.0005
3921.00,0.0005
3920.00,0.0005
3919.00,0.0005
3918.00,0.0005
3917.00,0.0005
3916.00,0.0005
3915.00,0.0005
3914.00,0.0006
3913.00,0.0006
3912.00,0.0006
3911.00,0.0006
3910.00,0.0006
3909.00,0.0006
3908.00,0.0006
3907.00,0.0006
3906.00,0.0005
3905.00,0.0005
3904.00,0.0005
3903.00,0.0005
3902.00,0.0005
3901.00,0.0004
3900.00,0.0004
3899.00,0.0004
3898.00,0.0005
3897.00,0.0005
3896.00,0.0005
3895.00,0.0005
3894.00,0.0005
3893.00,0.0005
3892.00,0.0005
3891.00,0.0005
3890.00,0.0005
3889.00,0.0005
3888.00,0.0005
3887.00,0.0005
3886.00,0.0005
3885.00,0.0005
3884.00,0.0005
3883.00,0.0004
3882.00,0.0004
3881.00,0.0004
3880.00,0.0004
3879.00,0.0005
3878.00,0.0005
3877.00,0.0005
3876.00,0.0005
3875.00,0.0005
3874.00,0.0005
3873.00,0.0005
3872.00,0.0004
3871.00,0.0004
3870.00,0.0004
3869.00,0.0004
3868.00,0.0004
3867.00,0.0004
3866.00,0.0004
3865.00,0.0005
3864.00,0.0005
3863.00,0.0005
3862.00,0.0005
3861.00,0.0005
3860.00,0.0005
3859.00,0.0004
3858.00,0.0004
3857.00,0.0004
3856.00,0.0004
3855.00,0.0004
3854.00,0.0004
3853.00,0.0004
3852.00,0.0004
3851.00,0.0004
3850.00,0.0004
3849.00,0.0004
3848.00,0.0004
3847.00,0.0005
3846.00,0.0005
3845.00,0.0005
3844.00,0.0005
3843.00,0.0005
3842.00,0.0005
3841.00,0.0005
3840.00,0.0004
3839.00,0.0004
3838.00,0.0004
3837.00,0.0004
3836.00,0.0004
3835.00,0.0004
3834.00,0.0004
3833.00,0.0004
3832.00,0.0005
3831.00,0.0005
3830.00,0.0005
3829.00,0.0005
3828.00,0.0005
3827.00,0.0005
3826.00,0.0005
3825.00,0.0005
3824.00,0.0005
3823.00,0.0004
3822.00,0.0004
3821.00,0.0004
3820.00,0.0004
3819.00,0.0004
3818.00,0.0003
3817.00,0.0004
3816.00,0.0004
3815.00,0.0005
3814.00,0.0005
3813.00,0.0005
3812.00,0.0005
3811.00,0.0005
3810.00,0.0005
3809.00,0.0005
3808.00,0.0005
3807.00,0.0005
3806.00,0.0005
3805.00,0.0005
3804.00,0.0005
3803.00,0.0004
3802.00,0.0004
3801.00,0.0004
3800.00,0.0004
3799.00,0.0004
3798.00,0.0003
3797.00,0.0004
3796.00,0.0004
3795.00,0.0005
3794.00,0.0005
3793.00,0.0005
3792.00,0.0006
3791.00,0.0006
3790.00,0.0006
3789.00,0.0006
3788.00,0.0006
3787.00,0.0006
3786.00,0.0006
3785.00,0.0006
3784.00,0.0006
3783.00,0.0006
3782.00,0.0005
3781.00,0.0005
3780.00,0.0005
3779.00,0.0005
3778.00,0.0005
3777.00,0.0006
3776.00,0.0006
3775.00,0.0006
3774.00,0.0006
3773.00,0.0006
3772.00,0.0005
3771.00,0.0005
3770.00,0.0005
3769.00,0.0005
3768.00,0.0004
3767.00,0.0004
3766.00,0.0004
3765.00,0.0005
3764.00,0.0005
3763.00,0.0005
3762.00,0.0005
3761.00,0.0005
3760.00,0.0005
3759.00,0.0005
3758.00,0.0004
3757.00,0.0004
3756.00,0.0004
3755.00,0.0004
3754.00,0.0004
3753.00,0.0003
3752.00,0.0003
3751.00,0.0003
3750.00,0.0003
3749.00,0.0003
3748.00,0.0002
3747.00,0.0002
3746.00,0.0001
3745.00,0.0001
3744.00,0.0002
3743.00,0.0003
3742.00,0.0003
3741.00,0.0003
3740.00,0.0003
3739.00,0.0003
3738.00,0.0003
3737.00,0.0003
3736.00,0.0003
3735.00,0.0003
3734.00,0.0003
3733.00,0.0003
3732.00,0.0003
3731.00,0.0003
3730.00,0.0004
3729.00,0.0004
3728.00,0.0004
3727.00,0.0004
3726.00,0.0004
3725.00,0.0004
3724.00,0.0003
3723.00,0.0003
3722.00,0.0004
3721.00,0.0004
3720.00,0.0004
3719.00,0.0004
3718.00,0.0004
3717.00,0.0004
3716.00,0.0004
3715.00,0.0004
3714.00,0.0003
3713.00,0.0003
3712.00,0.0003
3711.00,0.0004
3710.00,0.0004
3709.00,0.0004
3708.00,0.0005
3707.00,0.0005
3706.00,0.0005
3705.00,0.0004
3704.00,0.0004
3703.00,0.0004
3702.00,0.0004
3701.00,0.0004
3700.00,0.0004
3699.00,0.0004
3698.00,0.0004
3697.00,0.0004
3696.00,0.0004
3695.00,0.0004
3694.00,0.0004
3693.00,0.0004
3692.00,0.0003
3691.00,0.0003
3690.00,0.0003
3689.00,0.0003
3688.00,0.0003
3687.00,0.0004
3686.00,0.0004
3685.00,0.0004
3684.00,0.0005
3683.00,0.0005
3682.00,0.0006
3681.00,0.0006
3680.00,0.0006
3679.00,0.0006
3678.00,0.0005
3677.00,0.0005
3676.00,0.0005
3675.00,0.0004
3674.00,0.0004
3673.00,0.0004
3672.00,0.0004
3671.00,0.0004
3670.00,0.0005
3669.00,0.0005
3668.00,0.0005
3667.00,0.0005
3666.00,0.0006
3665.00,0.0006
3664.00,0.0007
3663.00,0.0007
3662.00,0.0007
3661.00,0.0007
3660.00,0.0008
3659.00,0.0008
3658.00,0.0007
3657.00,0.0007
3656.00,0.0007
3655.00,0.0007
3654.00,0.0007
3653.00,0.0007
3652.00,0.0006
3651.00,0.0007
3650.00,0.0007
3649.00,0.0007
3648.00,0.0007
3647.00,0.0007
3646.00,0.0007
3645.00,0.0007
3644.00,0.0008
3643.00,0.0008
3642.00,0.0008
3641.00,0.0009
3640.00,0.0009
3639.00,0.0009
3638.00,0.0009
3637.00,0.0010
3636.00,0.0010
3635.00,0.0010
3634.00,0.0010
3633.00,0.0011
3632.00,0.0011
3631.00,0.0010
3630.00,0.0011
3629.00,0.0011
3628.00,0.0011
3627.00,0.0011
3626.00,0.0011
3625.00,0.0012
3624.00,0.0012
3623.00,0.0012
3622.00,0.0012
3621.00,0.0012
3620.00,0.0013
3619.00,0.0013
3618.00,0.0013
3617.00,0.0013
3616.00,0.0013
3615.00,0.0013
3614.00,0.0014
3613.00,0.0014
3612.00,0.0014
3611.00,0.0014
3610.00,0.0014
3609.00,0.0014
3608.00,0.0014
3607.00,0.0014
3606.00,0.0015
3605.00,0.0015
3604.00,0.0015
3603.00,0.0016
3602.00,0.0016
3601.00,0.0017
3600.00,0.0017
3599.00,0.0017
3598.00,0.0017
3597.00,0.0017
3596.00,0.0017
3595.00,0.0017
3594.00,0.0017
3593.00,0.0018
3592.00,0.0018
3591.00,0.0018
3590.00,0.0018
3589.00,0.0018
3588.00,0.0019
3587.00,0.0019
3586.00,0.0019
3585.00,0.0019
3584.00,0.0019
3583.00,0.0020
3582.00,0.0020
3581.00,0.0021
3580.00,0.0021
3579.00,0.0021
3578.00,0.0021
3577.00,0.0021
3576.00,0.0022
3575.00,0.0022
3574.00,0.0023
3573.00,0.0023
3572.00,0.0023
3571.00,0.0023
3570.00,0.0023
3569.00,0.0023
3568.00,0.0023
3567.00,0.0023
3566.00,0.0024
3565.00,0.0024
3564.00,0.0024
3563.00,0.0024
3562.00,0.0024
3561.00,0.0025
3560.00,0.0025
3559.00,0.0025
3558.00,0.0026
3557.00,0.0026
3556.00,0.0026
3555.00,0.0026
3554.00,0.0026
3553.00,0.0026
3552.00,0.0027
3551.00,0.0027
3550.00,0.0027
3549.00,0.0028
3548.00,0.0028
3547.00,0.0028
3546.00,0.0028
3545.00,0.0028
3544.00,0.0029
3543.00,0.0029
3542.00,0.0029
3541.00,0.0030
3540.00,0.0030
3539.00,0.0031
3538.00,0.0031
3537.00,0.0031
3536.00,0.0031
3535.00,0.0032
3534.00,0.0032
3533.00,0.0032
3532.00,0.0032
3531.00,0.0032
3530.00,0.0032
3529.00,0.0033
3528.00,0.0033
3527.00,0.0033
3526.00,0.0034
3525.00,0.0034
3524.00,0.0034
3523.00,0.0034
3522.00,0.0035
3521.00,0.0035
3520.00,0.0035
3519.00,0.0035
3518.00,0.0036
3517.00,0.0036
3516.00,0.0036
3515.00,0.0036
3514.00,0.0036
3513.00,0.0036
3512.00,0.0036
3511.00,0.0036
3510.00,0.0037
3509.00,0.0037
3508.00,0.0038
3507.00,0.0038
3506.00,0.0038
3505.00,0.0038
3504.00,0.0038
3503.00,0.0038
3502.00,0.0038
3501.00,0.0038
3500.00,0.0038
3499.00,0.0038
3498.00,0.0038
3497.00,0.0039
3496.00,0.0039
3495.00,0.0039
3494.00,0.0039
3493.00,0.0039
3492.00,0.0039
3491.00,0.0039
3490.00,0.0039
3489.00,0.0039
3488.00,0.0039
3487.00,0.0039
3486.00,0.0039
3485.00,0.0039
3484.00,0.0039
3483.00,0.0039
3482.00,0.0039
3481.00,0.0040
3480.00,0.0040
3479.00,0.0040
3478.00,0.0040
3477.00,0.0040
3476.00,0.0040
3475.00,0.0040
3474.00,0.0040
3473.00,0.0040
3472.00,0.0040
3471.00,0.0040
3470.00,0.0040
3469.00,0.0041
3468.00,0.0041
3467.00,0.0041
3466.00,0.0041
3465.00,0.0041
3464.00,0.0041
3463.00,0.0041
3462.00,0.0041
3461.00,0.0041
3460.00,0.0041
3459.00,0.0042
3458.00,0.0042
3457.00,0.0042
3456.00,0.0042
3455.00,0.0043
3454.00,0.0043
3453.00,0.0043
3452.00,0.0043
3451.00,0.0043
3450.00,0.0044
3449.00,0.0044
3448.00,0.0044
3447.00,0.0044
3446.00,0.0045
3445.00,0.0045
3444.00,0.0046
3443.00,0.0046
3442.00,0.0046
3441.00,0.0046
3440.00,0.0046
3439.00,0.0046
3438.00,0.0046
3437.00,0.0046
3436.00,0.0046
3435.00,0.0046
3434.00,0.0046
3433.00,0.0047
3432.00,0.0047
3431.00,0.0047
3430.00,0.0047
3429.00,0.0047
3428.00,0.0048
3427.00,0.0048
3426.00,0.0048
3425.00,0.0048
3424.00,0.0049
3423.00,0.0049
3422.00,0.0049
3421.00,0.0049
3420.00,0.0049
3419.00,0.0049
3418.00,0.0049
3417.00,0.0049
3416.00,0.0050
3415.00,0.0050
3414.00,0.0050
3413.00,0.0050
3412.00,0.0050
3411.00,0.0050
3410.00,0.0050
3409.00,0.0050
3408.00,0.0051
3407.00,0.0051
3406.00,0.0051
3405.00,0.0051
3404.00,0.0050
3403.00,0.0050
3402.00,0.0050
3401.00,0.0049
3400.00,0.0050
3399.00,0.0050
3398.00,0.0050
3397.00,0.0050
3396.00,0.0051
3395.00,0.0051
3394.00,0.0050
3393.00,0.0050
3392.00,0.0050
3391.00,0.0050
3390.00,0.0051
3389.00,0.0051
3388.00,0.0051
3387.00,0.0052
3386.00,0.0052
3385.00,0.0052
3384.00,0.0051
3383.00,0.0051
3382.00,0.0051
3381.00,0.0051
3380.00,0.0051
3379.00,0.0052
3378.00,0.0052
3377.00,0.0052
3376.00,0.0052
3375.00,0.0052
3374.00,0.0052
3373.00,0.0052
3372.00,0.0052
3371.00,0.0052
3370.00,0.0052
3369.00,0.0052
3368.00,0.0052
3367.00,0.0052
3366.00,0.0052
3365.00,0.0053
3364.00,0.0053
3363.00,0.0053
3362.00,0.0053
3361.00,0.0053
3360.00,0.0053
3359.00,0.0054
3358.00,0.0054
3357.00,0.0054
3356.00,0.0054
3355.00,0.0054
3354.00,0.0054
3353.00,0.0054
3352.00,0.0054
3351.00,0.0054
3350.00,0.0055
3349.00,0.0055
3348.00,0.0055
3347.00,0.0055
3346.00,0.0055
3345.00,0.0055
3344.00,0.0055
3343.00,0.0055
3342.00,0.0055
3341.00,0.0055
3340.00,0.0056
3339.00,0.0056
3338.00,0.0056
3337.00,0.0057
3336.00,0.0057
3335.00,0.0057
3334.00,0.0057
3333.00,0.0057
3332.00,0.0057
3331.00,0.0057
3330.00,0.0057
3329.00,0.0057
3328.00,0.0057
3327.00,0.0056
3326.00,0.0056
3325.00,0.0056
3324.00,0.0056
3323.00,0.0056
3322.00,0.0057
3321.00,0.0057
3320.00,0.0058
3319.00,0.0058
3318.00,0.0058
3317.00,0.0058
3316.00,0.0058
3315.00,0.0058
3314.00,0.0058
3313.00,0.0058
3312.00,0.0058
3311.00,0.0058
3310.00,0.0057
3309.00,0.0057
3308.00,0.0057
3307.00,0.0057
3306.00,0.0057
3305.00,0.0057
3304.00,0.0057
3303.00,0.0058
3302.00,0.0058
3301.00,0.0059
3300.00,0.0059
3299.00,0.0059
3298.00,0.0059
3297.00,0.0059
3296.00,0.0060
3295.00,0.0060
3294.00,0.0060
3293.00,0.0060
3292.00,0.0060
3291.00,0.0060
3290.00,0.0061
3289.00,0.0061
3288.00,0.0062
3287.00,0.0062
3286.00,0.0063
3285.00,0.0063
3284.00,0.0063
3283.00,0.0063
3282.00,0.0063
3281.00,0.0063
3280.00,0.0063
3279.00,0.0063
3278.00,0.0063
3277.00,0.0063
3276.00,0.0063
3275.00,0.0063
3274.00,0.0063
3273.00,0.0063
3272.00,0.0063
3271.00,0.0064
3270.00,0.0064
3269.00,0.0065
3268.00,0.0065
3267.00,0.0065
3266.00,0.0066
3265.00,0.0066
3264.00,0.0066
3263.00,0.0066
3262.00,0.0067
3261.00,0.0067
3260.00,0.0067
3259.00,0.0067
3258.00,0.0067
3257.00,0.0067
3256.00,0.0067
3255.00,0.0068
3254.00,0.0068
3253.00,0.0068
3252.00,0.0069
3251.00,0.0069
3250.00,0.0069
3249.00,0.0068
3248.00,0.0068
3247.00,0.0068
3246.00,0.0069
3245.00,0.0069
3244.00,0.0069
3243.00,0.0069
3242.00,0.0070
3241.00,0.0070
3240.00,0.0070
3239.00,0.0070
3238.00,0.0070
3237.00,0.0070
3236.00,0.0070
3235.00,0.0070
3234.00,0.0070
3233.00,0.0070
3232.00,0.0071
3231.00,0.0071
3230.00,0.0072
3229.00,0.0072
3228.00,0.0073
3227.00,0.0073
3226.00,0.0073
3225.00,0.0073
3224.00,0.0073
3223.00,0.0073
3222.00,0.0073
3221.00,0.0074
3220.00,0.0074
3219.00,0.0074
3218.00,0.0074
3217.00,0.0074
3216.00,0.0075
3215.00,0.0075
3214.00,0.0075
3213.00,0.0075
3212.00,0.0076
3211.00,0.0076
3210.00,0.0076
3209.00,0.0076
3208.00,0.0077
3207.00,0.0077
3206.00,0.0077
3205.00,0.0077
3204.00,0.0077
3203.00,0.0077
3202.00,0.0077
3201.00,0.0077
3200.00,0.0077
3199.00,0.0077
3198.00,0.0077
3197.00,0.0077
3196.00,0.0077
3195.00,0.0077
3194.00,0.0077
3193.00,0.0078
3192.00,0.0078
3191.00,0.0078
3190.00,0.0078
3189.00,0.0078
3188.00,0.0079
3187.00,0.0079
3186.00,0.0079
3185.00,0.0079
3184.00,0.0079
3183.00,0.0079
3182.00,0.0079
3181.00,0.0079
3180.00,0.0079
3179.00,0.0079
3178.00,0.0079
3177.00,0.0079
3176.00,0.0079
3175.00,0.0079
3174.00,0.0080
3173.00,0.0080
3172.00,0.0080
3171.00,0.0080
3170.00,0.0080
3169.00,0.0080
3168.00,0.0080
3167.00,0.0080
3166.00,0.0081
3165.00,0.0081
3164.00,0.0082
3163.00,0.0082
3162.00,0.0082
3161.00,0.0083
3160.00,0.0083
3159.00,0.0083
3158.00,0.0083
3157.00,0.0083
3156.00,0.0083
3155.00,0.0083
3154.00,0.0083
3153.00,0.0083
3152.00,0.0084
3151.00,0.0084
3150.00,0.0084
3149.00,0.0085
3148.00,0.0085
3147.00,0.0085
3146.00,0.0085
3145.00,0.0085
3144.00,0.0085
3143.00,0.0085
3142.00,0.0086
3141.00,0.0086
3140.00,0.0086
3139.00,0.0086
3138.00,0.0086
3137.00,0.0087
3136.00,0.0087
3135.00,0.0088
3134.00,0.0088
3133.00,0.0088
3132.00,0.0088
3131.00,0.0088
3130.00,0.0089
3129.00,0.0089
3128.00,0.0089
3127.00,0.0089
3126.00,0.0089
3125.00,0.0090
3124.00,0.0090
3123.00,0.0090
3122.00,0.0090
3121.00,0.0090
3120.00,0.0090
3119.00,0.0090
3118.00,0.0090
3117.00,0.0091
3116.00,0.0091
3115.00,0.0091
3114.00,0.0092
3113.00,0.0092
3112.00,0.0092
3111.00,0.0092
3110.00,0.0092
3109.00,0.0092
3108.00,0.0092
3107.00,0.0092
3106.00,0.0092
3105.00,0.0092
3104.00,0.0093
3103.00,0.0094
3102.00,0.0094
3101.00,0.0094
3100.00,0.0094
3099.00,0.0094
3098.00,0.0094
3097.00,0.0094
3096.00,0.0095
3095.00,0.0095
3094.00,0.0096
3093.00,0.0096
3092.00,0.0097
3091.00,0.0098
3090.00,0.0099
3089.00,0.0100
3088.00,0.0101
3087.00,0.0101
3086.00,0.0102
3085.00,0.0103
3084.00,0.0104
3083.00,0.0104
3082.00,0.0105
3081.00,0.0106
3080.00,0.0107
3079.00,0.0107
3078.00,0.0107
3077.00,0.0108
3076.00,0.0108
3075.00,0.0109
3074.00,0.0109
3073.00,0.0109
3072.00,0.0110
3071.00,0.0110
3070.00,0.0110
3069.00,0.0110
3068.00,0.0110
3067.00,0.0110
3066.00,0.0110
3065.00,0.0110
3064.00,0.0110
3063.00,0.0110
3062.00,0.0110
3061.00,0.0110
3060.00,0.0110
3059.00,0.0110
3058.00,0.0111
3057.00,0.0111
3056.00,0.0111
3055.00,0.0111
3054.00,0.0111
3053.00,0.0111
3052.00,0.0112
3051.00,0.0112
3050.00,0.0113
3049.00,0.0113
3048.00,0.0114
3047.00,0.0115
3046.00,0.0115
3045.00,0.0115
3044.00,0.0116
3043.00,0.0116
3042.00,0.0117
3041.00,0.0117
3040.00,0.0118
3039.00,0.0118
3038.00,0.0118
3037.00,0.0119
3036.00,0.0119
3035.00,0.0119
3034.00,0.0119
3033.00,0.0119
3032.00,0.0119
3031.00,0.0119
3030.00,0.0120
3029.00,0.0120
3028.00,0.0121
3027.00,0.0121
3026.00,0.0121
3025.00,0.0121
3024.00,0.0122
3023.00,0.0122
3022.00,0.0123
3021.00,0.0123
3020.00,0.0124
3019.00,0.0125
3018.00,0.0125
3017.00,0.0126
3016.00,0.0126
3015.00,0.0127
3014.00,0.0128
3013.00,0.0129
3012.00,0.0130
3011.00,0.0131
3010.00,0.0132
3009.00,0.0133
3008.00,0.0134
3007.00,0.0135
3006.00,0.0137
3005.00,0.0138
3004.00,0.0140
3003.00,0.0141
3002.00,0.0143
3001.00,0.0145
3000.00,0.0146
2999.00,0.0148
2998.00,0.0150
2997.00,0.0152
2996.00,0.0154
2995.00,0.0156
2994.00,0.0158
2993.00,0.0160
2992.00,0.0162
2991.00,0.0164
2990.00,0.0166
2989.00,0.0168
2988.00,0.0170
2987.00,0.0172
2986.00,0.0173
2985.00,0.0175
2984.00,0.0176
2983.00,0.0177
2982.00,0.0178
2981.00,0.0179
2980.00,0.0180
2979.00,0.0182
2978.00,0.0183
2977.00,0.0184
2976.00,0.0185
2975.00,0.0187
2974.00,0.0188
2973.00,0.0189
2972.00,0.0191
2971.00,0.0192
2970.00,0.0194
2969.00,0.0196
2968.00,0.0198
2967.00,0.0199
2966.00,0.0201
2965.00,0.0203
2964.00,0.0205
2963.00,0.0207
2962.00,0.0209
2961.00,0.0210
2960.00,0.0212
2959.00,0.0213
2958.00,0.0214
2957.00,0.0215
2956.00,0.0216
2955.00,0.0217
2954.00,0.0217
2953.00,0.0218
2952.00,0.0218
2951.00,0.0218
2950.00,0.0217
2949.00,0.0217
2948.00,0.0217
2947.00,0.0217
2946.00,0.0216
2945.00,0.0216
2944.00,0.0216
2943.00,0.0216
2942.00,0.0216
2941.00,0.0216
2940.00,0.0217
2939.00,0.0217
2938.00,0.0218
2937.00,0.0219
2936.00,0.0220
2935.00,0.0220
2934.00,0.0221
2933.00,0.0222
2932.00,0.0223
2931.00,0.0224
2930.00,0.0225
2929.00,0.0226
2928.00,0.0227
2927.00,0.0228
2926.00,0.0229
2925.00,0.0229
2924.00,0.0229
2923.00,0.0229
2922.00,0.0228
2921.00,0.0228
2920.00,0.0228
2919.00,0.0227
2918.00,0.0226
2917.00,0.0225
2916.00,0.0223
2915.00,0.0222
2914.00,0.0220
2913.00,0.0219
2912.00,0.0218
2911.00,0.0216
2910.00,0.0215
2909.00,0.0214
2908.00,0.0213
2907.00,0.0213
2906.00,0.0212
2905.00,0.0211
2904.00,0.0211
2903.00,0.0211
2902.00,0.0211
2901.00,0.0211
2900.00,0.0211
2899.00,0.0212
2898.00,0.0212
2897.00,0.0213
2896.00,0.0213
2895.00,0.0213
2894.00,0.0213
2893.00,0.0213
2892.00,0.0213
2891.00,0.0213
2890.00,0.0213
2889.00,0.0213
2888.00,0.0213
2887.00,0.0213
2886.00,0.0213
2885.00,0.0213
2884.00,0.0213
2883.00,0.0213
2882.00,0.0213
2881.00,0.0213
2880.00,0.0213
2879.00,0.0213
2878.00,0.0212
2877.00,0.0212
2876.00,0.0211
2875.00,0.0210
2874.00,0.0210
2873.00,0.0209
2872.00,0.0208
2871.00,0.0207
2870.00,0.0206
2869.00,0.0205
2868.00,0.0204
2867.00,0.0203
2866.00,0.0202
2865.00,0.0201
2864.00,0.0199
2863.00,0.0198
2862.00,0.0197
2861.00,0.0196
2860.00,0.0194
2859.00,0.0193
2858.00,0.0192
2857.00,0.0191
2856.00,0.0189
2855.00,0.0188
2854.00,0.0186
2853.00,0.0184
2852.00,0.0182
2851.00,0.0180
2850.00,0.0178
2849.00,0.0176
2848.00,0.0174
2847.00,0.0172
2846.00,0.0171
2845.00,0.0169
2844.00,0.0168
2843.00,0.0167
2842.00,0.0166
2841.00,0.0164
2840.00,0.0163
2839.00,0.0162
2838.00,0.0162
2837.00,0.0161
2836.00,0.0160
2835.00,0.0160
2834.00,0.0159
2833.00,0.0159
2832.00,0.0158
2831.00,0.0157
2830.00,0.0157
2829.00,0.0156
2828.00,0.0155
2827.00,0.0155
2826.00,0.0154
2825.00,0.0153
2824.00,0.0153
2823.00,0.0152
2822.00,0.0151
2821.00,0.0151
2820.00,0.0150
2819.00,0.0150
2818.00,0.0149
2817.00,0.0148
2816.00,0.0148
2815.00,0.0148
2814.00,0.0148
2813.00,0.0147
2812.00,0.0147
2811.00,0.0147
2810.00,0.0147
2809.00,0.0147
2808.00,0.0146
2807.00,0.0146
2806.00,0.0146
2805.00,0.0146
2804.00,0.0146
2803.00,0.0146
2802.00,0.0147
2801.00,0.0147
2800.00,0.0147
2799.00,0.0148
2798.00,0.0148
2797.00,0.0148
2796.00,0.0148
2795.00,0.0149
2794.00,0.0149
2793.00,0.0149
2792.00,0.0149
2791.00,0.0150
2790.00,0.0150
2789.00,0.0150
2788.00,0.0150
2787.00,0.0151
2786.00,0.0151
2785.00,0.0151
2784.00,0.0152
2783.00,0.0152
2782.00,0.0152
2781.00,0.0152
2780.00,0.0152
2779.00,0.0152
2778.00,0.0152
2777.00,0.0152
2776.00,0.0152
2775.00,0.0152
2774.00,0.0152
2773.00,0.0152
2772.00,0.0152
2771.00,0.0152
2770.00,0.0152
2769.00,0.0152
2768.00,0.0151
2767.00,0.0151
2766.00,0.0151
2765.00,0.0151
2764.00,0.0150
2763.00,0.0150
2762.00,0.0150
2761.00,0.0149
2760.00,0.0149
2759.00,0.0149
2758.00,0.0148
2757.00,0.0148
