Created as New Dataset,Sample 245 By YargerLab Date Sunday, October 05 2025
cm-1,A
4000.00,0.0005
3999.00,0.0005
3998.00,0.0005
3997.00,0.0005
3996.00,0.0004
3995.00,0.0004
3994.00,0.0004
3993.00,0.0004
3992.00,0.0004
3991.00,0.0004
3990.00,0.0004
3989.00,0.0005
3988.00,0.0005
3987.00,0.0005
3986.00,0.0005
3985.00,0.0005
3984.00,0.0005
3983.00,0.0005
3982.00,0.0005
3981.00,0.0005
3980.00,0.0005
3979.00,0.0005
3978.00,0.0005
3977.00,0.0005
3976.00,0.0005
3975.00,0.0005
3974.00,0.0005
3973.00,0.0005
3972.00,0.0005
3971.00,0.0005
3970.00,0.0005
3969.00,0.0005
3968.00,0.0005
3967.00,0.0005
3966.00,0.0005
3965.00,0.0005
3964.00,0.0005
3963.00,0.0004
3962.00,0.0004
3961.00,0.0004
3960.00,0.0004
3959.00,0.0004
3958.00,0.0004
3957.00,0.0004
3956.00,0.0004
3955.00,0.0004
3954.00,0.0004
3953.00,0.0004
3952.00,0.0004
3951.00,0.0004
3950.00,0.0004
3949.00,0.0004
3948.00,0.0005
3947.00,0.0005
3946.00,0.0005
3945.00,0.0005
3944.00,0.0005
3943.00,0.0005
3942.00,0.0005
3941.00,0.0005
3940.00,0.0005
3939.00,0.0005
3938.00,0.0005
3937.00,0.0005
3936.00,0.0005
3935.00,0.0005
3934.00,0.0005
3933.00,0.0004
3932.00,0.0004
3931.00,0.0004
3930.00,0.0004
3929.00,0.0004
3928.00,0.0004
3927.00,0.0004
3926.00,0.0004
3925.00,0.0004
3924.00,0.0004
3923.00,0.0004
3922.00,0.0004
3921.00,0.0004
3920.00,0.0004
3919.00,0.0004
3918.00,0.0004
3917.00,0.0004
3916.00,0.0004
3915.00,0.0004
3914.00,0.0004
3913.00,0.0004
3912.00,0.0005
3911.00,0.0005
3910.00,0.0005
3909.00,0.0004
3908.00,0.0004
3907.00,0.0004
3906.00,0.0004
3905.00,0.0003
3904.00,0.0003
3903.00,0.0003
3902.00,0.0003
3901.00,0.0003
3900.00,0.0003
3899.00,0.0003
3898.00,0.0003
3897.00,0.0004
3896.00,0.0004
3895.00,0.0004
3894.00,0.0004
3893.00,0.0004
3892.00,0.0005
3891.00,0.0005
3890.00,0.0004
3889.00,0.0004
3888.00,0.0003
3887.00,0.0003
3886.00,0.0003
3885.00,0.0003
3884.00,0.0003
3883.00,0.0003
3882.00,0.0003
3881.00,0.0003
3880.00,0.0003
3879.00,0.0004
3878.00,0.0004
3877.00,0.0004
3876.00,0.0004
3875.00,0.0004
3874.00,0.0004
3873.00,0.0003
3872.00,0.0003
3871.00,0.0003
3870.00,0.0003
3869.00,0.0003
3868.00,0.0003
3867.00,0.0003
3866.00,0.0003
3865.00,0.0003
3864.00,0.0003
3863.00,0.0003
3862.00,0.0003
3861.00,0.0003
3860.00,0.0003
3859.00,0.0003
3858.00,0.0003
3857.00,0.0003
3856.00,0.0002
3855.00,0.0002
3854.00,0.0002
3853.00,0.0002
3852.00,0.0002
3851.00,0.0002
3850.00,0.0002
3849.00,0.0003
3848.00,0.0003
3847.00,0.0004
3846.00,0.0004
3845.00,0.0004
3844.00,0.0004
3843.00,0.0004
3842.00,0.0004
3841.00,0.0003
3840.00,0.0003
3839.00,0.0003
3838.00,0.0003
3837.00,0.0003
3836.00,0.0002
3835.00,0.0002
3834.00,0.0002
3833.00,0.0003
3832.00,0.0003
3831.00,0.0003
3830.00,0.0003
3829.00,0.0003
3828.00,0.0003
3827.00,0.0003
3826.00,0.0003
3825.00,0.0003
3824.00,0.0003
3823.00,0.0003
3822.00,0.0003
3821.00,0.0003
3820.00,0.0003
3819.00,0.0003
3818.00,0.0002
3817.00,0.0003
3816.00,0.0003
3815.00,0.0004
3814.00,0.0004
3813.00,0.0004
3812.00,0.0004
3811.00,0.0004
3810.00,0.0004
3809.00,0.0004
3808.00,0.0004
3807.00,0.0004
3806.00,0.0004
3805.00,0.0004
3804.00,0.0003
3803.00,0.0002
3802.00,0.0002
3801.00,0.0002
3800.00,0.0002
3799.00,0.0002
3798.00,0.0002
3797.00,0.0002
3796.00,0.0003
3795.00,0.0003
3794.00,0.0003
3793.00,0.0004
3792.00,0.0004
3791.00,0.0004
3790.00,0.0005
3789.00,0.0005
3788.00,0.0005
3787.00,0.0004
3786.00,0.0004
3785.00,0.0004
3784.00,0.0004
3783.00,0.0004
3782.00,0.0003
3781.00,0.0003
3780.00,0.0003
3779.00,0.0004
3778.00,0.0004
3777.00,0.0004
3776.00,0.0004
3775.00,0.0004
3774.00,0.0004
3773.00,0.0004
3772.00,0.0004
3771.00,0.0004
3770.00,0.0004
3769.00,0.0004
3768.00,0.0004
3767.00,0.0004
3766.00,0.0004
3765.00,0.0004
3764.00,0.0004
3763.00,0.0004
3762.00,0.0003
3761.00,0.0003
3760.00,0.0004
3759.00,0.0003
3758.00,0.0003
3757.00,0.0003
3756.00,0.0003
3755.00,0.0003
3754.00,0.0003
3753.00,0.0002
3752.00,0.0002
3751.00,0.0002
3750.00,0.0002
3749.00,0.0001
3748.00,0.0001
3747.00,0.0000
3746.00,0.0000
3745.00,0.0000
3744.00,0.0001
3743.00,0.0001
3742.00,0.0001
3741.00,0.0001
3740.00,0.0002
3739.00,0.0002
3738.00,0.0002
3737.00,0.0002
3736.00,0.0002
3735.00,0.0002
3734.00,0.0002
3733.00,0.0002
3732.00,0.0002
3731.00,0.0002
3730.00,0.0003
3729.00,0.0003
3728.00,0.0003
3727.00,0.0003
3726.00,0.0003
3725.00,0.0003
3724.00,0.0003
3723.00,0.0003
3722.00,0.0003
3721.00,0.0003
3720.00,0.0004
3719.00,0.0004
3718.00,0.0004
3717.00,0.0003
3716.00,0.0003
3715.00,0.0003
3714.00,0.0003
3713.00,0.0002
3712.00,0.0002
3711.00,0.0002
3710.00,0.0002
3709.00,0.0003
3708.00,0.0003
3707.00,0.0004
3706.00,0.0004
3705.00,0.0004
3704.00,0.0004
3703.00,0.0004
3702.00,0.0003
3701.00,0.0003
3700.00,0.0003
3699.00,0.0003
3698.00,0.0003
3697.00,0.0003
3696.00,0.0003
3695.00,0.0003
3694.00,0.0003
3693.00,0.0003
3692.00,0.0003
3691.00,0.0003
3690.00,0.0003
3689.00,0.0002
3688.00,0.0002
3687.00,0.0002
3686.00,0.0002
3685.00,0.0003
3684.00,0.0003
3683.00,0.0004
3682.00,0.0004
3681.00,0.0004
3680.00,0.0004
3679.00,0.0004
3678.00,0.0004
3677.00,0.0003
3676.00,0.0003
3675.00,0.0003
3674.00,0.0003
3673.00,0.0002
3672.00,0.0002
3671.00,0.0003
3670.00,0.0003
3669.00,0.0004
3668.00,0.0004
3667.00,0.0004
3666.00,0.0005
3665.00,0.0005
3664.00,0.0006
3663.00,0.0006
3662.00,0.0006
3661.00,0.0007
3660.00,0.0007
3659.00,0.0007
3658.00,0.0007
3657.00,0.0007
3656.00,0.0007
3655.00,0.0006
3654.00,0.0006
3653.00,0.0005
3652.00,0.0005
3651.00,0.0005
3650.00,0.0005
3649.00,0.0005
3648.00,0.0005
3647.00,0.0005
3646.00,0.0006
3645.00,0.0006
3644.00,0.0007
3643.00,0.0007
3642.00,0.0007
3641.00,0.0008
3640.00,0.0008
3639.00,0.0008
3638.00,0.0009
3637.00,0.0009
3636.00,0.0009
3635.00,0.0009
3634.00,0.0010
3633.00,0.0010
3632.00,0.0010
3631.00,0.0009
3630.00,0.0009
3629.00,0.0010
3628.00,0.0010
3627.00,0.0010
3626.00,0.0010
3625.00,0.0011
3624.00,0.0011
3623.00,0.0011
3622.00,0.0011
3621.00,0.0011
3620.00,0.0011
3619.00,0.0011
3618.00,0.0012
3617.00,0.0012
3616.00,0.0012
3615.00,0.0012
3614.00,0.0012
3613.00,0.0012
3612.00,0.0013
3611.00,0.0013
3610.00,0.0013
3609.00,0.0013
3608.00,0.0013
3607.00,0.0013
3606.00,0.0014
3605.00,0.0014
3604.00,0.0015
3603.00,0.0015
3602.00,0.0016
3601.00,0.0016
3600.00,0.0016
3599.00,0.0016
3598.00,0.0016
3597.00,0.0017
3596.00,0.0017
3595.00,0.0017
3594.00,0.0017
3593.00,0.0017
3592.00,0.0017
3591.00,0.0017
3590.00,0.0018
3589.00,0.0018
3588.00,0.0017
3587.00,0.0017
3586.00,0.0017
3585.00,0.0017
3584.00,0.0018
3583.00,0.0019
3582.00,0.0019
3581.00,0.0020
3580.00,0.0020
3579.00,0.0020
3578.00,0.0020
3577.00,0.0020
3576.00,0.0021
3575.00,0.0021
3574.00,0.0021
3573.00,0.0021
3572.00,0.0021
3571.00,0.0021
3570.00,0.0021
3569.00,0.0021
3568.00,0.0022
3567.00,0.0022
3566.00,0.0022
3565.00,0.0022
3564.00,0.0022
3563.00,0.0022
3562.00,0.0023
3561.00,0.0023
3560.00,0.0024
3559.00,0.0024
3558.00,0.0024
3557.00,0.0025
3556.00,0.0025
3555.00,0.0025
3554.00,0.0025
3553.00,0.0025
3552.00,0.0025
3551.00,0.0026
3550.00,0.0026
3549.00,0.0026
3548.00,0.0027
3547.00,0.0027
3546.00,0.0028
3545.00,0.0028
3544.00,0.0028
3543.00,0.0028
3542.00,0.0028
3541.00,0.0029
3540.00,0.0029
3539.00,0.0029
3538.00,0.0030
3537.00,0.0030
3536.00,0.0030
3535.00,0.0031
3534.00,0.0031
3533.00,0.0031
3532.00,0.0031
3531.00,0.0032
3530.00,0.0032
3529.00,0.0032
3528.00,0.0032
3527.00,0.0032
3526.00,0.0033
3525.00,0.0033
3524.00,0.0033
3523.00,0.0033
3522.00,0.0033
3521.00,0.0033
3520.00,0.0033
3519.00,0.0034
3518.00,0.0034
3517.00,0.0034
3516.00,0.0034
3515.00,0.0035
3514.00,0.0035
3513.00,0.0035
3512.00,0.0035
3511.00,0.0036
3510.00,0.0036
3509.00,0.0036
3508.00,0.0036
3507.00,0.0037
3506.00,0.0037
3505.00,0.0037
3504.00,0.0037
3503.00,0.0037
3502.00,0.0036
3501.00,0.0036
3500.00,0.0037
3499.00,0.0037
3498.00,0.0037
3497.00,0.0037
3496.00,0.0037
3495.00,0.0037
3494.00,0.0038
3493.00,0.0038
3492.00,0.0038
3491.00,0.0037
3490.00,0.0037
3489.00,0.0037
3488.00,0.0037
3487.00,0.0037
3486.00,0.0037
3485.00,0.0037
3484.00,0.0038
3483.00,0.0038
3482.00,0.0038
3481.00,0.0038
3480.00,0.0038
3479.00,0.0038
3478.00,0.0038
3477.00,0.0038
3476.00,0.0038
3475.00,0.0038
3474.00,0.0038
3473.00,0.0038
3472.00,0.0039
3471.00,0.0039
3470.00,0.0039
3469.00,0.0039
3468.00,0.0039
3467.00,0.0039
3466.00,0.0040
3465.00,0.0040
3464.00,0.0040
3463.00,0.0040
3462.00,0.0040
3461.00,0.0040
3460.00,0.0040
3459.00,0.0040
3458.00,0.0040
3457.00,0.0040
3456.00,0.0041
3455.00,0.0041
3454.00,0.0041
3453.00,0.0041
3452.00,0.0041
3451.00,0.0041
3450.00,0.0042
3449.00,0.0042
3448.00,0.0042
3447.00,0.0043
3446.00,0.0043
3445.00,0.0043
3444.00,0.0044
3443.00,0.0044
3442.00,0.0044
3441.00,0.0044
3440.00,0.0044
3439.00,0.0044
3438.00,0.0044
3437.00,0.0044
3436.00,0.0044
3435.00,0.0044
3434.00,0.0045
3433.00,0.0046
3432.00,0.0046
3431.00,0.0046
3430.00,0.0046
3429.00,0.0046
3428.00,0.0047
3427.00,0.0047
3426.00,0.0047
3425.00,0.0047
3424.00,0.0047
3423.00,0.0047
3422.00,0.0047
3421.00,0.0047
3420.00,0.0047
3419.00,0.0047
3418.00,0.0047
3417.00,0.0048
3416.00,0.0048
3415.00,0.0048
3414.00,0.0048
3413.00,0.0048
3412.00,0.0048
3411.00,0.0049
3410.00,0.0049
3409.00,0.0049
3408.00,0.0049
3407.00,0.0050
3406.00,0.0050
3405.00,0.0049
3404.00,0.0049
3403.00,0.0049
3402.00,0.0048
3401.00,0.0048
3400.00,0.0049
3399.00,0.0049
3398.00,0.0049
3397.00,0.0049
3396.00,0.0049
3395.00,0.0049
3394.00,0.0049
3393.00,0.0049
3392.00,0.0049
3391.00,0.0049
3390.00,0.0049
3389.00,0.0050
3388.00,0.0050
3387.00,0.0050
3386.00,0.0051
3385.00,0.0051
3384.00,0.0051
3383.00,0.0050
3382.00,0.0050
3381.00,0.0050
3380.00,0.0050
3379.00,0.0050
3378.00,0.0050
3377.00,0.0050
3376.00,0.0051
3375.00,0.0051
3374.00,0.0051
3373.00,0.0051
3372.00,0.0051
3371.00,0.0051
3370.00,0.0051
3369.00,0.0051
3368.00,0.0051
3367.00,0.0051
3366.00,0.0051
3365.00,0.0051
3364.00,0.0052
3363.00,0.0052
3362.00,0.0052
3361.00,0.0052
3360.00,0.0052
3359.00,0.0052
3358.00,0.0053
3357.00,0.0053
3356.00,0.0053
3355.00,0.0053
3354.00,0.0053
3353.00,0.0053
3352.00,0.0053
3351.00,0.0053
3350.00,0.0053
3349.00,0.0053
3348.00,0.0053
3347.00,0.0053
3346.00,0.0053
3345.00,0.0053
3344.00,0.0053
3343.00,0.0054
3342.00,0.0054
3341.00,0.0054
3340.00,0.0055
3339.00,0.0055
3338.00,0.0055
3337.00,0.0055
3336.00,0.0055
3335.00,0.0055
3334.00,0.0055
3333.00,0.0055
3332.00,0.0055
3331.00,0.0056
3330.00,0.0056
3329.00,0.0056
3328.00,0.0056
3327.00,0.0055
3326.00,0.0055
3325.00,0.0055
3324.00,0.0055
3323.00,0.0055
3322.00,0.0056
3321.00,0.0056
3320.00,0.0056
3319.00,0.0056
3318.00,0.0056
3317.00,0.0056
3316.00,0.0056
3315.00,0.0056
3314.00,0.0056
3313.00,0.0057
3312.00,0.0057
3311.00,0.0056
3310.00,0.0056
3309.00,0.0056
3308.00,0.0056
3307.00,0.0056
3306.00,0.0056
3305.00,0.0056
3304.00,0.0057
3303.00,0.0057
3302.00,0.0058
3301.00,0.0058
3300.00,0.0059
3299.00,0.0059
3298.00,0.0058
3297.00,0.0058
3296.00,0.0058
3295.00,0.0058
3294.00,0.0058
3293.00,0.0059
3292.00,0.0059
3291.00,0.0059
3290.00,0.0060
3289.00,0.0060
3288.00,0.0061
3287.00,0.0061
3286.00,0.0062
3285.00,0.0062
3284.00,0.0062
3283.00,0.0062
3282.00,0.0062
3281.00,0.0062
3280.00,0.0062
3279.00,0.0062
3278.00,0.0062
3277.00,0.0062
3276.00,0.0062
3275.00,0.0062
3274.00,0.0062
3273.00,0.0063
3272.00,0.0063
3271.00,0.0063
3270.00,0.0064
3269.00,0.0064
3268.00,0.0064
3267.00,0.0065
3266.00,0.0065
3265.00,0.0065
3264.00,0.0066
3263.00,0.0066
3262.00,0.0066
3261.00,0.0066
3260.00,0.0066
3259.00,0.0066
3258.00,0.0066
3257.00,0.0066
3256.00,0.0066
3255.00,0.0067
3254.00,0.0067
3253.00,0.0067
3252.00,0.0068
3251.00,0.0068
3250.00,0.0068
3249.00,0.0068
3248.00,0.0068
3247.00,0.0068
3246.00,0.0069
3245.00,0.0069
3244.00,0.0069
3243.00,0.0069
3242.00,0.0070
3241.00,0.0070
3240.00,0.0070
3239.00,0.0070
3238.00,0.0070
3237.00,0.0070
3236.00,0.0070
3235.00,0.0070
3234.00,0.0070
3233.00,0.0070
3232.00,0.0071
3231.00,0.0071
3230.00,0.0071
3229.00,0.0072
3228.00,0.0072
3227.00,0.0073
3226.00,0.0073
3225.00,0.0073
3224.00,0.0073
3223.00,0.0073
3222.00,0.0073
3221.00,0.0073
3220.00,0.0074
3219.00,0.0074
3218.00,0.0074
3217.00,0.0074
3216.00,0.0075
3215.00,0.0075
3214.00,0.0075
3213.00,0.0075
3212.00,0.0076
3211.00,0.0076
3210.00,0.0076
3209.00,0.0076
3208.00,0.0076
3207.00,0.0076
3206.00,0.0076
3205.00,0.0076
3204.00,0.0076
3203.00,0.0076
3202.00,0.0077
3201.00,0.0077
3200.00,0.0077
3199.00,0.0077
3198.00,0.0077
3197.00,0.0077
3196.00,0.0078
3195.00,0.0078
3194.00,0.0078
3193.00,0.0078
3192.00,0.0078
3191.00,0.0078
3190.00,0.0078
3189.00,0.0078
3188.00,0.0078
3187.00,0.0079
3186.00,0.0079
3185.00,0.0079
3184.00,0.0078
3183.00,0.0078
3182.00,0.0078
3181.00,0.0079
3180.00,0.0079
3179.00,0.0079
3178.00,0.0080
3177.00,0.0080
3176.00,0.0080
3175.00,0.0080
3174.00,0.0080
3173.00,0.0080
3172.00,0.0081
3171.00,0.0081
3170.00,0.0081
3169.00,0.0081
3168.00,0.0081
3167.00,0.0081
3166.00,0.0081
3165.00,0.0082
3164.00,0.0083
3163.00,0.0083
3162.00,0.0083
3161.00,0.0083
3160.00,0.0083
3159.00,0.0083
3158.00,0.0083
3157.00,0.0083
3156.00,0.0083
3155.00,0.0084
3154.00,0.0084
3153.00,0.0084
3152.00,0.0084
3151.00,0.0085
3150.00,0.0085
3149.00,0.0085
3148.00,0.0086
3147.00,0.0086
3146.00,0.0086
3145.00,0.0086
3144.00,0.0086
3143.00,0.0086
3142.00,0.0086
3141.00,0.0086
3140.00,0.0086
3139.00,0.0087
3138.00,0.0087
3137.00,0.0087
3136.00,0.0088
3135.00,0.0088
3134.00,0.0089
3133.00,0.0089
3132.00,0.0089
3131.00,0.0089
3130.00,0.0089
3129.00,0.0089
3128.00,0.0090
3127.00,0.0090
3126.00,0.0090
3125.00,0.0091
3124.00,0.0091
3123.00,0.0091
3122.00,0.0091
3121.00,0.0091
3120.00,0.0091
3119.00,0.0091
3118.00,0.0091
3117.00,0.0092
3116.00,0.0092
3115.00,0.0092
3114.00,0.0093
3113.00,0.0093
3112.00,0.0093
3111.00,0.0093
3110.00,0.0093
3109.00,0.0093
3108.00,0.0093
3107.00,0.0093
3106.00,0.0094
3105.00,0.0094
3104.00,0.0094
3103.00,0.0095
3102.00,0.0095
3101.00,0.0095
3100.00,0.0095
3099.00,0.0095
3098.00,0.0095
3097.00,0.0096
3096.00,0.0096
3095.00,0.0097
3094.00,0.0097
3093.00,0.0098
3092.00,0.0099
3091.00,0.0100
3090.00,0.0100
3089.00,0.0101
3088.00,0.0102
3087.00,0.0103
3086.00,0.0103
3085.00,0.0104
3084.00,0.0105
3083.00,0.0106
3082.00,0.0107
3081.00,0.0108
3080.00,0.0108
3079.00,0.0109
3078.00,0.0109
3077.00,0.0109
3076.00,0.0110
3075.00,0.0110
3074.00,0.0110
3073.00,0.0111
3072.00,0.0111
3071.00,0.0111
3070.00,0.0111
3069.00,0.0111
3068.00,0.0111
3067.00,0.0111
3066.00,0.0112
3065.00,0.0112
3064.00,0.0112
3063.00,0.0112
3062.00,0.0112
3061.00,0.0112
3060.00,0.0112
3059.00,0.0113
3058.00,0.0113
3057.00,0.0113
3056.00,0.0113
3055.00,0.0112
3054.00,0.0113
3053.00,0.0113
3052.00,0.0113
3051.00,0.0114
3050.00,0.0114
3049.00,0.0115
3048.00,0.0115
3047.00,0.0116
3046.00,0.0117
3045.00,0.0117
3044.00,0.0118
3043.00,0.0118
3042.00,0.0119
3041.00,0.0119
3040.00,0.0120
3039.00,0.0120
3038.00,0.0121
3037.00,0.0121
3036.00,0.0121
3035.00,0.0121
3034.00,0.0121
3033.00,0.0121
3032.00,0.0121
3031.00,0.0122
3030.00,0.0122
3029.00,0.0122
3028.00,0.0122
3027.00,0.0123
3026.00,0.0123
3025.00,0.0123
3024.00,0.0124
3023.00,0.0124
3022.00,0.0125
3021.00,0.0126
3020.00,0.0126
3019.00,0.0127
3018.00,0.0127
3017.00,0.0128
3016.00,0.0129
3015.00,0.0129
3014.00,0.0130
3013.00,0.0131
3012.00,0.0132
3011.00,0.0133
3010.00,0.0134
3009.00,0.0135
3008.00,0.0136
3007.00,0.0137
3006.00,0.0139
3005.00,0.0140
3004.00,0.0142
3003.00,0.0143
3002.00,0.0145
3001.00,0.0147
3000.00,0.0149
2999.00,0.0150
2998.00,0.0152
2997.00,0.0154
2996.00,0.0156
2995.00,0.0158
2994.00,0.0160
2993.00,0.0162
2992.00,0.0164
2991.00,0.0165
2990.00,0.0167
2989.00,0.0168
2988.00,0.0170
2987.00,0.0171
2986.00,0.0172
2985.00,0.0173
2984.00,0.0174
2983.00,0.0175
2982.00,0.0175
2981.00,0.0176
2980.00,0.0176
2979.00,0.0177
2978.00,0.0177
2977.00,0.0178
2976.00,0.0178
2975.00,0.0179
2974.00,0.0180
2973.00,0.0181
2972.00,0.0182
2971.00,0.0183
2970.00,0.0185
2969.00,0.0186
2968.00,0.0189
2967.00,0.0191
2966.00,0.0193
2965.00,0.0196
2964.00,0.0199
2963.00,0.0201
2962.00,0.0204
2961.00,0.0206
2960.00,0.0208
2959.00,0.0210
2958.00,0.0211
2957.00,0.0213
2956.00,0.0214
2955.00,0.0216
2954.00,0.0217
2953.00,0.0218
2952.00,0.0218
2951.00,0.0218
2950.00,0.0218
2949.00,0.0219
2948.00,0.0219
2947.00,0.0219
2946.00,0.0218
2945.00,0.0218
2944.00,0.0218
2943.00,0.0218
2942.00,0.0218
2941.00,0.0219
2940.00,0.0219
2939.00,0.0220
2938.00,0.0220
2937.00,0.0220
2936.00,0.0220
2935.00,0.0221
2934.00,0.0222
2933.00,0.0222
2932.00,0.0223
2931.00,0.0224
2930.00,0.0225
2929.00,0.0226
2928.00,0.0227
2927.00,0.0228
2926.00,0.0228
2925.00,0.0229
2924.00,0.0229
2923.00,0.0229
2922.00,0.0229
2921.00,0.0228
2920.00,0.0228
2919.00,0.0227
2918.00,0.0226
2917.00,0.0224
2916.00,0.0223
2915.00,0.0222
2914.00,0.0221
2913.00,0.0219
2912.00,0.0218
2911.00,0.0217
2910.00,0.0216
2909.00,0.0215
2908.00,0.0215
2907.00,0.0214
2906.00,0.0213
2905.00,0.0212
2904.00,0.0212
2903.00,0.0212
2902.00,0.0212
2901.00,0.0212
2900.00,0.0212
2899.00,0.0213
2898.00,0.0213
2897.00,0.0213
2896.00,0.0213
2895.00,0.0213
2894.00,0.0213
2893.00,0.0213
2892.00,0.0213
2891.00,0.0213
2890.00,0.0213
2889.00,0.0213
2888.00,0.0213
2887.00,0.0213
2886.00,0.0213
2885.00,0.0213
2884.00,0.0213
2883.00,0.0213
2882.00,0.0213
2881.00,0.0213
2880.00,0.0212
2879.00,0.0212
2878.00,0.0212
2877.00,0.0211
2876.00,0.0211
2875.00,0.0210
2874.00,0.0209
2873.00,0.0209
2872.00,0.0208
2871.00,0.0207
2870.00,0.0206
2869.00,0.0205
2868.00,0.0204
2867.00,0.0203
2866.00,0.0202
2865.00,0.0201
2864.00,0.0200
2863.00,0.0198
2862.00,0.0197
2861.00,0.0196
2860.00,0.0195
2859.00,0.0193
2858.00,0.0192
2857.00,0.0190
2856.00,0.0189
2855.00,0.0187
2854.00,0.0186
2853.00,0.0184
2852.00,0.0182
2851.00,0.0180
2850.00,0.0178
2849.00,0.0176
2848.00,0.0174
2847.00,0.0173
2846.00,0.0171
2845.00,0.0170
2844.00,0.0169
2843.00,0.0168
2842.00,0.0167
2841.00,0.0167
2840.00,0.0166
2839.00,0.0165
2838.00,0.0164
2837.00,0.0164
2836.00,0.0163
2835.00,0.0163
2834.00,0.0163
2833.00,0.0162
2832.00,0.0162
2831.00,0.0162
2830.00,0.0161
2829.00,0.0161
2828.00,0.0160
2827.00,0.0160
2826.00,0.0159
2825.00,0.0159
2824.00,0.0158
2823.00,0.0157
2822.00,0.0157
2821.00,0.0156
2820.00,0.0155
2819.00,0.0155
2818.00,0.0154
2817.00,0.0153
2816.00,0.0153
2815.00,0.0153
2814.00,0.0152
2813.00,0.0152
2812.00,0.0152
2811.00,0.0151
2810.00,0.0151
2809.00,0.0151
2808.00,0.0150
2807.00,0.0150
2806.00,0.0150
2805.00,0.0150
2804.00,0.0150
2803.00,0.0150
2802.00,0.0150
2801.00,0.0151
2800.00,0.0151
2799.00,0.0151
2798.00,0.0151
2797.00,0.0151
2796.00,0.0151
2795.00,0.0152
2794.00,0.0152
2793.00,0.0152
2792.00,0.0152
2791.00,0.0153
2790.00,0.0153
2789.00,0.0153
2788.00,0.0153
2787.00,0.0153
2786.00,0.0153
2785.00,0.0154
2784.00,0.0154
2783.00,0.0154
2782.00,0.0154
2781.00,0.0154
2780.00,0.0154
2779.00,0.0154
2778.00,0.0154
2777.00,0.0155
2776.00,0.0155
2775.00,0.0155
2774.00,0.0155
2773.00,0.0155
2772.00,0.0155
2771.00,0.0155
2770.00,0.0154
2769.00,0.0154
2768.00,0.0154
2767.00,0.0154
2766.00,0.0154
2765.00,0.0153
2764.00,0.0153
2763.00,0.0153
2762.00,0.0152
2761.00,0.0152
2760.00,0.0151
2759.00,0.0151
2758.00,0.0150
2757.00,0.0150
