Created as New Dataset,Sample 242 By YargerLab Date Sunday, October 05 2025
cm-1,A
4000.00,0.0016
3999.00,0.0016
3998.00,0.0016
3997.00,0.0016
3996.00,0.0016
3995.00,0.0016
3994.00,0.0017
3993.00,0.0017
3992.00,0.0017
3991.00,0.0017
3990.00,0.0016
3989.00,0.0016
3988.00,0.0016
3987.00,0.0016
3986.00,0.0016
3985.00,0.0016
3984.00,0.0016
3983.00,0.0016
3982.00,0.0016
3981.00,0.0016
3980.00,0.0016
3979.00,0.0016
3978.00,0.0016
3977.00,0.0016
3976.00,0.0017
3975.00,0.0017
3974.00,0.0017
3973.00,0.0017
3972.00,0.0017
3971.00,0.0017
3970.00,0.0017
3969.00,0.0017
3968.00,0.0016
3967.00,0.0016
3966.00,0.0016
3965.00,0.0016
3964.00,0.0016
3963.00,0.0016
3962.00,0.0016
3961.00,0.0016
3960.00,0.0016
3959.00,0.0016
3958.00,0.0016
3957.00,0.0016
3956.00,0.0016
3955.00,0.0016
3954.00,0.0016
3953.00,0.0016
3952.00,0.0016
3951.00,0.0016
3950.00,0.0016
3949.00,0.0016
3948.00,0.0016
3947.00,0.0016
3946.00,0.0016
3945.00,0.0016
3944.00,0.0016
3943.00,0.0016
3942.00,0.0016
3941.00,0.0016
3940.00,0.0016
3939.00,0.0016
3938.00,0.0016
3937.00,0.0016
3936.00,0.0016
3935.00,0.0016
3934.00,0.0016
3933.00,0.0016
3932.00,0.0016
3931.00,0.0016
3930.00,0.0016
3929.00,0.0016
3928.00,0.0016
3927.00,0.0016
3926.00,0.0016
3925.00,0.0016
3924.00,0.0016
3923.00,0.0015
3922.00,0.0016
3921.00,0.0016
3920.00,0.0016
3919.00,0.0017
3918.00,0.0017
3917.00,0.0016
3916.00,0.0016
3915.00,0.0016
3914.00,0.0016
3913.00,0.0016
3912.00,0.0016
3911.00,0.0016
3910.00,0.0016
3909.00,0.0017
3908.00,0.0017
3907.00,0.0017
3906.00,0.0018
3905.00,0.0017
3904.00,0.0017
3903.00,0.0017
3902.00,0.0017
3901.00,0.0017
3900.00,0.0017
3899.00,0.0016
3898.00,0.0016
3897.00,0.0017
3896.00,0.0017
3895.00,0.0016
3894.00,0.0016
3893.00,0.0016
3892.00,0.0016
3891.00,0.0016
3890.00,0.0017
3889.00,0.0017
3888.00,0.0017
3887.00,0.0017
3886.00,0.0016
3885.00,0.0016
3884.00,0.0017
3883.00,0.0017
3882.00,0.0016
3881.00,0.0015
3880.00,0.0015
3879.00,0.0015
3878.00,0.0015
3877.00,0.0016
3876.00,0.0016
3875.00,0.0016
3874.00,0.0016
3873.00,0.0017
3872.00,0.0017
3871.00,0.0016
3870.00,0.0016
3869.00,0.0017
3868.00,0.0017
3867.00,0.0017
3866.00,0.0017
3865.00,0.0017
3864.00,0.0017
3863.00,0.0017
3862.00,0.0017
3861.00,0.0016
3860.00,0.0016
3859.00,0.0016
3858.00,0.0017
3857.00,0.0017
3856.00,0.0018
3855.00,0.0018
3854.00,0.0018
3853.00,0.0018
3852.00,0.0018
3851.00,0.0018
3850.00,0.0018
3849.00,0.0017
3848.00,0.0016
3847.00,0.0016
3846.00,0.0016
3845.00,0.0016
3844.00,0.0017
3843.00,0.0017
3842.00,0.0017
3841.00,0.0017
3840.00,0.0017
3839.00,0.0017
3838.00,0.0016
3837.00,0.0016
3836.00,0.0016
3835.00,0.0016
3834.00,0.0016
3833.00,0.0016
3832.00,0.0016
3831.00,0.0016
3830.00,0.0016
3829.00,0.0016
3828.00,0.0016
3827.00,0.0016
3826.00,0.0016
3825.00,0.0016
3824.00,0.0016
3823.00,0.0016
3822.00,0.0016
3821.00,0.0016
3820.00,0.0016
3819.00,0.0017
3818.00,0.0017
3817.00,0.0016
3816.00,0.0016
3815.00,0.0016
3814.00,0.0016
3813.00,0.0016
3812.00,0.0016
3811.00,0.0016
3810.00,0.0016
3809.00,0.0016
3808.00,0.0016
3807.00,0.0015
3806.00,0.0016
3805.00,0.0016
3804.00,0.0016
3803.00,0.0016
3802.00,0.0016
3801.00,0.0016
3800.00,0.0016
3799.00,0.0017
3798.00,0.0016
3797.00,0.0016
3796.00,0.0015
3795.00,0.0015
3794.00,0.0015
3793.00,0.0015
3792.00,0.0015
3791.00,0.0015
3790.00,0.0015
3789.00,0.0015
3788.00,0.0015
3787.00,0.0015
3786.00,0.0015
3785.00,0.0015
3784.00,0.0015
3783.00,0.0015
3782.00,0.0015
3781.00,0.0015
3780.00,0.0015
3779.00,0.0015
3778.00,0.0015
3777.00,0.0015
3776.00,0.0015
3775.00,0.0015
3774.00,0.0015
3773.00,0.0015
3772.00,0.0015
3771.00,0.0015
3770.00,0.0015
3769.00,0.0015
3768.00,0.0015
3767.00,0.0015
3766.00,0.0015
3765.00,0.0015
3764.00,0.0015
3763.00,0.0015
3762.00,0.0015
3761.00,0.0015
3760.00,0.0015
3759.00,0.0015
3758.00,0.0015
3757.00,0.0015
3756.00,0.0016
3755.00,0.0016
3754.00,0.0016
3753.00,0.0017
3752.00,0.0017
3751.00,0.0017
3750.00,0.0017
3749.00,0.0018
3748.00,0.0018
3747.00,0.0018
3746.00,0.0017
3745.00,0.0017
3744.00,0.0016
3743.00,0.0016
3742.00,0.0016
3741.00,0.0016
3740.00,0.0015
3739.00,0.0015
3738.00,0.0015
3737.00,0.0015
3736.00,0.0015
3735.00,0.0015
3734.00,0.0014
3733.00,0.0014
3732.00,0.0014
3731.00,0.0014
3730.00,0.0014
3729.00,0.0014
3728.00,0.0014
3727.00,0.0014
3726.00,0.0014
3725.00,0.0014
3724.00,0.0014
3723.00,0.0014
3722.00,0.0014
3721.00,0.0014
3720.00,0.0014
3719.00,0.0014
3718.00,0.0014
3717.00,0.0014
3716.00,0.0015
3715.00,0.0015
3714.00,0.0015
3713.00,0.0015
3712.00,0.0015
3711.00,0.0015
3710.00,0.0015
3709.00,0.0015
3708.00,0.0015
3707.00,0.0015
3706.00,0.0015
3705.00,0.0015
3704.00,0.0015
3703.00,0.0015
3702.00,0.0014
3701.00,0.0014
3700.00,0.0014
3699.00,0.0014
3698.00,0.0014
3697.00,0.0014
3696.00,0.0014
3695.00,0.0015
3694.00,0.0015
3693.00,0.0015
3692.00,0.0015
3691.00,0.0015
3690.00,0.0015
3689.00,0.0015
3688.00,0.0016
3687.00,0.0016
3686.00,0.0016
3685.00,0.0016
3684.00,0.0016
3683.00,0.0017
3682.00,0.0017
3681.00,0.0017
3680.00,0.0018
3679.00,0.0018
3678.00,0.0019
3677.00,0.0019
3676.00,0.0020
3675.00,0.0020
3674.00,0.0021
3673.00,0.0021
3672.00,0.0021
3671.00,0.0020
3670.00,0.0020
3669.00,0.0020
3668.00,0.0020
3667.00,0.0021
3666.00,0.0021
3665.00,0.0021
3664.00,0.0021
3663.00,0.0022
3662.00,0.0022
3661.00,0.0023
3660.00,0.0023
3659.00,0.0024
3658.00,0.0024
3657.00,0.0024
3656.00,0.0024
3655.00,0.0024
3654.00,0.0025
3653.00,0.0025
3652.00,0.0026
3651.00,0.0027
3650.00,0.0027
3649.00,0.0028
3648.00,0.0028
3647.00,0.0028
3646.00,0.0028
3645.00,0.0028
3644.00,0.0028
3643.00,0.0029
3642.00,0.0029
3641.00,0.0029
3640.00,0.0030
3639.00,0.0031
3638.00,0.0031
3637.00,0.0031
3636.00,0.0032
3635.00,0.0032
3634.00,0.0033
3633.00,0.0033
3632.00,0.0034
3631.00,0.0035
3630.00,0.0035
3629.00,0.0035
3628.00,0.0036
3627.00,0.0037
3626.00,0.0037
3625.00,0.0037
3624.00,0.0037
3623.00,0.0038
3622.00,0.0038
3621.00,0.0039
3620.00,0.0039
3619.00,0.0039
3618.00,0.0040
3617.00,0.0041
3616.00,0.0041
3615.00,0.0042
3614.00,0.0043
3613.00,0.0044
3612.00,0.0044
3611.00,0.0045
3610.00,0.0045
3609.00,0.0046
3608.00,0.0046
3607.00,0.0047
3606.00,0.0047
3605.00,0.0048
3604.00,0.0048
3603.00,0.0049
3602.00,0.0049
3601.00,0.0050
3600.00,0.0050
3599.00,0.0051
3598.00,0.0051
3597.00,0.0052
3596.00,0.0053
3595.00,0.0053
3594.00,0.0054
3593.00,0.0055
3592.00,0.0056
3591.00,0.0057
3590.00,0.0057
3589.00,0.0057
3588.00,0.0058
3587.00,0.0059
3586.00,0.0059
3585.00,0.0060
3584.00,0.0060
3583.00,0.0061
3582.00,0.0061
3581.00,0.0062
3580.00,0.0063
3579.00,0.0063
3578.00,0.0064
3577.00,0.0065
3576.00,0.0065
3575.00,0.0066
3574.00,0.0067
3573.00,0.0068
3572.00,0.0068
3571.00,0.0069
3570.00,0.0070
3569.00,0.0071
3568.00,0.0071
3567.00,0.0072
3566.00,0.0073
3565.00,0.0073
3564.00,0.0074
3563.00,0.0075
3562.00,0.0075
3561.00,0.0076
3560.00,0.0076
3559.00,0.0077
3558.00,0.0078
3557.00,0.0079
3556.00,0.0080
3555.00,0.0080
3554.00,0.0081
3553.00,0.0082
3552.00,0.0082
3551.00,0.0083
3550.00,0.0084
3549.00,0.0084
3548.00,0.0085
3547.00,0.0085
3546.00,0.0086
3545.00,0.0087
3544.00,0.0088
3543.00,0.0089
3542.00,0.0091
3541.00,0.0092
3540.00,0.0093
3539.00,0.0094
3538.00,0.0094
3537.00,0.0095
3536.00,0.0096
3535.00,0.0097
3534.00,0.0098
3533.00,0.0099
3532.00,0.0100
3531.00,0.0101
3530.00,0.0102
3529.00,0.0102
3528.00,0.0103
3527.00,0.0103
3526.00,0.0103
3525.00,0.0103
3524.00,0.0104
3523.00,0.0104
3522.00,0.0105
3521.00,0.0106
3520.00,0.0107
3519.00,0.0108
3518.00,0.0108
3517.00,0.0109
3516.00,0.0109
3515.00,0.0110
3514.00,0.0110
3513.00,0.0111
3512.00,0.0112
3511.00,0.0113
3510.00,0.0114
3509.00,0.0114
3508.00,0.0115
3507.00,0.0115
3506.00,0.0115
3505.00,0.0115
3504.00,0.0115
3503.00,0.0115
3502.00,0.0115
3501.00,0.0116
3500.00,0.0116
3499.00,0.0117
3498.00,0.0117
3497.00,0.0117
3496.00,0.0118
3495.00,0.0118
3494.00,0.0118
3493.00,0.0119
3492.00,0.0119
3491.00,0.0119
3490.00,0.0119
3489.00,0.0120
3488.00,0.0120
3487.00,0.0120
3486.00,0.0121
3485.00,0.0122
3484.00,0.0122
3483.00,0.0122
3482.00,0.0122
3481.00,0.0122
3480.00,0.0122
3479.00,0.0123
3478.00,0.0123
3477.00,0.0124
3476.00,0.0124
3475.00,0.0125
3474.00,0.0125
3473.00,0.0125
3472.00,0.0126
3471.00,0.0126
3470.00,0.0126
3469.00,0.0126
3468.00,0.0127
3467.00,0.0128
3466.00,0.0129
3465.00,0.0130
3464.00,0.0130
3463.00,0.0131
3462.00,0.0132
3461.00,0.0133
3460.00,0.0133
3459.00,0.0134
3458.00,0.0135
3457.00,0.0136
3456.00,0.0137
3455.00,0.0137
3454.00,0.0137
3453.00,0.0138
3452.00,0.0139
3451.00,0.0139
3450.00,0.0140
3449.00,0.0140
3448.00,0.0141
3447.00,0.0142
3446.00,0.0143
3445.00,0.0143
3444.00,0.0144
3443.00,0.0145
3442.00,0.0146
3441.00,0.0146
3440.00,0.0146
3439.00,0.0145
3438.00,0.0145
3437.00,0.0145
3436.00,0.0146
3435.00,0.0147
3434.00,0.0149
3433.00,0.0150
3432.00,0.0151
3431.00,0.0151
3430.00,0.0152
3429.00,0.0153
3428.00,0.0154
3427.00,0.0155
3426.00,0.0157
3425.00,0.0158
3424.00,0.0158
3423.00,0.0158
3422.00,0.0158
3421.00,0.0159
3420.00,0.0159
3419.00,0.0160
3418.00,0.0161
3417.00,0.0161
3416.00,0.0161
3415.00,0.0161
3414.00,0.0161
3413.00,0.0160
3412.00,0.0160
3411.00,0.0161
3410.00,0.0161
3409.00,0.0162
3408.00,0.0162
3407.00,0.0163
3406.00,0.0163
3405.00,0.0163
3404.00,0.0162
3403.00,0.0160
3402.00,0.0159
3401.00,0.0159
3400.00,0.0160
3399.00,0.0161
3398.00,0.0162
3397.00,0.0163
3396.00,0.0163
3395.00,0.0163
3394.00,0.0162
3393.00,0.0162
3392.00,0.0162
3391.00,0.0163
3390.00,0.0164
3389.00,0.0165
3388.00,0.0166
3387.00,0.0166
3386.00,0.0166
3385.00,0.0166
3384.00,0.0166
3383.00,0.0167
3382.00,0.0167
3381.00,0.0167
3380.00,0.0167
3379.00,0.0167
3378.00,0.0167
3377.00,0.0168
3376.00,0.0168
3375.00,0.0168
3374.00,0.0168
3373.00,0.0168
3372.00,0.0167
3371.00,0.0166
3370.00,0.0166
3369.00,0.0166
3368.00,0.0166
3367.00,0.0168
3366.00,0.0170
3365.00,0.0171
3364.00,0.0172
3363.00,0.0173
3362.00,0.0173
3361.00,0.0173
3360.00,0.0174
3359.00,0.0174
3358.00,0.0175
3357.00,0.0176
3356.00,0.0177
3355.00,0.0177
3354.00,0.0176
3353.00,0.0175
3352.00,0.0174
3351.00,0.0174
3350.00,0.0175
3349.00,0.0176
3348.00,0.0177
3347.00,0.0178
3346.00,0.0178
3345.00,0.0178
3344.00,0.0178
3343.00,0.0178
3342.00,0.0177
3341.00,0.0177
3340.00,0.0177
3339.00,0.0177
3338.00,0.0177
3337.00,0.0178
3336.00,0.0179
3335.00,0.0180
3334.00,0.0181
3333.00,0.0181
3332.00,0.0182
3331.00,0.0182
3330.00,0.0181
3329.00,0.0181
3328.00,0.0180
3327.00,0.0180
3326.00,0.0180
3325.00,0.0180
3324.00,0.0181
3323.00,0.0181
3322.00,0.0182
3321.00,0.0182
3320.00,0.0183
3319.00,0.0183
3318.00,0.0183
3317.00,0.0183
3316.00,0.0183
3315.00,0.0183
3314.00,0.0182
3313.00,0.0182
3312.00,0.0182
3311.00,0.0181
3310.00,0.0179
3309.00,0.0178
3308.00,0.0177
3307.00,0.0176
3306.00,0.0177
3305.00,0.0178
3304.00,0.0180
3303.00,0.0183
3302.00,0.0184
3301.00,0.0186
3300.00,0.0186
3299.00,0.0185
3298.00,0.0185
3297.00,0.0184
3296.00,0.0184
3295.00,0.0184
3294.00,0.0184
3293.00,0.0185
3292.00,0.0186
3291.00,0.0187
3290.00,0.0189
3289.00,0.0190
3288.00,0.0191
3287.00,0.0191
3286.00,0.0192
3285.00,0.0192
3284.00,0.0193
3283.00,0.0193
3282.00,0.0194
3281.00,0.0194
3280.00,0.0195
3279.00,0.0195
3278.00,0.0195
3277.00,0.0195
3276.00,0.0194
3275.00,0.0194
3274.00,0.0193
3273.00,0.0192
3272.00,0.0192
3271.00,0.0193
3270.00,0.0194
3269.00,0.0196
3268.00,0.0199
3267.00,0.0200
3266.00,0.0202
3265.00,0.0203
3264.00,0.0203
3263.00,0.0204
3262.00,0.0205
3261.00,0.0205
3260.00,0.0205
3259.00,0.0205
3258.00,0.0205
3257.00,0.0205
3256.00,0.0206
3255.00,0.0206
3254.00,0.0208
3253.00,0.0209
3252.00,0.0210
3251.00,0.0210
3250.00,0.0209
3249.00,0.0208
3248.00,0.0208
3247.00,0.0208
3246.00,0.0209
3245.00,0.0211
3244.00,0.0212
3243.00,0.0213
3242.00,0.0214
3241.00,0.0214
3240.00,0.0215
3239.00,0.0215
3238.00,0.0215
3237.00,0.0214
3236.00,0.0213
3235.00,0.0212
3234.00,0.0211
3233.00,0.0212
3232.00,0.0213
3231.00,0.0215
3230.00,0.0216
3229.00,0.0217
3228.00,0.0218
3227.00,0.0218
3226.00,0.0219
3225.00,0.0219
3224.00,0.0219
3223.00,0.0220
3222.00,0.0220
3221.00,0.0221
3220.00,0.0221
3219.00,0.0222
3218.00,0.0223
3217.00,0.0224
3216.00,0.0225
3215.00,0.0226
3214.00,0.0227
3213.00,0.0228
3212.00,0.0229
3211.00,0.0229
3210.00,0.0229
3209.00,0.0229
3208.00,0.0229
3207.00,0.0229
3206.00,0.0229
3205.00,0.0229
3204.00,0.0229
3203.00,0.0229
3202.00,0.0229
3201.00,0.0230
3200.00,0.0230
3199.00,0.0230
3198.00,0.0229
3197.00,0.0229
3196.00,0.0229
3195.00,0.0229
3194.00,0.0229
3193.00,0.0230
3192.00,0.0230
3191.00,0.0230
3190.00,0.0230
3189.00,0.0230
3188.00,0.0231
3187.00,0.0231
3186.00,0.0232
3185.00,0.0232
3184.00,0.0232
3183.00,0.0232
3182.00,0.0233
3181.00,0.0233
3180.00,0.0233
3179.00,0.0234
3178.00,0.0234
3177.00,0.0234
3176.00,0.0234
3175.00,0.0235
3174.00,0.0235
3173.00,0.0236
3172.00,0.0236
3171.00,0.0237
3170.00,0.0238
3169.00,0.0238
3168.00,0.0239
3167.00,0.0239
3166.00,0.0240
3165.00,0.0240
3164.00,0.0241
3163.00,0.0241
3162.00,0.0242
3161.00,0.0242
3160.00,0.0243
3159.00,0.0244
3158.00,0.0245
3157.00,0.0245
3156.00,0.0245
3155.00,0.0246
3154.00,0.0246
3153.00,0.0246
3152.00,0.0246
3151.00,0.0247
3150.00,0.0248
3149.00,0.0249
3148.00,0.0249
3147.00,0.0250
3146.00,0.0251
3145.00,0.0251
3144.00,0.0252
3143.00,0.0252
3142.00,0.0252
3141.00,0.0253
3140.00,0.0253
3139.00,0.0254
3138.00,0.0255
3137.00,0.0256
3136.00,0.0257
3135.00,0.0257
3134.00,0.0258
3133.00,0.0259
3132.00,0.0259
3131.00,0.0260
3130.00,0.0260
3129.00,0.0261
3128.00,0.0262
3127.00,0.0262
3126.00,0.0263
3125.00,0.0263
3124.00,0.0264
3123.00,0.0264
3122.00,0.0264
3121.00,0.0264
3120.00,0.0265
3119.00,0.0266
3118.00,0.0266
3117.00,0.0267
3116.00,0.0268
3115.00,0.0269
3114.00,0.0269
3113.00,0.0270
3112.00,0.0270
3111.00,0.0271
3110.00,0.0271
3109.00,0.0271
3108.00,0.0271
3107.00,0.0272
3106.00,0.0273
3105.00,0.0273
3104.00,0.0274
3103.00,0.0274
3102.00,0.0275
3101.00,0.0275
3100.00,0.0276
3099.00,0.0276
3098.00,0.0277
3097.00,0.0278
3096.00,0.0280
3095.00,0.0281
3094.00,0.0283
3093.00,0.0284
3092.00,0.0286
3091.00,0.0288
3090.00,0.0290
3089.00,0.0292
3088.00,0.0294
3087.00,0.0297
3086.00,0.0299
3085.00,0.0302
3084.00,0.0304
3083.00,0.0306
3082.00,0.0308
3081.00,0.0310
3080.00,0.0312
3079.00,0.0313
3078.00,0.0315
3077.00,0.0316
3076.00,0.0318
3075.00,0.0319
3074.00,0.0319
3073.00,0.0320
3072.00,0.0321
3071.00,0.0321
3070.00,0.0322
3069.00,0.0322
3068.00,0.0322
3067.00,0.0323
3066.00,0.0323
3065.00,0.0323
3064.00,0.0324
3063.00,0.0324
3062.00,0.0324
3061.00,0.0324
3060.00,0.0325
3059.00,0.0325
3058.00,0.0325
3057.00,0.0325
3056.00,0.0325
3055.00,0.0325
3054.00,0.0326
3053.00,0.0327
3052.00,0.0328
3051.00,0.0329
3050.00,0.0331
3049.00,0.0333
3048.00,0.0334
3047.00,0.0336
3046.00,0.0338
3045.00,0.0340
3044.00,0.0341
3043.00,0.0343
3042.00,0.0344
3041.00,0.0346
3040.00,0.0347
3039.00,0.0347
3038.00,0.0348
3037.00,0.0349
3036.00,0.0350
3035.00,0.0350
3034.00,0.0351
3033.00,0.0351
3032.00,0.0352
3031.00,0.0352
3030.00,0.0353
3029.00,0.0354
3028.00,0.0355
3027.00,0.0356
3026.00,0.0357
3025.00,0.0358
3024.00,0.0360
3023.00,0.0361
3022.00,0.0363
3021.00,0.0364
3020.00,0.0366
3019.00,0.0368
3018.00,0.0370
3017.00,0.0372
3016.00,0.0375
3015.00,0.0377
3014.00,0.0380
3013.00,0.0382
3012.00,0.0385
3011.00,0.0389
3010.00,0.0392
3009.00,0.0396
3008.00,0.0399
3007.00,0.0403
3006.00,0.0407
3005.00,0.0412
3004.00,0.0416
3003.00,0.0421
3002.00,0.0426
3001.00,0.0432
3000.00,0.0437
2999.00,0.0443
2998.00,0.0450
2997.00,0.0456
2996.00,0.0463
2995.00,0.0470
2994.00,0.0477
2993.00,0.0483
2992.00,0.0490
2991.00,0.0496
2990.00,0.0503
2989.00,0.0509
2988.00,0.0514
2987.00,0.0520
2986.00,0.0525
2985.00,0.0529
2984.00,0.0533
2983.00,0.0537
2982.00,0.0541
2981.00,0.0544
2980.00,0.0548
2979.00,0.0551
2978.00,0.0554
2977.00,0.0558
2976.00,0.0561
2975.00,0.0565
2974.00,0.0570
2973.00,0.0575
2972.00,0.0580
2971.00,0.0585
2970.00,0.0591
2969.00,0.0597
2968.00,0.0602
2967.00,0.0608
2966.00,0.0614
2965.00,0.0620
2964.00,0.0626
2963.00,0.0632
2962.00,0.0637
2961.00,0.0642
2960.00,0.0646
2959.00,0.0650
2958.00,0.0654
2957.00,0.0657
2956.00,0.0660
2955.00,0.0662
2954.00,0.0663
2953.00,0.0665
2952.00,0.0666
2951.00,0.0666
2950.00,0.0666
2949.00,0.0665
2948.00,0.0664
2947.00,0.0664
2946.00,0.0663
2945.00,0.0662
2944.00,0.0661
2943.00,0.0661
2942.00,0.0660
2941.00,0.0661
2940.00,0.0661
2939.00,0.0662
2938.00,0.0663
2937.00,0.0664
2936.00,0.0665
2935.00,0.0667
2934.00,0.0669
2933.00,0.0671
2932.00,0.0673
2931.00,0.0676
2930.00,0.0678
2929.00,0.0681
2928.00,0.0684
2927.00,0.0686
2926.00,0.0689
2925.00,0.0691
2924.00,0.0692
2923.00,0.0693
2922.00,0.0692
2921.00,0.0691
2920.00,0.0689
2919.00,0.0686
2918.00,0.0682
2917.00,0.0678
2916.00,0.0673
2915.00,0.0668
2914.00,0.0664
2913.00,0.0659
2912.00,0.0655
2911.00,0.0651
2910.00,0.0648
2909.00,0.0644
2908.00,0.0642
2907.00,0.0639
2906.00,0.0637
2905.00,0.0635
2904.00,0.0634
2903.00,0.0634
2902.00,0.0633
2901.00,0.0633
2900.00,0.0634
2899.00,0.0634
2898.00,0.0635
2897.00,0.0635
2896.00,0.0636
2895.00,0.0636
2894.00,0.0637
2893.00,0.0637
2892.00,0.0638
2891.00,0.0637
2890.00,0.0637
2889.00,0.0637
2888.00,0.0637
2887.00,0.0637
2886.00,0.0637
2885.00,0.0637
2884.00,0.0636
2883.00,0.0636
2882.00,0.0635
2881.00,0.0634
2880.00,0.0633
2879.00,0.0632
2878.00,0.0631
2877.00,0.0629
2876.00,0.0627
2875.00,0.0625
2874.00,0.0623
2873.00,0.0621
2872.00,0.0618
2871.00,0.0615
2870.00,0.0612
2869.00,0.0609
2868.00,0.0606
2867.00,0.0602
2866.00,0.0599
2865.00,0.0595
2864.00,0.0591
2863.00,0.0588
2862.00,0.0584
2861.00,0.0580
2860.00,0.0576
2859.00,0.0572
2858.00,0.0568
2857.00,0.0563
2856.00,0.0558
2855.00,0.0552
2854.00,0.0547
2853.00,0.0541
2852.00,0.0535
2851.00,0.0530
2850.00,0.0524
2849.00,0.0518
2848.00,0.0513
2847.00,0.0508
2846.00,0.0504
2845.00,0.0500
2844.00,0.0497
2843.00,0.0493
2842.00,0.0490
2841.00,0.0486
2840.00,0.0483
2839.00,0.0481
2838.00,0.0479
2837.00,0.0478
2836.00,0.0477
2835.00,0.0475
2834.00,0.0474
2833.00,0.0472
2832.00,0.0471
2831.00,0.0470
2830.00,0.0468
2829.00,0.0466
2828.00,0.0465
2827.00,0.0463
2826.00,0.0461
2825.00,0.0459
2824.00,0.0457
2823.00,0.0455
2822.00,0.0453
2821.00,0.0451
2820.00,0.0449
2819.00,0.0447
2818.00,0.0446
2817.00,0.0444
2816.00,0.0442
2815.00,0.0441
2814.00,0.0439
2813.00,0.0438
2812.00,0.0437
2811.00,0.0436
2810.00,0.0434
2809.00,0.0433
2808.00,0.0433
2807.00,0.0432
2806.00,0.0431
2805.00,0.0431
2804.00,0.0431
2803.00,0.0431
2802.00,0.0431
2801.00,0.0431
2800.00,0.0431
2799.00,0.0431
2798.00,0.0432
2797.00,0.0432
2796.00,0.0433
2795.00,0.0433
2794.00,0.0433
2793.00,0.0434
2792.00,0.0434
2791.00,0.0435
2790.00,0.0435
2789.00,0.0436
2788.00,0.0436
2787.00,0.0436
2786.00,0.0437
2785.00,0.0437
2784.00,0.0437
2783.00,0.0438
2782.00,0.0438
2781.00,0.0438
2780.00,0.0438
2779.00,0.0439
2778.00,0.0439
2777.00,0.0438
2776.00,0.0438
2775.00,0.0438
2774.00,0.0438
2773.00,0.0438
2772.00,0.0438
2771.00,0.0438
2770.00,0.0437
2769.00,0.0436
2768.00,0.0436
2767.00,0.0435
2766.00,0.0434
2765.00,0.0433
2764.00,0.0432
2763.00,0.0431
2762.00,0.0429
2761.00,0.0428
2760.00,0.0427
2759.00,0.0425
2758.00,0.0424
2757.00,0.0423
