Created as New Dataset,Sample 291 By YargerLab Date Saturday, October 18 2025
cm-1,A
4000.00,0.0019
3999.00,0.0019
3998.00,0.0018
3997.00,0.0018
3996.00,0.0018
3995.00,0.0018
3994.00,0.0018
3993.00,0.0018
3992.00,0.0018
3991.00,0.0019
3990.00,0.0019
3989.00,0.0019
3988.00,0.0019
3987.00,0.0019
3986.00,0.0019
3985.00,0.0019
3984.00,0.0019
3983.00,0.0019
3982.00,0.0019
3981.00,0.0019
3980.00,0.0019
3979.00,0.0019
3978.00,0.0019
3977.00,0.0019
3976.00,0.0019
3975.00,0.0019
3974.00,0.0019
3973.00,0.0019
3972.00,0.0019
3971.00,0.0019
3970.00,0.0019
3969.00,0.0019
3968.00,0.0019
3967.00,0.0019
3966.00,0.0019
3965.00,0.0019
3964.00,0.0019
3963.00,0.0019
3962.00,0.0019
3961.00,0.0019
3960.00,0.0019
3959.00,0.0019
3958.00,0.0019
3957.00,0.0019
3956.00,0.0019
3955.00,0.0019
3954.00,0.0019
3953.00,0.0019
3952.00,0.0019
3951.00,0.0019
3950.00,0.0019
3949.00,0.0019
3948.00,0.0019
3947.00,0.0019
3946.00,0.0019
3945.00,0.0019
3944.00,0.0019
3943.00,0.0019
3942.00,0.0019
3941.00,0.0019
3940.00,0.0019
3939.00,0.0019
3938.00,0.0019
3937.00,0.0019
3936.00,0.0020
3935.00,0.0020
3934.00,0.0020
3933.00,0.0020
3932.00,0.0019
3931.00,0.0019
3930.00,0.0019
3929.00,0.0019
3928.00,0.0019
3927.00,0.0019
3926.00,0.0019
3925.00,0.0019
3924.00,0.0019
3923.00,0.0019
3922.00,0.0019
3921.00,0.0019
3920.00,0.0019
3919.00,0.0019
3918.00,0.0019
3917.00,0.0019
3916.00,0.0019
3915.00,0.0019
3914.00,0.0019
3913.00,0.0018
3912.00,0.0018
3911.00,0.0018
3910.00,0.0018
3909.00,0.0018
3908.00,0.0019
3907.00,0.0019
3906.00,0.0020
3905.00,0.0020
3904.00,0.0020
3903.00,0.0021
3902.00,0.0020
3901.00,0.0020
3900.00,0.0019
3899.00,0.0018
3898.00,0.0018
3897.00,0.0018
3896.00,0.0018
3895.00,0.0018
3894.00,0.0018
3893.00,0.0018
3892.00,0.0018
3891.00,0.0018
3890.00,0.0019
3889.00,0.0019
3888.00,0.0019
3887.00,0.0019
3886.00,0.0019
3885.00,0.0019
3884.00,0.0019
3883.00,0.0019
3882.00,0.0018
3881.00,0.0018
3880.00,0.0018
3879.00,0.0018
3878.00,0.0018
3877.00,0.0018
3876.00,0.0018
3875.00,0.0018
3874.00,0.0018
3873.00,0.0018
3872.00,0.0019
3871.00,0.0018
3870.00,0.0018
3869.00,0.0018
3868.00,0.0018
3867.00,0.0018
3866.00,0.0018
3865.00,0.0017
3864.00,0.0017
3863.00,0.0018
3862.00,0.0018
3861.00,0.0018
3860.00,0.0018
3859.00,0.0018
3858.00,0.0018
3857.00,0.0019
3856.00,0.0020
3855.00,0.0020
3854.00,0.0019
3853.00,0.0019
3852.00,0.0019
3851.00,0.0019
3850.00,0.0018
3849.00,0.0017
3848.00,0.0017
3847.00,0.0017
3846.00,0.0017
3845.00,0.0017
3844.00,0.0018
3843.00,0.0018
3842.00,0.0018
3841.00,0.0018
3840.00,0.0018
3839.00,0.0017
3838.00,0.0017
3837.00,0.0017
3836.00,0.0018
3835.00,0.0018
3834.00,0.0018
3833.00,0.0017
3832.00,0.0017
3831.00,0.0017
3830.00,0.0017
3829.00,0.0017
3828.00,0.0016
3827.00,0.0016
3826.00,0.0017
3825.00,0.0017
3824.00,0.0017
3823.00,0.0017
3822.00,0.0017
3821.00,0.0016
3820.00,0.0017
3819.00,0.0017
3818.00,0.0017
3817.00,0.0016
3816.00,0.0016
3815.00,0.0016
3814.00,0.0017
3813.00,0.0017
3812.00,0.0016
3811.00,0.0016
3810.00,0.0016
3809.00,0.0017
3808.00,0.0016
3807.00,0.0016
3806.00,0.0016
3805.00,0.0017
3804.00,0.0017
3803.00,0.0016
3802.00,0.0016
3801.00,0.0016
3800.00,0.0017
3799.00,0.0017
3798.00,0.0016
3797.00,0.0016
3796.00,0.0015
3795.00,0.0016
3794.00,0.0016
3793.00,0.0016
3792.00,0.0016
3791.00,0.0016
3790.00,0.0016
3789.00,0.0016
3788.00,0.0016
3787.00,0.0015
3786.00,0.0015
3785.00,0.0015
3784.00,0.0015
3783.00,0.0016
3782.00,0.0016
3781.00,0.0015
3780.00,0.0015
3779.00,0.0015
3778.00,0.0015
3777.00,0.0015
3776.00,0.0015
3775.00,0.0016
3774.00,0.0016
3773.00,0.0016
3772.00,0.0016
3771.00,0.0016
3770.00,0.0016
3769.00,0.0017
3768.00,0.0016
3767.00,0.0016
3766.00,0.0015
3765.00,0.0015
3764.00,0.0016
3763.00,0.0016
3762.00,0.0016
3761.00,0.0016
3760.00,0.0016
3759.00,0.0016
3758.00,0.0016
3757.00,0.0016
3756.00,0.0016
3755.00,0.0016
3754.00,0.0017
3753.00,0.0017
3752.00,0.0017
3751.00,0.0017
3750.00,0.0017
3749.00,0.0017
3748.00,0.0017
3747.00,0.0017
3746.00,0.0016
3745.00,0.0016
3744.00,0.0016
3743.00,0.0016
3742.00,0.0017
3741.00,0.0016
3740.00,0.0016
3739.00,0.0016
3738.00,0.0016
3737.00,0.0016
3736.00,0.0015
3735.00,0.0015
3734.00,0.0014
3733.00,0.0014
3732.00,0.0014
3731.00,0.0014
3730.00,0.0015
3729.00,0.0015
3728.00,0.0015
3727.00,0.0015
3726.00,0.0015
3725.00,0.0015
3724.00,0.0015
3723.00,0.0015
3722.00,0.0014
3721.00,0.0014
3720.00,0.0014
3719.00,0.0014
3718.00,0.0014
3717.00,0.0014
3716.00,0.0014
3715.00,0.0015
3714.00,0.0015
3713.00,0.0015
3712.00,0.0015
3711.00,0.0014
3710.00,0.0014
3709.00,0.0014
3708.00,0.0014
3707.00,0.0014
3706.00,0.0014
3705.00,0.0014
3704.00,0.0014
3703.00,0.0014
3702.00,0.0014
3701.00,0.0014
3700.00,0.0014
3699.00,0.0014
3698.00,0.0014
3697.00,0.0014
3696.00,0.0014
3695.00,0.0014
3694.00,0.0014
3693.00,0.0015
3692.00,0.0015
3691.00,0.0015
3690.00,0.0015
3689.00,0.0015
3688.00,0.0014
3687.00,0.0014
3686.00,0.0014
3685.00,0.0014
3684.00,0.0014
3683.00,0.0014
3682.00,0.0015
3681.00,0.0015
3680.00,0.0015
3679.00,0.0016
3678.00,0.0016
3677.00,0.0016
3676.00,0.0015
3675.00,0.0015
3674.00,0.0016
3673.00,0.0016
3672.00,0.0015
3671.00,0.0015
3670.00,0.0015
3669.00,0.0015
3668.00,0.0015
3667.00,0.0015
3666.00,0.0014
3665.00,0.0014
3664.00,0.0014
3663.00,0.0014
3662.00,0.0014
3661.00,0.0014
3660.00,0.0015
3659.00,0.0015
3658.00,0.0015
3657.00,0.0015
3656.00,0.0015
3655.00,0.0015
3654.00,0.0016
3653.00,0.0016
3652.00,0.0016
3651.00,0.0017
3650.00,0.0016
3649.00,0.0016
3648.00,0.0016
3647.00,0.0016
3646.00,0.0017
3645.00,0.0017
3644.00,0.0016
3643.00,0.0016
3642.00,0.0016
3641.00,0.0017
3640.00,0.0017
3639.00,0.0017
3638.00,0.0018
3637.00,0.0018
3636.00,0.0019
3635.00,0.0019
3634.00,0.0020
3633.00,0.0021
3632.00,0.0022
3631.00,0.0023
3630.00,0.0024
3629.00,0.0025
3628.00,0.0026
3627.00,0.0028
3626.00,0.0029
3625.00,0.0030
3624.00,0.0031
3623.00,0.0032
3622.00,0.0034
3621.00,0.0036
3620.00,0.0037
3619.00,0.0038
3618.00,0.0040
3617.00,0.0041
3616.00,0.0041
3615.00,0.0042
3614.00,0.0043
3613.00,0.0043
3612.00,0.0044
3611.00,0.0044
3610.00,0.0045
3609.00,0.0044
3608.00,0.0044
3607.00,0.0044
3606.00,0.0044
3605.00,0.0045
3604.00,0.0045
3603.00,0.0045
3602.00,0.0046
3601.00,0.0046
3600.00,0.0047
3599.00,0.0047
3598.00,0.0048
3597.00,0.0048
3596.00,0.0049
3595.00,0.0050
3594.00,0.0051
3593.00,0.0052
3592.00,0.0053
3591.00,0.0054
3590.00,0.0055
3589.00,0.0056
3588.00,0.0057
3587.00,0.0058
3586.00,0.0059
3585.00,0.0060
3584.00,0.0061
3583.00,0.0062
3582.00,0.0063
3581.00,0.0065
3580.00,0.0066
3579.00,0.0068
3578.00,0.0069
3577.00,0.0071
3576.00,0.0072
3575.00,0.0074
3574.00,0.0076
3573.00,0.0077
3572.00,0.0079
3571.00,0.0081
3570.00,0.0083
3569.00,0.0085
3568.00,0.0087
3567.00,0.0089
3566.00,0.0091
3565.00,0.0092
3564.00,0.0094
3563.00,0.0095
3562.00,0.0097
3561.00,0.0099
3560.00,0.0101
3559.00,0.0102
3558.00,0.0104
3557.00,0.0106
3556.00,0.0108
3555.00,0.0111
3554.00,0.0113
3553.00,0.0115
3552.00,0.0118
3551.00,0.0120
3550.00,0.0122
3549.00,0.0124
3548.00,0.0126
3547.00,0.0128
3546.00,0.0130
3545.00,0.0133
3544.00,0.0135
3543.00,0.0137
3542.00,0.0139
3541.00,0.0141
3540.00,0.0143
3539.00,0.0145
3538.00,0.0148
3537.00,0.0150
3536.00,0.0151
3535.00,0.0153
3534.00,0.0155
3533.00,0.0157
3532.00,0.0159
3531.00,0.0161
3530.00,0.0163
3529.00,0.0165
3528.00,0.0167
3527.00,0.0168
3526.00,0.0170
3525.00,0.0172
3524.00,0.0173
3523.00,0.0174
3522.00,0.0176
3521.00,0.0177
3520.00,0.0178
3519.00,0.0180
3518.00,0.0181
3517.00,0.0183
3516.00,0.0184
3515.00,0.0186
3514.00,0.0187
3513.00,0.0189
3512.00,0.0190
3511.00,0.0192
3510.00,0.0193
3509.00,0.0195
3508.00,0.0196
3507.00,0.0198
3506.00,0.0199
3505.00,0.0201
3504.00,0.0202
3503.00,0.0204
3502.00,0.0206
3501.00,0.0207
3500.00,0.0209
3499.00,0.0211
3498.00,0.0212
3497.00,0.0213
3496.00,0.0215
3495.00,0.0217
3494.00,0.0218
3493.00,0.0220
3492.00,0.0222
3491.00,0.0223
3490.00,0.0225
3489.00,0.0227
3488.00,0.0229
3487.00,0.0230
3486.00,0.0232
3485.00,0.0234
3484.00,0.0236
3483.00,0.0237
3482.00,0.0239
3481.00,0.0241
3480.00,0.0243
3479.00,0.0245
3478.00,0.0246
3477.00,0.0248
3476.00,0.0249
3475.00,0.0251
3474.00,0.0253
3473.00,0.0255
3472.00,0.0257
3471.00,0.0259
3470.00,0.0261
3469.00,0.0263
3468.00,0.0265
3467.00,0.0266
3466.00,0.0268
3465.00,0.0270
3464.00,0.0272
3463.00,0.0274
3462.00,0.0276
3461.00,0.0278
3460.00,0.0279
3459.00,0.0281
3458.00,0.0282
3457.00,0.0284
3456.00,0.0285
3455.00,0.0287
3454.00,0.0289
3453.00,0.0290
3452.00,0.0292
3451.00,0.0294
3450.00,0.0296
3449.00,0.0298
3448.00,0.0299
3447.00,0.0301
3446.00,0.0303
3445.00,0.0304
3444.00,0.0306
3443.00,0.0307
3442.00,0.0309
3441.00,0.0310
3440.00,0.0312
3439.00,0.0314
3438.00,0.0315
3437.00,0.0317
3436.00,0.0319
3435.00,0.0320
3434.00,0.0321
3433.00,0.0322
3432.00,0.0324
3431.00,0.0325
3430.00,0.0326
3429.00,0.0328
3428.00,0.0329
3427.00,0.0330
3426.00,0.0331
3425.00,0.0332
3424.00,0.0333
3423.00,0.0334
3422.00,0.0335
3421.00,0.0336
3420.00,0.0337
3419.00,0.0337
3418.00,0.0338
3417.00,0.0339
3416.00,0.0340
3415.00,0.0341
3414.00,0.0342
3413.00,0.0342
3412.00,0.0343
3411.00,0.0344
3410.00,0.0344
3409.00,0.0344
3408.00,0.0344
3407.00,0.0344
3406.00,0.0345
3405.00,0.0345
3404.00,0.0345
3403.00,0.0345
3402.00,0.0345
3401.00,0.0345
3400.00,0.0345
3399.00,0.0344
3398.00,0.0344
3397.00,0.0344
3396.00,0.0343
3395.00,0.0343
3394.00,0.0343
3393.00,0.0343
3392.00,0.0343
3391.00,0.0342
3390.00,0.0341
3389.00,0.0340
3388.00,0.0339
3387.00,0.0339
3386.00,0.0338
3385.00,0.0337
3384.00,0.0336
3383.00,0.0335
3382.00,0.0334
3381.00,0.0333
3380.00,0.0332
3379.00,0.0331
3378.00,0.0330
3377.00,0.0330
3376.00,0.0329
3375.00,0.0327
3374.00,0.0326
3373.00,0.0325
3372.00,0.0324
3371.00,0.0323
3370.00,0.0322
3369.00,0.0321
3368.00,0.0319
3367.00,0.0318
3366.00,0.0316
3365.00,0.0315
3364.00,0.0313
3363.00,0.0312
3362.00,0.0311
3361.00,0.0309
3360.00,0.0308
3359.00,0.0307
3358.00,0.0305
3357.00,0.0304
3356.00,0.0303
3355.00,0.0301
3354.00,0.0300
3353.00,0.0299
3352.00,0.0297
3351.00,0.0296
3350.00,0.0294
3349.00,0.0292
3348.00,0.0291
3347.00,0.0289
3346.00,0.0288
3345.00,0.0286
3344.00,0.0285
3343.00,0.0283
3342.00,0.0282
3341.00,0.0280
3340.00,0.0279
3339.00,0.0278
3338.00,0.0276
3337.00,0.0275
3336.00,0.0274
3335.00,0.0272
3334.00,0.0271
3333.00,0.0269
3332.00,0.0268
3331.00,0.0266
3330.00,0.0265
3329.00,0.0264
3328.00,0.0262
3327.00,0.0261
3326.00,0.0260
3325.00,0.0258
3324.00,0.0257
3323.00,0.0255
3322.00,0.0254
3321.00,0.0252
3320.00,0.0250
3319.00,0.0249
3318.00,0.0248
3317.00,0.0246
3316.00,0.0245
3315.00,0.0244
3314.00,0.0243
3313.00,0.0241
3312.00,0.0240
3311.00,0.0239
3310.00,0.0237
3309.00,0.0236
3308.00,0.0234
3307.00,0.0233
3306.00,0.0231
3305.00,0.0230
3304.00,0.0229
3303.00,0.0228
3302.00,0.0227
3301.00,0.0226
3300.00,0.0225
3299.00,0.0223
3298.00,0.0222
3297.00,0.0220
3296.00,0.0219
3295.00,0.0217
3294.00,0.0216
3293.00,0.0215
3292.00,0.0214
3291.00,0.0213
3290.00,0.0212
3289.00,0.0211
3288.00,0.0210
3287.00,0.0209
3286.00,0.0208
3285.00,0.0206
3284.00,0.0205
3283.00,0.0204
3282.00,0.0203
3281.00,0.0202
3280.00,0.0201
3279.00,0.0199
3278.00,0.0198
3277.00,0.0196
3276.00,0.0195
3275.00,0.0193
3274.00,0.0191
3273.00,0.0189
3272.00,0.0188
3271.00,0.0187
3270.00,0.0186
3269.00,0.0186
3268.00,0.0186
3267.00,0.0185
3266.00,0.0185
3265.00,0.0184
3264.00,0.0183
3263.00,0.0182
3262.00,0.0181
3261.00,0.0180
3260.00,0.0179
3259.00,0.0177
3258.00,0.0176
3257.00,0.0174
3256.00,0.0173
3255.00,0.0172
3254.00,0.0171
3253.00,0.0171
3252.00,0.0170
3251.00,0.0169
3250.00,0.0167
3249.00,0.0165
3248.00,0.0163
3247.00,0.0162
3246.00,0.0161
3245.00,0.0161
3244.00,0.0160
3243.00,0.0159
3242.00,0.0158
3241.00,0.0157
3240.00,0.0156
3239.00,0.0154
3238.00,0.0152
3237.00,0.0150
3236.00,0.0148
3235.00,0.0146
3234.00,0.0144
3233.00,0.0143
3232.00,0.0142
3231.00,0.0141
3230.00,0.0140
3229.00,0.0140
3228.00,0.0138
3227.00,0.0137
3226.00,0.0136
3225.00,0.0135
3224.00,0.0134
3223.00,0.0132
3222.00,0.0131
3221.00,0.0130
3220.00,0.0128
3219.00,0.0127
3218.00,0.0126
3217.00,0.0125
3216.00,0.0124
3215.00,0.0123
3214.00,0.0122
3213.00,0.0121
3212.00,0.0120
3211.00,0.0120
3210.00,0.0119
3209.00,0.0118
3208.00,0.0118
3207.00,0.0117
3206.00,0.0116
3205.00,0.0115
3204.00,0.0115
3203.00,0.0114
3202.00,0.0114
3201.00,0.0113
3200.00,0.0113
3199.00,0.0112
3198.00,0.0111
3197.00,0.0110
3196.00,0.0109
3195.00,0.0108
3194.00,0.0106
3193.00,0.0105
3192.00,0.0104
3191.00,0.0103
3190.00,0.0102
3189.00,0.0101
3188.00,0.0100
3187.00,0.0099
3186.00,0.0098
3185.00,0.0097
3184.00,0.0096
3183.00,0.0096
3182.00,0.0095
3181.00,0.0094
3180.00,0.0093
3179.00,0.0092
3178.00,0.0091
3177.00,0.0090
3176.00,0.0090
3175.00,0.0089
3174.00,0.0088
3173.00,0.0087
3172.00,0.0087
3171.00,0.0087
3170.00,0.0086
3169.00,0.0086
3168.00,0.0085
3167.00,0.0085
3166.00,0.0084
3165.00,0.0084
3164.00,0.0084
3163.00,0.0083
3162.00,0.0083
3161.00,0.0083
3160.00,0.0082
3159.00,0.0082
3158.00,0.0081
3157.00,0.0081
3156.00,0.0079
3155.00,0.0078
3154.00,0.0077
3153.00,0.0076
3152.00,0.0075
3151.00,0.0076
3150.00,0.0076
3149.00,0.0077
3148.00,0.0076
3147.00,0.0076
3146.00,0.0076
3145.00,0.0075
3144.00,0.0075
3143.00,0.0074
3142.00,0.0073
3141.00,0.0071
3140.00,0.0070
3139.00,0.0070
3138.00,0.0070
3137.00,0.0070
3136.00,0.0071
3135.00,0.0071
3134.00,0.0071
3133.00,0.0070
3132.00,0.0069
3131.00,0.0068
3130.00,0.0067
3129.00,0.0067
3128.00,0.0067
3127.00,0.0067
3126.00,0.0067
3125.00,0.0066
3124.00,0.0065
3123.00,0.0064
3122.00,0.0063
3121.00,0.0062
3120.00,0.0062
3119.00,0.0061
3118.00,0.0061
3117.00,0.0061
3116.00,0.0060
3115.00,0.0060
3114.00,0.0060
3113.00,0.0060
3112.00,0.0060
3111.00,0.0060
3110.00,0.0060
3109.00,0.0059
3108.00,0.0060
3107.00,0.0060
3106.00,0.0060
3105.00,0.0060
3104.00,0.0060
3103.00,0.0059
3102.00,0.0059
3101.00,0.0059
3100.00,0.0059
3099.00,0.0059
3098.00,0.0060
3097.00,0.0060
3096.00,0.0061
3095.00,0.0061
3094.00,0.0061
3093.00,0.0062
3092.00,0.0062
3091.00,0.0062
3090.00,0.0063
3089.00,0.0063
3088.00,0.0064
3087.00,0.0064
3086.00,0.0065
3085.00,0.0066
3084.00,0.0066
3083.00,0.0067
3082.00,0.0068
3081.00,0.0069
3080.00,0.0070
3079.00,0.0071
3078.00,0.0072
3077.00,0.0073
3076.00,0.0075
3075.00,0.0076
3074.00,0.0077
3073.00,0.0079
3072.00,0.0080
3071.00,0.0082
3070.00,0.0083
3069.00,0.0084
3068.00,0.0086
3067.00,0.0088
3066.00,0.0089
3065.00,0.0091
3064.00,0.0093
3063.00,0.0096
3062.00,0.0098
3061.00,0.0100
3060.00,0.0102
3059.00,0.0104
3058.00,0.0106
3057.00,0.0109
3056.00,0.0111
3055.00,0.0113
3054.00,0.0115
3053.00,0.0118
3052.00,0.0120
3051.00,0.0121
3050.00,0.0123
3049.00,0.0123
3048.00,0.0123
3047.00,0.0122
3046.00,0.0121
3045.00,0.0119
3044.00,0.0117
3043.00,0.0115
3042.00,0.0112
3041.00,0.0110
3040.00,0.0109
3039.00,0.0107
3038.00,0.0106
3037.00,0.0106
3036.00,0.0105
3035.00,0.0105
3034.00,0.0105
3033.00,0.0105
3032.00,0.0106
3031.00,0.0107
3030.00,0.0107
3029.00,0.0108
3028.00,0.0109
3027.00,0.0109
3026.00,0.0109
3025.00,0.0109
3024.00,0.0109
3023.00,0.0109
3022.00,0.0109
3021.00,0.0108
3020.00,0.0108
3019.00,0.0107
3018.00,0.0107
3017.00,0.0106
3016.00,0.0106
3015.00,0.0105
3014.00,0.0105
3013.00,0.0105
3012.00,0.0106
3011.00,0.0107
3010.00,0.0108
3009.00,0.0109
3008.00,0.0110
3007.00,0.0112
3006.00,0.0113
3005.00,0.0115
3004.00,0.0118
3003.00,0.0120
3002.00,0.0124
3001.00,0.0127
3000.00,0.0131
2999.00,0.0136
2998.00,0.0142
2997.00,0.0148
2996.00,0.0156
2995.00,0.0164
2994.00,0.0173
2993.00,0.0183
2992.00,0.0194
2991.00,0.0206
2990.00,0.0220
2989.00,0.0234
2988.00,0.0249
2987.00,0.0265
2986.00,0.0281
2985.00,0.0298
2984.00,0.0315
2983.00,0.0333
2982.00,0.0352
2981.00,0.0372
2980.00,0.0394
2979.00,0.0416
2978.00,0.0439
2977.00,0.0463
2976.00,0.0486
2975.00,0.0510
2974.00,0.0534
2973.00,0.0559
2972.00,0.0584
2971.00,0.0609
2970.00,0.0635
2969.00,0.0660
2968.00,0.0683
2967.00,0.0704
2966.00,0.0722
2965.00,0.0737
2964.00,0.0747
2963.00,0.0754
2962.00,0.0758
2961.00,0.0760
2960.00,0.0759
2959.00,0.0755
2958.00,0.0750
2957.00,0.0742
2956.00,0.0731
2955.00,0.0717
2954.00,0.0700
2953.00,0.0682
2952.00,0.0662
2951.00,0.0643
2950.00,0.0626
2949.00,0.0614
2948.00,0.0607
2947.00,0.0607
2946.00,0.0613
2945.00,0.0626
2944.00,0.0645
2943.00,0.0670
2942.00,0.0701
2941.00,0.0735
2940.00,0.0774
2939.00,0.0816
2938.00,0.0860
2937.00,0.0906
2936.00,0.0953
2935.00,0.0998
2934.00,0.1042
2933.00,0.1083
2932.00,0.1119
2931.00,0.1150
2930.00,0.1174
2929.00,0.1193
2928.00,0.1204
2927.00,0.1209
2926.00,0.1207
2925.00,0.1200
2924.00,0.1187
2923.00,0.1170
2922.00,0.1148
2921.00,0.1125
2920.00,0.1099
2919.00,0.1074
2918.00,0.1048
2917.00,0.1023
2916.00,0.0998
2915.00,0.0973
2914.00,0.0948
2913.00,0.0922
2912.00,0.0894
2911.00,0.0866
2910.00,0.0837
2909.00,0.0807
2908.00,0.0777
2907.00,0.0747
2906.00,0.0718
2905.00,0.0690
2904.00,0.0664
2903.00,0.0639
2902.00,0.0617
2901.00,0.0596
2900.00,0.0577
2899.00,0.0559
2898.00,0.0542
2897.00,0.0527
2896.00,0.0513
2895.00,0.0500
2894.00,0.0488
2893.00,0.0477
2892.00,0.0466
2891.00,0.0457
2890.00,0.0449
2889.00,0.0441
2888.00,0.0435
2887.00,0.0430
2886.00,0.0427
2885.00,0.0424
2884.00,0.0424
2883.00,0.0425
2882.00,0.0428
2881.00,0.0433
2880.00,0.0441
2879.00,0.0451
2878.00,0.0465
2877.00,0.0480
2876.00,0.0497
2875.00,0.0514
2874.00,0.0530
2873.00,0.0544
2872.00,0.0553
2871.00,0.0557
2870.00,0.0559
2869.00,0.0558
2868.00,0.0559
2867.00,0.0562
2866.00,0.0571
2865.00,0.0586
2864.00,0.0606
2863.00,0.0630
2862.00,0.0657
2861.00,0.0683
2860.00,0.0708
2859.00,0.0727
2858.00,0.0739
2857.00,0.0742
2856.00,0.0737
2855.00,0.0723
2854.00,0.0703
2853.00,0.0677
2852.00,0.0648
2851.00,0.0617
2850.00,0.0584
2849.00,0.0550
2848.00,0.0516
2847.00,0.0482
2846.00,0.0449
2845.00,0.0417
2844.00,0.0386
2843.00,0.0358
2842.00,0.0332
2841.00,0.0309
2840.00,0.0288
2839.00,0.0269
2838.00,0.0253
2837.00,0.0238
2836.00,0.0226
2835.00,0.0214
2834.00,0.0204
2833.00,0.0194
2832.00,0.0185
2831.00,0.0177
2830.00,0.0170
2829.00,0.0162
2828.00,0.0156
2827.00,0.0150
2826.00,0.0144
2825.00,0.0139
2824.00,0.0135
2823.00,0.0130
2822.00,0.0126
2821.00,0.0123
2820.00,0.0119
2819.00,0.0116
2818.00,0.0113
2817.00,0.0110
2816.00,0.0108
2815.00,0.0106
2814.00,0.0104
2813.00,0.0102
2812.00,0.0100
2811.00,0.0099
2810.00,0.0097
2809.00,0.0095
2808.00,0.0094
2807.00,0.0092
2806.00,0.0090
2805.00,0.0089
2804.00,0.0087
2803.00,0.0086
2802.00,0.0084
2801.00,0.0083
2800.00,0.0081
2799.00,0.0080
2798.00,0.0079
2797.00,0.0077
2796.00,0.0076
2795.00,0.0075
2794.00,0.0074
2793.00,0.0073
2792.00,0.0072
2791.00,0.0071
2790.00,0.0070
2789.00,0.0069
2788.00,0.0069
2787.00,0.0068
2786.00,0.0068
2785.00,0.0067
2784.00,0.0066
2783.00,0.0066
2782.00,0.0065
2781.00,0.0064
2780.00,0.0063
2779.00,0.0062
2778.00,0.0061
2777.00,0.0061
2776.00,0.0060
2775.00,0.0060
2774.00,0.0059
2773.00,0.0059
2772.00,0.0059
2771.00,0.0059
2770.00,0.0059
2769.00,0.0059
2768.00,0.0059
2767.00,0.0059
2766.00,0.0059
2765.00,0.0059
2764.00,0.0059
2763.00,0.0059
2762.00,0.0059
2761.00,0.0059
2760.00,0.0059
2759.00,0.0059
2758.00,0.0059
2757.00,0.0060
