Created as New Dataset,Sample 289 By YargerLab Date Saturday, October 18 2025
cm-1,A
4000.00,0.0013
3999.00,0.0013
3998.00,0.0012
3997.00,0.0012
3996.00,0.0012
3995.00,0.0012
3994.00,0.0012
3993.00,0.0012
3992.00,0.0012
3991.00,0.0012
3990.00,0.0012
3989.00,0.0013
3988.00,0.0013
3987.00,0.0013
3986.00,0.0013
3985.00,0.0013
3984.00,0.0013
3983.00,0.0013
3982.00,0.0013
3981.00,0.0013
3980.00,0.0013
3979.00,0.0013
3978.00,0.0013
3977.00,0.0013
3976.00,0.0013
3975.00,0.0013
3974.00,0.0013
3973.00,0.0013
3972.00,0.0013
3971.00,0.0013
3970.00,0.0013
3969.00,0.0013
3968.00,0.0013
3967.00,0.0013
3966.00,0.0013
3965.00,0.0013
3964.00,0.0013
3963.00,0.0013
3962.00,0.0013
3961.00,0.0014
3960.00,0.0014
3959.00,0.0014
3958.00,0.0013
3957.00,0.0013
3956.00,0.0013
3955.00,0.0013
3954.00,0.0013
3953.00,0.0013
3952.00,0.0013
3951.00,0.0013
3950.00,0.0014
3949.00,0.0014
3948.00,0.0014
3947.00,0.0014
3946.00,0.0014
3945.00,0.0014
3944.00,0.0013
3943.00,0.0013
3942.00,0.0013
3941.00,0.0013
3940.00,0.0013
3939.00,0.0013
3938.00,0.0013
3937.00,0.0014
3936.00,0.0014
3935.00,0.0014
3934.00,0.0014
3933.00,0.0014
3932.00,0.0013
3931.00,0.0013
3930.00,0.0013
3929.00,0.0013
3928.00,0.0013
3927.00,0.0013
3926.00,0.0013
3925.00,0.0013
3924.00,0.0014
3923.00,0.0014
3922.00,0.0014
3921.00,0.0014
3920.00,0.0014
3919.00,0.0014
3918.00,0.0014
3917.00,0.0014
3916.00,0.0014
3915.00,0.0013
3914.00,0.0013
3913.00,0.0013
3912.00,0.0012
3911.00,0.0013
3910.00,0.0013
3909.00,0.0013
3908.00,0.0013
3907.00,0.0014
3906.00,0.0014
3905.00,0.0014
3904.00,0.0015
3903.00,0.0015
3902.00,0.0015
3901.00,0.0014
3900.00,0.0013
3899.00,0.0013
3898.00,0.0013
3897.00,0.0013
3896.00,0.0013
3895.00,0.0013
3894.00,0.0013
3893.00,0.0013
3892.00,0.0013
3891.00,0.0013
3890.00,0.0013
3889.00,0.0014
3888.00,0.0013
3887.00,0.0013
3886.00,0.0013
3885.00,0.0013
3884.00,0.0013
3883.00,0.0013
3882.00,0.0012
3881.00,0.0012
3880.00,0.0012
3879.00,0.0012
3878.00,0.0012
3877.00,0.0012
3876.00,0.0012
3875.00,0.0012
3874.00,0.0013
3873.00,0.0013
3872.00,0.0013
3871.00,0.0012
3870.00,0.0012
3869.00,0.0012
3868.00,0.0013
3867.00,0.0013
3866.00,0.0012
3865.00,0.0012
3864.00,0.0012
3863.00,0.0012
3862.00,0.0012
3861.00,0.0012
3860.00,0.0012
3859.00,0.0012
3858.00,0.0013
3857.00,0.0014
3856.00,0.0014
3855.00,0.0015
3854.00,0.0014
3853.00,0.0014
3852.00,0.0014
3851.00,0.0014
3850.00,0.0013
3849.00,0.0012
3848.00,0.0011
3847.00,0.0011
3846.00,0.0011
3845.00,0.0012
3844.00,0.0012
3843.00,0.0012
3842.00,0.0013
3841.00,0.0013
3840.00,0.0013
3839.00,0.0013
3838.00,0.0012
3837.00,0.0012
3836.00,0.0012
3835.00,0.0012
3834.00,0.0012
3833.00,0.0012
3832.00,0.0011
3831.00,0.0011
3830.00,0.0011
3829.00,0.0011
3828.00,0.0011
3827.00,0.0011
3826.00,0.0011
3825.00,0.0012
3824.00,0.0012
3823.00,0.0012
3822.00,0.0011
3821.00,0.0011
3820.00,0.0012
3819.00,0.0012
3818.00,0.0011
3817.00,0.0011
3816.00,0.0011
3815.00,0.0011
3814.00,0.0011
3813.00,0.0011
3812.00,0.0011
3811.00,0.0011
3810.00,0.0011
3809.00,0.0011
3808.00,0.0011
3807.00,0.0011
3806.00,0.0011
3805.00,0.0012
3804.00,0.0011
3803.00,0.0010
3802.00,0.0010
3801.00,0.0010
3800.00,0.0011
3799.00,0.0012
3798.00,0.0011
3797.00,0.0010
3796.00,0.0009
3795.00,0.0010
3794.00,0.0010
3793.00,0.0010
3792.00,0.0010
3791.00,0.0010
3790.00,0.0010
3789.00,0.0010
3788.00,0.0010
3787.00,0.0010
3786.00,0.0010
3785.00,0.0010
3784.00,0.0010
3783.00,0.0011
3782.00,0.0011
3781.00,0.0010
3780.00,0.0010
3779.00,0.0010
3778.00,0.0010
3777.00,0.0010
3776.00,0.0010
3775.00,0.0010
3774.00,0.0010
3773.00,0.0010
3772.00,0.0011
3771.00,0.0011
3770.00,0.0011
3769.00,0.0011
3768.00,0.0011
3767.00,0.0010
3766.00,0.0010
3765.00,0.0010
3764.00,0.0010
3763.00,0.0010
3762.00,0.0010
3761.00,0.0010
3760.00,0.0011
3759.00,0.0011
3758.00,0.0011
3757.00,0.0011
3756.00,0.0011
3755.00,0.0011
3754.00,0.0012
3753.00,0.0012
3752.00,0.0012
3751.00,0.0011
3750.00,0.0012
3749.00,0.0012
3748.00,0.0013
3747.00,0.0013
3746.00,0.0012
3745.00,0.0012
3744.00,0.0011
3743.00,0.0012
3742.00,0.0012
3741.00,0.0011
3740.00,0.0011
3739.00,0.0010
3738.00,0.0011
3737.00,0.0010
3736.00,0.0010
3735.00,0.0009
3734.00,0.0009
3733.00,0.0009
3732.00,0.0009
3731.00,0.0009
3730.00,0.0009
3729.00,0.0009
3728.00,0.0009
3727.00,0.0009
3726.00,0.0010
3725.00,0.0010
3724.00,0.0010
3723.00,0.0009
3722.00,0.0009
3721.00,0.0009
3720.00,0.0009
3719.00,0.0008
3718.00,0.0008
3717.00,0.0009
3716.00,0.0009
3715.00,0.0009
3714.00,0.0010
3713.00,0.0010
3712.00,0.0010
3711.00,0.0010
3710.00,0.0010
3709.00,0.0010
3708.00,0.0009
3707.00,0.0009
3706.00,0.0009
3705.00,0.0009
3704.00,0.0009
3703.00,0.0009
3702.00,0.0009
3701.00,0.0009
3700.00,0.0009
3699.00,0.0009
3698.00,0.0008
3697.00,0.0008
3696.00,0.0008
3695.00,0.0008
3694.00,0.0008
3693.00,0.0009
3692.00,0.0009
3691.00,0.0010
3690.00,0.0010
3689.00,0.0009
3688.00,0.0009
3687.00,0.0009
3686.00,0.0009
3685.00,0.0009
3684.00,0.0009
3683.00,0.0009
3682.00,0.0009
3681.00,0.0010
3680.00,0.0010
3679.00,0.0011
3678.00,0.0011
3677.00,0.0011
3676.00,0.0010
3675.00,0.0010
3674.00,0.0011
3673.00,0.0011
3672.00,0.0010
3671.00,0.0010
3670.00,0.0010
3669.00,0.0010
3668.00,0.0010
3667.00,0.0010
3666.00,0.0010
3665.00,0.0009
3664.00,0.0009
3663.00,0.0009
3662.00,0.0009
3661.00,0.0009
3660.00,0.0009
3659.00,0.0009
3658.00,0.0009
3657.00,0.0009
3656.00,0.0010
3655.00,0.0010
3654.00,0.0011
3653.00,0.0011
3652.00,0.0012
3651.00,0.0012
3650.00,0.0011
3649.00,0.0011
3648.00,0.0011
3647.00,0.0011
3646.00,0.0011
3645.00,0.0011
3644.00,0.0011
3643.00,0.0011
3642.00,0.0011
3641.00,0.0011
3640.00,0.0012
3639.00,0.0012
3638.00,0.0012
3637.00,0.0013
3636.00,0.0013
3635.00,0.0014
3634.00,0.0015
3633.00,0.0016
3632.00,0.0017
3631.00,0.0018
3630.00,0.0018
3629.00,0.0019
3628.00,0.0021
3627.00,0.0023
3626.00,0.0024
3625.00,0.0024
3624.00,0.0025
3623.00,0.0027
3622.00,0.0028
3621.00,0.0029
3620.00,0.0031
3619.00,0.0032
3618.00,0.0033
3617.00,0.0034
3616.00,0.0035
3615.00,0.0036
3614.00,0.0036
3613.00,0.0037
3612.00,0.0038
3611.00,0.0038
3610.00,0.0038
3609.00,0.0038
3608.00,0.0038
3607.00,0.0038
3606.00,0.0038
3605.00,0.0039
3604.00,0.0039
3603.00,0.0039
3602.00,0.0040
3601.00,0.0040
3600.00,0.0041
3599.00,0.0042
3598.00,0.0042
3597.00,0.0043
3596.00,0.0044
3595.00,0.0044
3594.00,0.0045
3593.00,0.0046
3592.00,0.0047
3591.00,0.0048
3590.00,0.0049
3589.00,0.0050
3588.00,0.0051
3587.00,0.0052
3586.00,0.0053
3585.00,0.0054
3584.00,0.0055
3583.00,0.0056
3582.00,0.0057
3581.00,0.0058
3580.00,0.0060
3579.00,0.0061
3578.00,0.0063
3577.00,0.0064
3576.00,0.0066
3575.00,0.0068
3574.00,0.0070
3573.00,0.0072
3572.00,0.0073
3571.00,0.0075
3570.00,0.0077
3569.00,0.0079
3568.00,0.0080
3567.00,0.0082
3566.00,0.0084
3565.00,0.0086
3564.00,0.0087
3563.00,0.0089
3562.00,0.0091
3561.00,0.0093
3560.00,0.0094
3559.00,0.0096
3558.00,0.0098
3557.00,0.0100
3556.00,0.0102
3555.00,0.0104
3554.00,0.0106
3553.00,0.0108
3552.00,0.0110
3551.00,0.0113
3550.00,0.0115
3549.00,0.0117
3548.00,0.0120
3547.00,0.0122
3546.00,0.0124
3545.00,0.0126
3544.00,0.0128
3543.00,0.0130
3542.00,0.0132
3541.00,0.0134
3540.00,0.0136
3539.00,0.0139
3538.00,0.0141
3537.00,0.0143
3536.00,0.0145
3535.00,0.0147
3534.00,0.0149
3533.00,0.0151
3532.00,0.0153
3531.00,0.0155
3530.00,0.0156
3529.00,0.0158
3528.00,0.0160
3527.00,0.0162
3526.00,0.0163
3525.00,0.0165
3524.00,0.0167
3523.00,0.0168
3522.00,0.0169
3521.00,0.0171
3520.00,0.0172
3519.00,0.0173
3518.00,0.0175
3517.00,0.0176
3516.00,0.0178
3515.00,0.0179
3514.00,0.0181
3513.00,0.0182
3512.00,0.0184
3511.00,0.0185
3510.00,0.0186
3509.00,0.0188
3508.00,0.0189
3507.00,0.0191
3506.00,0.0192
3505.00,0.0193
3504.00,0.0195
3503.00,0.0197
3502.00,0.0198
3501.00,0.0200
3500.00,0.0202
3499.00,0.0203
3498.00,0.0205
3497.00,0.0206
3496.00,0.0208
3495.00,0.0209
3494.00,0.0211
3493.00,0.0212
3492.00,0.0214
3491.00,0.0216
3490.00,0.0217
3489.00,0.0219
3488.00,0.0221
3487.00,0.0223
3486.00,0.0225
3485.00,0.0226
3484.00,0.0228
3483.00,0.0230
3482.00,0.0232
3481.00,0.0234
3480.00,0.0236
3479.00,0.0237
3478.00,0.0239
3477.00,0.0241
3476.00,0.0243
3475.00,0.0244
3474.00,0.0246
3473.00,0.0248
3472.00,0.0250
3471.00,0.0252
3470.00,0.0254
3469.00,0.0256
3468.00,0.0258
3467.00,0.0260
3466.00,0.0261
3465.00,0.0263
3464.00,0.0264
3463.00,0.0266
3462.00,0.0268
3461.00,0.0270
3460.00,0.0272
3459.00,0.0274
3458.00,0.0275
3457.00,0.0277
3456.00,0.0278
3455.00,0.0280
3454.00,0.0282
3453.00,0.0284
3452.00,0.0285
3451.00,0.0287
3450.00,0.0289
3449.00,0.0291
3448.00,0.0292
3447.00,0.0294
3446.00,0.0295
3445.00,0.0297
3444.00,0.0299
3443.00,0.0301
3442.00,0.0302
3441.00,0.0304
3440.00,0.0305
3439.00,0.0307
3438.00,0.0308
3437.00,0.0310
3436.00,0.0311
3435.00,0.0313
3434.00,0.0314
3433.00,0.0315
3432.00,0.0317
3431.00,0.0318
3430.00,0.0320
3429.00,0.0321
3428.00,0.0322
3427.00,0.0323
3426.00,0.0324
3425.00,0.0325
3424.00,0.0326
3423.00,0.0327
3422.00,0.0328
3421.00,0.0329
3420.00,0.0330
3419.00,0.0331
3418.00,0.0332
3417.00,0.0332
3416.00,0.0333
3415.00,0.0334
3414.00,0.0335
3413.00,0.0336
3412.00,0.0336
3411.00,0.0337
3410.00,0.0337
3409.00,0.0337
3408.00,0.0338
3407.00,0.0338
3406.00,0.0338
3405.00,0.0338
3404.00,0.0338
3403.00,0.0339
3402.00,0.0339
3401.00,0.0339
3400.00,0.0339
3399.00,0.0339
3398.00,0.0338
3397.00,0.0338
3396.00,0.0338
3395.00,0.0338
3394.00,0.0338
3393.00,0.0337
3392.00,0.0337
3391.00,0.0336
3390.00,0.0335
3389.00,0.0334
3388.00,0.0333
3387.00,0.0333
3386.00,0.0332
3385.00,0.0331
3384.00,0.0331
3383.00,0.0330
3382.00,0.0329
3381.00,0.0328
3380.00,0.0327
3379.00,0.0326
3378.00,0.0325
3377.00,0.0324
3376.00,0.0323
3375.00,0.0322
3374.00,0.0321
3373.00,0.0319
3372.00,0.0318
3371.00,0.0317
3370.00,0.0316
3369.00,0.0315
3368.00,0.0314
3367.00,0.0312
3366.00,0.0311
3365.00,0.0309
3364.00,0.0307
3363.00,0.0306
3362.00,0.0304
3361.00,0.0303
3360.00,0.0302
3359.00,0.0300
3358.00,0.0299
3357.00,0.0298
3356.00,0.0296
3355.00,0.0295
3354.00,0.0294
3353.00,0.0293
3352.00,0.0292
3351.00,0.0290
3350.00,0.0288
3349.00,0.0286
3348.00,0.0285
3347.00,0.0283
3346.00,0.0282
3345.00,0.0280
3344.00,0.0279
3343.00,0.0278
3342.00,0.0276
3341.00,0.0275
3340.00,0.0273
3339.00,0.0272
3338.00,0.0271
3337.00,0.0269
3336.00,0.0268
3335.00,0.0267
3334.00,0.0265
3333.00,0.0264
3332.00,0.0262
3331.00,0.0261
3330.00,0.0260
3329.00,0.0258
3328.00,0.0257
3327.00,0.0255
3326.00,0.0254
3325.00,0.0252
3324.00,0.0251
3323.00,0.0250
3322.00,0.0248
3321.00,0.0247
3320.00,0.0245
3319.00,0.0244
3318.00,0.0242
3317.00,0.0241
3316.00,0.0239
3315.00,0.0238
3314.00,0.0237
3313.00,0.0236
3312.00,0.0235
3311.00,0.0234
3310.00,0.0232
3309.00,0.0231
3308.00,0.0229
3307.00,0.0228
3306.00,0.0226
3305.00,0.0225
3304.00,0.0224
3303.00,0.0223
3302.00,0.0222
3301.00,0.0220
3300.00,0.0219
3299.00,0.0218
3298.00,0.0217
3297.00,0.0215
3296.00,0.0213
3295.00,0.0212
3294.00,0.0210
3293.00,0.0209
3292.00,0.0208
3291.00,0.0207
3290.00,0.0206
3289.00,0.0206
3288.00,0.0205
3287.00,0.0204
3286.00,0.0202
3285.00,0.0201
3284.00,0.0200
3283.00,0.0199
3282.00,0.0197
3281.00,0.0196
3280.00,0.0195
3279.00,0.0194
3278.00,0.0193
3277.00,0.0191
3276.00,0.0190
3275.00,0.0188
3274.00,0.0186
3273.00,0.0184
3272.00,0.0183
3271.00,0.0181
3270.00,0.0181
3269.00,0.0180
3268.00,0.0180
3267.00,0.0180
3266.00,0.0179
3265.00,0.0179
3264.00,0.0178
3263.00,0.0176
3262.00,0.0175
3261.00,0.0174
3260.00,0.0173
3259.00,0.0172
3258.00,0.0170
3257.00,0.0169
3256.00,0.0167
3255.00,0.0167
3254.00,0.0166
3253.00,0.0165
3252.00,0.0164
3251.00,0.0163
3250.00,0.0161
3249.00,0.0159
3248.00,0.0158
3247.00,0.0156
3246.00,0.0156
3245.00,0.0155
3244.00,0.0155
3243.00,0.0154
3242.00,0.0153
3241.00,0.0152
3240.00,0.0150
3239.00,0.0149
3238.00,0.0147
3237.00,0.0145
3236.00,0.0143
3235.00,0.0140
3234.00,0.0139
3233.00,0.0137
3232.00,0.0137
3231.00,0.0136
3230.00,0.0135
3229.00,0.0134
3228.00,0.0133
3227.00,0.0132
3226.00,0.0131
3225.00,0.0130
3224.00,0.0128
3223.00,0.0127
3222.00,0.0126
3221.00,0.0124
3220.00,0.0123
3219.00,0.0122
3218.00,0.0121
3217.00,0.0120
3216.00,0.0119
3215.00,0.0118
3214.00,0.0117
3213.00,0.0116
3212.00,0.0115
3211.00,0.0114
3210.00,0.0113
3209.00,0.0113
3208.00,0.0112
3207.00,0.0112
3206.00,0.0111
3205.00,0.0111
3204.00,0.0110
3203.00,0.0109
3202.00,0.0109
3201.00,0.0108
3200.00,0.0107
3199.00,0.0106
3198.00,0.0105
3197.00,0.0104
3196.00,0.0103
3195.00,0.0102
3194.00,0.0101
3193.00,0.0100
3192.00,0.0099
3191.00,0.0098
3190.00,0.0097
3189.00,0.0096
3188.00,0.0095
3187.00,0.0094
3186.00,0.0093
3185.00,0.0092
3184.00,0.0091
3183.00,0.0090
3182.00,0.0089
3181.00,0.0088
3180.00,0.0087
3179.00,0.0087
3178.00,0.0086
3177.00,0.0086
3176.00,0.0085
3175.00,0.0084
3174.00,0.0084
3173.00,0.0083
3172.00,0.0082
3171.00,0.0081
3170.00,0.0081
3169.00,0.0080
3168.00,0.0080
3167.00,0.0080
3166.00,0.0079
3165.00,0.0079
3164.00,0.0078
3163.00,0.0078
3162.00,0.0078
3161.00,0.0077
3160.00,0.0077
3159.00,0.0077
3158.00,0.0076
3157.00,0.0075
3156.00,0.0074
3155.00,0.0073
3154.00,0.0071
3153.00,0.0071
3152.00,0.0070
3151.00,0.0071
3150.00,0.0071
3149.00,0.0071
3148.00,0.0071
3147.00,0.0071
3146.00,0.0071
3145.00,0.0070
3144.00,0.0070
3143.00,0.0069
3142.00,0.0067
3141.00,0.0066
3140.00,0.0065
3139.00,0.0064
3138.00,0.0065
3137.00,0.0065
3136.00,0.0065
3135.00,0.0066
3134.00,0.0065
3133.00,0.0065
3132.00,0.0064
3131.00,0.0063
3130.00,0.0062
3129.00,0.0062
3128.00,0.0062
3127.00,0.0061
3126.00,0.0061
3125.00,0.0061
3124.00,0.0060
3123.00,0.0059
3122.00,0.0058
3121.00,0.0057
3120.00,0.0056
3119.00,0.0056
3118.00,0.0055
3117.00,0.0055
3116.00,0.0055
3115.00,0.0055
3114.00,0.0055
3113.00,0.0055
3112.00,0.0055
3111.00,0.0054
3110.00,0.0054
3109.00,0.0054
3108.00,0.0054
3107.00,0.0054
3106.00,0.0054
3105.00,0.0054
3104.00,0.0054
3103.00,0.0054
3102.00,0.0053
3101.00,0.0053
3100.00,0.0053
3099.00,0.0053
3098.00,0.0054
3097.00,0.0054
3096.00,0.0055
3095.00,0.0055
3094.00,0.0055
3093.00,0.0056
3092.00,0.0056
3091.00,0.0056
3090.00,0.0057
3089.00,0.0058
3088.00,0.0058
3087.00,0.0059
3086.00,0.0059
3085.00,0.0060
3084.00,0.0061
3083.00,0.0061
3082.00,0.0062
3081.00,0.0063
3080.00,0.0065
3079.00,0.0066
3078.00,0.0067
3077.00,0.0068
3076.00,0.0069
3075.00,0.0071
3074.00,0.0072
3073.00,0.0073
3072.00,0.0075
3071.00,0.0076
3070.00,0.0077
3069.00,0.0079
3068.00,0.0080
3067.00,0.0082
3066.00,0.0084
3065.00,0.0086
3064.00,0.0088
3063.00,0.0090
3062.00,0.0092
3061.00,0.0094
3060.00,0.0097
3059.00,0.0099
3058.00,0.0101
3057.00,0.0103
3056.00,0.0106
3055.00,0.0108
3054.00,0.0110
3053.00,0.0112
3052.00,0.0114
3051.00,0.0116
3050.00,0.0117
3049.00,0.0118
3048.00,0.0118
3047.00,0.0117
3046.00,0.0116
3045.00,0.0114
3044.00,0.0111
3043.00,0.0109
3042.00,0.0107
3041.00,0.0105
3040.00,0.0103
3039.00,0.0102
3038.00,0.0101
3037.00,0.0100
3036.00,0.0100
3035.00,0.0099
3034.00,0.0100
3033.00,0.0100
3032.00,0.0101
3031.00,0.0101
3030.00,0.0102
3029.00,0.0103
3028.00,0.0103
3027.00,0.0104
3026.00,0.0104
3025.00,0.0104
3024.00,0.0104
3023.00,0.0104
3022.00,0.0104
3021.00,0.0103
3020.00,0.0103
3019.00,0.0103
3018.00,0.0102
3017.00,0.0101
3016.00,0.0101
3015.00,0.0100
3014.00,0.0100
3013.00,0.0100
3012.00,0.0101
3011.00,0.0102
3010.00,0.0103
3009.00,0.0104
3008.00,0.0106
3007.00,0.0107
3006.00,0.0109
3005.00,0.0111
3004.00,0.0113
3003.00,0.0116
3002.00,0.0120
3001.00,0.0123
3000.00,0.0127
2999.00,0.0132
2998.00,0.0138
2997.00,0.0145
2996.00,0.0152
2995.00,0.0160
2994.00,0.0169
2993.00,0.0179
2992.00,0.0191
2991.00,0.0203
2990.00,0.0216
2989.00,0.0230
2988.00,0.0246
2987.00,0.0262
2986.00,0.0278
2985.00,0.0296
2984.00,0.0313
2983.00,0.0332
2982.00,0.0351
2981.00,0.0371
2980.00,0.0393
2979.00,0.0415
2978.00,0.0438
2977.00,0.0461
2976.00,0.0485
2975.00,0.0509
2974.00,0.0533
2973.00,0.0558
2972.00,0.0583
2971.00,0.0608
2970.00,0.0634
2969.00,0.0658
2968.00,0.0682
2967.00,0.0703
2966.00,0.0720
2965.00,0.0735
2964.00,0.0745
2963.00,0.0753
2962.00,0.0757
2961.00,0.0758
2960.00,0.0757
2959.00,0.0754
2958.00,0.0749
2957.00,0.0740
2956.00,0.0729
2955.00,0.0715
2954.00,0.0698
2953.00,0.0679
2952.00,0.0659
2951.00,0.0640
2950.00,0.0623
2949.00,0.0611
2948.00,0.0604
2947.00,0.0604
2946.00,0.0610
2945.00,0.0623
2944.00,0.0642
2943.00,0.0667
2942.00,0.0697
2941.00,0.0732
2940.00,0.0771
2939.00,0.0812
2938.00,0.0857
2937.00,0.0903
2936.00,0.0949
2935.00,0.0995
2934.00,0.1039
2933.00,0.1080
2932.00,0.1117
2931.00,0.1147
2930.00,0.1172
2929.00,0.1190
2928.00,0.1202
2927.00,0.1207
2926.00,0.1205
2925.00,0.1198
2924.00,0.1185
2923.00,0.1167
2922.00,0.1146
2921.00,0.1122
2920.00,0.1096
2919.00,0.1071
2918.00,0.1045
2917.00,0.1019
2916.00,0.0994
2915.00,0.0969
2914.00,0.0944
2913.00,0.0918
2912.00,0.0890
2911.00,0.0862
2910.00,0.0832
2909.00,0.0802
2908.00,0.0772
2907.00,0.0742
2906.00,0.0713
2905.00,0.0685
2904.00,0.0659
2903.00,0.0634
2902.00,0.0612
2901.00,0.0591
2900.00,0.0571
2899.00,0.0553
2898.00,0.0536
2897.00,0.0521
2896.00,0.0506
2895.00,0.0493
2894.00,0.0481
2893.00,0.0470
2892.00,0.0460
2891.00,0.0450
2890.00,0.0442
2889.00,0.0435
2888.00,0.0429
2887.00,0.0424
2886.00,0.0420
2885.00,0.0418
2884.00,0.0417
2883.00,0.0418
2882.00,0.0421
2881.00,0.0426
2880.00,0.0434
2879.00,0.0444
2878.00,0.0458
2877.00,0.0473
2876.00,0.0491
2875.00,0.0508
2874.00,0.0524
2873.00,0.0538
2872.00,0.0547
2871.00,0.0551
2870.00,0.0552
2869.00,0.0552
2868.00,0.0552
2867.00,0.0556
2866.00,0.0564
2865.00,0.0579
2864.00,0.0599
2863.00,0.0624
2862.00,0.0651
2861.00,0.0678
2860.00,0.0702
2859.00,0.0722
2858.00,0.0734
2857.00,0.0737
2856.00,0.0731
2855.00,0.0718
2854.00,0.0698
2853.00,0.0672
2852.00,0.0643
2851.00,0.0612
2850.00,0.0578
2849.00,0.0544
2848.00,0.0510
2847.00,0.0476
2846.00,0.0442
2845.00,0.0410
2844.00,0.0379
2843.00,0.0351
2842.00,0.0325
2841.00,0.0301
2840.00,0.0280
2839.00,0.0261
2838.00,0.0245
2837.00,0.0230
2836.00,0.0217
2835.00,0.0206
2834.00,0.0195
2833.00,0.0185
2832.00,0.0177
2831.00,0.0168
2830.00,0.0161
2829.00,0.0154
2828.00,0.0147
2827.00,0.0141
2826.00,0.0135
2825.00,0.0130
2824.00,0.0126
2823.00,0.0122
2822.00,0.0118
2821.00,0.0114
2820.00,0.0110
2819.00,0.0107
2818.00,0.0104
2817.00,0.0102
2816.00,0.0099
2815.00,0.0097
2814.00,0.0095
2813.00,0.0093
2812.00,0.0091
2811.00,0.0090
2810.00,0.0088
2809.00,0.0087
2808.00,0.0085
2807.00,0.0084
2806.00,0.0082
2805.00,0.0081
2804.00,0.0079
2803.00,0.0078
2802.00,0.0076
2801.00,0.0075
2800.00,0.0073
2799.00,0.0072
2798.00,0.0070
2797.00,0.0069
2796.00,0.0068
2795.00,0.0067
2794.00,0.0066
2793.00,0.0065
2792.00,0.0064
2791.00,0.0063
2790.00,0.0063
2789.00,0.0062
2788.00,0.0061
2787.00,0.0061
2786.00,0.0060
2785.00,0.0059
2784.00,0.0059
2783.00,0.0058
2782.00,0.0057
2781.00,0.0056
2780.00,0.0055
2779.00,0.0054
2778.00,0.0053
2777.00,0.0053
2776.00,0.0052
2775.00,0.0052
2774.00,0.0052
2773.00,0.0052
2772.00,0.0052
2771.00,0.0052
2770.00,0.0051
2769.00,0.0051
2768.00,0.0051
2767.00,0.0051
2766.00,0.0051
2765.00,0.0051
2764.00,0.0051
2763.00,0.0051
2762.00,0.0051
2761.00,0.0051
2760.00,0.0052
2759.00,0.0052
2758.00,0.0052
2757.00,0.0052
