Created as New Dataset,Sample 290 By YargerLab Date Saturday, October 18 2025
cm-1,A
4000.00,0.0017
3999.00,0.0017
3998.00,0.0017
3997.00,0.0017
3996.00,0.0017
3995.00,0.0017
3994.00,0.0017
3993.00,0.0017
3992.00,0.0017
3991.00,0.0017
3990.00,0.0017
3989.00,0.0017
3988.00,0.0017
3987.00,0.0017
3986.00,0.0017
3985.00,0.0017
3984.00,0.0017
3983.00,0.0017
3982.00,0.0017
3981.00,0.0017
3980.00,0.0017
3979.00,0.0017
3978.00,0.0017
3977.00,0.0017
3976.00,0.0018
3975.00,0.0018
3974.00,0.0018
3973.00,0.0018
3972.00,0.0018
3971.00,0.0018
3970.00,0.0018
3969.00,0.0018
3968.00,0.0018
3967.00,0.0018
3966.00,0.0018
3965.00,0.0018
3964.00,0.0018
3963.00,0.0018
3962.00,0.0018
3961.00,0.0018
3960.00,0.0018
3959.00,0.0018
3958.00,0.0018
3957.00,0.0018
3956.00,0.0018
3955.00,0.0018
3954.00,0.0018
3953.00,0.0018
3952.00,0.0018
3951.00,0.0018
3950.00,0.0018
3949.00,0.0018
3948.00,0.0018
3947.00,0.0019
3946.00,0.0019
3945.00,0.0019
3944.00,0.0018
3943.00,0.0018
3942.00,0.0018
3941.00,0.0018
3940.00,0.0018
3939.00,0.0018
3938.00,0.0017
3937.00,0.0018
3936.00,0.0018
3935.00,0.0018
3934.00,0.0018
3933.00,0.0018
3932.00,0.0018
3931.00,0.0018
3930.00,0.0017
3929.00,0.0017
3928.00,0.0017
3927.00,0.0017
3926.00,0.0017
3925.00,0.0018
3924.00,0.0018
3923.00,0.0018
3922.00,0.0018
3921.00,0.0018
3920.00,0.0018
3919.00,0.0018
3918.00,0.0017
3917.00,0.0017
3916.00,0.0018
3915.00,0.0018
3914.00,0.0018
3913.00,0.0017
3912.00,0.0017
3911.00,0.0017
3910.00,0.0017
3909.00,0.0017
3908.00,0.0017
3907.00,0.0018
3906.00,0.0018
3905.00,0.0018
3904.00,0.0019
3903.00,0.0019
3902.00,0.0019
3901.00,0.0018
3900.00,0.0018
3899.00,0.0017
3898.00,0.0017
3897.00,0.0016
3896.00,0.0016
3895.00,0.0016
3894.00,0.0016
3893.00,0.0016
3892.00,0.0016
3891.00,0.0017
3890.00,0.0017
3889.00,0.0018
3888.00,0.0018
3887.00,0.0017
3886.00,0.0017
3885.00,0.0017
3884.00,0.0018
3883.00,0.0017
3882.00,0.0017
3881.00,0.0016
3880.00,0.0016
3879.00,0.0017
3878.00,0.0017
3877.00,0.0017
3876.00,0.0017
3875.00,0.0017
3874.00,0.0017
3873.00,0.0018
3872.00,0.0018
3871.00,0.0017
3870.00,0.0017
3869.00,0.0017
3868.00,0.0017
3867.00,0.0017
3866.00,0.0017
3865.00,0.0017
3864.00,0.0017
3863.00,0.0017
3862.00,0.0017
3861.00,0.0017
3860.00,0.0017
3859.00,0.0017
3858.00,0.0017
3857.00,0.0018
3856.00,0.0019
3855.00,0.0019
3854.00,0.0018
3853.00,0.0018
3852.00,0.0019
3851.00,0.0019
3850.00,0.0018
3849.00,0.0017
3848.00,0.0016
3847.00,0.0016
3846.00,0.0016
3845.00,0.0016
3844.00,0.0017
3843.00,0.0017
3842.00,0.0018
3841.00,0.0018
3840.00,0.0017
3839.00,0.0017
3838.00,0.0016
3837.00,0.0016
3836.00,0.0016
3835.00,0.0016
3834.00,0.0016
3833.00,0.0016
3832.00,0.0016
3831.00,0.0016
3830.00,0.0016
3829.00,0.0016
3828.00,0.0015
3827.00,0.0015
3826.00,0.0016
3825.00,0.0016
3824.00,0.0016
3823.00,0.0016
3822.00,0.0015
3821.00,0.0015
3820.00,0.0016
3819.00,0.0016
3818.00,0.0016
3817.00,0.0015
3816.00,0.0015
3815.00,0.0016
3814.00,0.0016
3813.00,0.0016
3812.00,0.0016
3811.00,0.0015
3810.00,0.0016
3809.00,0.0016
3808.00,0.0016
3807.00,0.0016
3806.00,0.0016
3805.00,0.0016
3804.00,0.0016
3803.00,0.0015
3802.00,0.0015
3801.00,0.0016
3800.00,0.0017
3799.00,0.0017
3798.00,0.0016
3797.00,0.0015
3796.00,0.0014
3795.00,0.0014
3794.00,0.0014
3793.00,0.0014
3792.00,0.0014
3791.00,0.0014
3790.00,0.0014
3789.00,0.0015
3788.00,0.0015
3787.00,0.0014
3786.00,0.0014
3785.00,0.0014
3784.00,0.0014
3783.00,0.0014
3782.00,0.0014
3781.00,0.0014
3780.00,0.0014
3779.00,0.0014
3778.00,0.0014
3777.00,0.0014
3776.00,0.0014
3775.00,0.0014
3774.00,0.0014
3773.00,0.0015
3772.00,0.0015
3771.00,0.0015
3770.00,0.0015
3769.00,0.0015
3768.00,0.0015
3767.00,0.0015
3766.00,0.0014
3765.00,0.0014
3764.00,0.0014
3763.00,0.0015
3762.00,0.0015
3761.00,0.0015
3760.00,0.0015
3759.00,0.0015
3758.00,0.0015
3757.00,0.0015
3756.00,0.0015
3755.00,0.0016
3754.00,0.0016
3753.00,0.0017
3752.00,0.0017
3751.00,0.0017
3750.00,0.0017
3749.00,0.0017
3748.00,0.0018
3747.00,0.0017
3746.00,0.0017
3745.00,0.0016
3744.00,0.0016
3743.00,0.0016
3742.00,0.0016
3741.00,0.0015
3740.00,0.0015
3739.00,0.0015
3738.00,0.0015
3737.00,0.0015
3736.00,0.0015
3735.00,0.0014
3734.00,0.0013
3733.00,0.0013
3732.00,0.0012
3731.00,0.0013
3730.00,0.0013
3729.00,0.0013
3728.00,0.0013
3727.00,0.0012
3726.00,0.0012
3725.00,0.0012
3724.00,0.0012
3723.00,0.0012
3722.00,0.0012
3721.00,0.0012
3720.00,0.0012
3719.00,0.0012
3718.00,0.0012
3717.00,0.0012
3716.00,0.0013
3715.00,0.0013
3714.00,0.0014
3713.00,0.0014
3712.00,0.0014
3711.00,0.0014
3710.00,0.0014
3709.00,0.0013
3708.00,0.0013
3707.00,0.0013
3706.00,0.0012
3705.00,0.0013
3704.00,0.0013
3703.00,0.0012
3702.00,0.0012
3701.00,0.0012
3700.00,0.0013
3699.00,0.0013
3698.00,0.0012
3697.00,0.0012
3696.00,0.0012
3695.00,0.0012
3694.00,0.0013
3693.00,0.0013
3692.00,0.0013
3691.00,0.0013
3690.00,0.0013
3689.00,0.0013
3688.00,0.0013
3687.00,0.0014
3686.00,0.0014
3685.00,0.0013
3684.00,0.0013
3683.00,0.0013
3682.00,0.0013
3681.00,0.0013
3680.00,0.0013
3679.00,0.0014
3678.00,0.0015
3677.00,0.0015
3676.00,0.0015
3675.00,0.0015
3674.00,0.0016
3673.00,0.0016
3672.00,0.0015
3671.00,0.0014
3670.00,0.0014
3669.00,0.0014
3668.00,0.0015
3667.00,0.0015
3666.00,0.0014
3665.00,0.0013
3664.00,0.0013
3663.00,0.0013
3662.00,0.0013
3661.00,0.0013
3660.00,0.0014
3659.00,0.0014
3658.00,0.0014
3657.00,0.0014
3656.00,0.0014
3655.00,0.0015
3654.00,0.0015
3653.00,0.0016
3652.00,0.0016
3651.00,0.0016
3650.00,0.0016
3649.00,0.0016
3648.00,0.0016
3647.00,0.0016
3646.00,0.0016
3645.00,0.0016
3644.00,0.0015
3643.00,0.0015
3642.00,0.0015
3641.00,0.0016
3640.00,0.0016
3639.00,0.0016
3638.00,0.0016
3637.00,0.0017
3636.00,0.0017
3635.00,0.0018
3634.00,0.0018
3633.00,0.0020
3632.00,0.0021
3631.00,0.0022
3630.00,0.0023
3629.00,0.0024
3628.00,0.0025
3627.00,0.0027
3626.00,0.0028
3625.00,0.0028
3624.00,0.0029
3623.00,0.0030
3622.00,0.0032
3621.00,0.0033
3620.00,0.0035
3619.00,0.0036
3618.00,0.0038
3617.00,0.0039
3616.00,0.0040
3615.00,0.0040
3614.00,0.0041
3613.00,0.0042
3612.00,0.0042
3611.00,0.0043
3610.00,0.0042
3609.00,0.0042
3608.00,0.0042
3607.00,0.0042
3606.00,0.0043
3605.00,0.0043
3604.00,0.0043
3603.00,0.0044
3602.00,0.0044
3601.00,0.0045
3600.00,0.0045
3599.00,0.0046
3598.00,0.0046
3597.00,0.0047
3596.00,0.0048
3595.00,0.0048
3594.00,0.0049
3593.00,0.0050
3592.00,0.0051
3591.00,0.0053
3590.00,0.0054
3589.00,0.0055
3588.00,0.0056
3587.00,0.0056
3586.00,0.0058
3585.00,0.0059
3584.00,0.0060
3583.00,0.0061
3582.00,0.0062
3581.00,0.0063
3580.00,0.0065
3579.00,0.0066
3578.00,0.0067
3577.00,0.0069
3576.00,0.0071
3575.00,0.0073
3574.00,0.0075
3573.00,0.0077
3572.00,0.0078
3571.00,0.0080
3570.00,0.0082
3569.00,0.0083
3568.00,0.0085
3567.00,0.0087
3566.00,0.0089
3565.00,0.0091
3564.00,0.0092
3563.00,0.0094
3562.00,0.0096
3561.00,0.0098
3560.00,0.0100
3559.00,0.0101
3558.00,0.0103
3557.00,0.0105
3556.00,0.0107
3555.00,0.0109
3554.00,0.0111
3553.00,0.0113
3552.00,0.0116
3551.00,0.0118
3550.00,0.0120
3549.00,0.0123
3548.00,0.0125
3547.00,0.0127
3546.00,0.0130
3545.00,0.0132
3544.00,0.0134
3543.00,0.0136
3542.00,0.0138
3541.00,0.0140
3540.00,0.0142
3539.00,0.0144
3538.00,0.0146
3537.00,0.0148
3536.00,0.0150
3535.00,0.0152
3534.00,0.0154
3533.00,0.0156
3532.00,0.0158
3531.00,0.0160
3530.00,0.0162
3529.00,0.0163
3528.00,0.0165
3527.00,0.0167
3526.00,0.0169
3525.00,0.0171
3524.00,0.0172
3523.00,0.0173
3522.00,0.0175
3521.00,0.0176
3520.00,0.0177
3519.00,0.0179
3518.00,0.0180
3517.00,0.0181
3516.00,0.0183
3515.00,0.0184
3514.00,0.0186
3513.00,0.0188
3512.00,0.0189
3511.00,0.0191
3510.00,0.0192
3509.00,0.0193
3508.00,0.0195
3507.00,0.0196
3506.00,0.0197
3505.00,0.0199
3504.00,0.0201
3503.00,0.0202
3502.00,0.0204
3501.00,0.0206
3500.00,0.0207
3499.00,0.0209
3498.00,0.0210
3497.00,0.0212
3496.00,0.0213
3495.00,0.0215
3494.00,0.0217
3493.00,0.0219
3492.00,0.0220
3491.00,0.0222
3490.00,0.0223
3489.00,0.0225
3488.00,0.0227
3487.00,0.0229
3486.00,0.0231
3485.00,0.0233
3484.00,0.0235
3483.00,0.0236
3482.00,0.0238
3481.00,0.0240
3480.00,0.0242
3479.00,0.0243
3478.00,0.0245
3477.00,0.0247
3476.00,0.0248
3475.00,0.0250
3474.00,0.0252
3473.00,0.0254
3472.00,0.0256
3471.00,0.0257
3470.00,0.0259
3469.00,0.0261
3468.00,0.0263
3467.00,0.0265
3466.00,0.0267
3465.00,0.0269
3464.00,0.0271
3463.00,0.0272
3462.00,0.0274
3461.00,0.0276
3460.00,0.0278
3459.00,0.0279
3458.00,0.0281
3457.00,0.0283
3456.00,0.0284
3455.00,0.0286
3454.00,0.0288
3453.00,0.0289
3452.00,0.0291
3451.00,0.0293
3450.00,0.0295
3449.00,0.0297
3448.00,0.0298
3447.00,0.0300
3446.00,0.0301
3445.00,0.0303
3444.00,0.0304
3443.00,0.0306
3442.00,0.0308
3441.00,0.0309
3440.00,0.0311
3439.00,0.0312
3438.00,0.0314
3437.00,0.0315
3436.00,0.0317
3435.00,0.0319
3434.00,0.0320
3433.00,0.0321
3432.00,0.0323
3431.00,0.0324
3430.00,0.0326
3429.00,0.0327
3428.00,0.0328
3427.00,0.0329
3426.00,0.0330
3425.00,0.0331
3424.00,0.0332
3423.00,0.0333
3422.00,0.0333
3421.00,0.0334
3420.00,0.0335
3419.00,0.0336
3418.00,0.0337
3417.00,0.0338
3416.00,0.0338
3415.00,0.0339
3414.00,0.0340
3413.00,0.0341
3412.00,0.0341
3411.00,0.0342
3410.00,0.0342
3409.00,0.0343
3408.00,0.0343
3407.00,0.0343
3406.00,0.0343
3405.00,0.0344
3404.00,0.0344
3403.00,0.0344
3402.00,0.0344
3401.00,0.0344
3400.00,0.0344
3399.00,0.0343
3398.00,0.0343
3397.00,0.0343
3396.00,0.0343
3395.00,0.0343
3394.00,0.0342
3393.00,0.0342
3392.00,0.0342
3391.00,0.0341
3390.00,0.0340
3389.00,0.0339
3388.00,0.0339
3387.00,0.0338
3386.00,0.0337
3385.00,0.0336
3384.00,0.0335
3383.00,0.0334
3382.00,0.0333
3381.00,0.0333
3380.00,0.0332
3379.00,0.0331
3378.00,0.0330
3377.00,0.0329
3376.00,0.0328
3375.00,0.0327
3374.00,0.0326
3373.00,0.0324
3372.00,0.0323
3371.00,0.0322
3370.00,0.0321
3369.00,0.0320
3368.00,0.0319
3367.00,0.0317
3366.00,0.0316
3365.00,0.0314
3364.00,0.0312
3363.00,0.0311
3362.00,0.0309
3361.00,0.0308
3360.00,0.0307
3359.00,0.0306
3358.00,0.0304
3357.00,0.0303
3356.00,0.0302
3355.00,0.0300
3354.00,0.0299
3353.00,0.0298
3352.00,0.0296
3351.00,0.0295
3350.00,0.0293
3349.00,0.0292
3348.00,0.0290
3347.00,0.0288
3346.00,0.0287
3345.00,0.0285
3344.00,0.0284
3343.00,0.0283
3342.00,0.0282
3341.00,0.0280
3340.00,0.0279
3339.00,0.0277
3338.00,0.0276
3337.00,0.0274
3336.00,0.0273
3335.00,0.0271
3334.00,0.0270
3333.00,0.0268
3332.00,0.0267
3331.00,0.0265
3330.00,0.0264
3329.00,0.0262
3328.00,0.0261
3327.00,0.0259
3326.00,0.0258
3325.00,0.0257
3324.00,0.0256
3323.00,0.0254
3322.00,0.0253
3321.00,0.0252
3320.00,0.0250
3319.00,0.0249
3318.00,0.0247
3317.00,0.0246
3316.00,0.0245
3315.00,0.0244
3314.00,0.0242
3313.00,0.0241
3312.00,0.0240
3311.00,0.0238
3310.00,0.0237
3309.00,0.0235
3308.00,0.0234
3307.00,0.0232
3306.00,0.0231
3305.00,0.0230
3304.00,0.0228
3303.00,0.0227
3302.00,0.0226
3301.00,0.0225
3300.00,0.0224
3299.00,0.0223
3298.00,0.0221
3297.00,0.0219
3296.00,0.0217
3295.00,0.0216
3294.00,0.0215
3293.00,0.0213
3292.00,0.0212
3291.00,0.0212
3290.00,0.0211
3289.00,0.0210
3288.00,0.0209
3287.00,0.0208
3286.00,0.0207
3285.00,0.0206
3284.00,0.0205
3283.00,0.0204
3282.00,0.0202
3281.00,0.0201
3280.00,0.0200
3279.00,0.0199
3278.00,0.0197
3277.00,0.0196
3276.00,0.0194
3275.00,0.0192
3274.00,0.0190
3273.00,0.0189
3272.00,0.0187
3271.00,0.0186
3270.00,0.0185
3269.00,0.0185
3268.00,0.0185
3267.00,0.0185
3266.00,0.0184
3265.00,0.0183
3264.00,0.0182
3263.00,0.0181
3262.00,0.0180
3261.00,0.0179
3260.00,0.0177
3259.00,0.0176
3258.00,0.0174
3257.00,0.0173
3256.00,0.0172
3255.00,0.0171
3254.00,0.0171
3253.00,0.0170
3252.00,0.0169
3251.00,0.0168
3250.00,0.0166
3249.00,0.0164
3248.00,0.0162
3247.00,0.0161
3246.00,0.0160
3245.00,0.0160
3244.00,0.0160
3243.00,0.0159
3242.00,0.0158
3241.00,0.0157
3240.00,0.0155
3239.00,0.0154
3238.00,0.0152
3237.00,0.0150
3236.00,0.0147
3235.00,0.0145
3234.00,0.0143
3233.00,0.0142
3232.00,0.0141
3231.00,0.0140
3230.00,0.0140
3229.00,0.0139
3228.00,0.0138
3227.00,0.0137
3226.00,0.0136
3225.00,0.0134
3224.00,0.0133
3223.00,0.0132
3222.00,0.0130
3221.00,0.0129
3220.00,0.0127
3219.00,0.0126
3218.00,0.0125
3217.00,0.0124
3216.00,0.0124
3215.00,0.0123
3214.00,0.0122
3213.00,0.0121
3212.00,0.0120
3211.00,0.0119
3210.00,0.0118
3209.00,0.0117
3208.00,0.0117
3207.00,0.0116
3206.00,0.0116
3205.00,0.0115
3204.00,0.0114
3203.00,0.0114
3202.00,0.0113
3201.00,0.0112
3200.00,0.0111
3199.00,0.0111
3198.00,0.0110
3197.00,0.0109
3196.00,0.0108
3195.00,0.0107
3194.00,0.0105
3193.00,0.0104
3192.00,0.0103
3191.00,0.0102
3190.00,0.0101
3189.00,0.0100
3188.00,0.0099
3187.00,0.0098
3186.00,0.0098
3185.00,0.0097
3184.00,0.0096
3183.00,0.0095
3182.00,0.0094
3181.00,0.0093
3180.00,0.0092
3179.00,0.0091
3178.00,0.0091
3177.00,0.0090
3176.00,0.0089
3175.00,0.0089
3174.00,0.0088
3173.00,0.0087
3172.00,0.0087
3171.00,0.0086
3170.00,0.0085
3169.00,0.0085
3168.00,0.0085
3167.00,0.0084
3166.00,0.0084
3165.00,0.0083
3164.00,0.0083
3163.00,0.0083
3162.00,0.0082
3161.00,0.0082
3160.00,0.0082
3159.00,0.0081
3158.00,0.0081
3157.00,0.0080
3156.00,0.0079
3155.00,0.0077
3154.00,0.0076
3153.00,0.0075
3152.00,0.0075
3151.00,0.0076
3150.00,0.0076
3149.00,0.0076
3148.00,0.0076
3147.00,0.0076
3146.00,0.0075
3145.00,0.0075
3144.00,0.0074
3143.00,0.0073
3142.00,0.0072
3141.00,0.0071
3140.00,0.0069
3139.00,0.0069
3138.00,0.0069
3137.00,0.0070
3136.00,0.0070
3135.00,0.0070
3134.00,0.0070
3133.00,0.0070
3132.00,0.0069
3131.00,0.0068
3130.00,0.0067
3129.00,0.0067
3128.00,0.0066
3127.00,0.0066
3126.00,0.0065
3125.00,0.0065
3124.00,0.0064
3123.00,0.0063
3122.00,0.0062
3121.00,0.0062
3120.00,0.0061
3119.00,0.0060
3118.00,0.0060
3117.00,0.0060
3116.00,0.0060
3115.00,0.0060
3114.00,0.0060
3113.00,0.0060
3112.00,0.0060
3111.00,0.0059
3110.00,0.0059
3109.00,0.0058
3108.00,0.0058
3107.00,0.0059
3106.00,0.0059
3105.00,0.0059
3104.00,0.0059
3103.00,0.0059
3102.00,0.0058
3101.00,0.0058
3100.00,0.0058
3099.00,0.0059
3098.00,0.0059
3097.00,0.0060
3096.00,0.0060
3095.00,0.0060
3094.00,0.0060
3093.00,0.0060
3092.00,0.0061
3091.00,0.0061
3090.00,0.0062
3089.00,0.0062
3088.00,0.0063
3087.00,0.0063
3086.00,0.0064
3085.00,0.0065
3084.00,0.0065
3083.00,0.0066
3082.00,0.0067
3081.00,0.0068
3080.00,0.0069
3079.00,0.0070
3078.00,0.0072
3077.00,0.0073
3076.00,0.0074
3075.00,0.0076
3074.00,0.0077
3073.00,0.0078
3072.00,0.0080
3071.00,0.0081
3070.00,0.0082
3069.00,0.0083
3068.00,0.0085
3067.00,0.0086
3066.00,0.0088
3065.00,0.0090
3064.00,0.0092
3063.00,0.0095
3062.00,0.0097
3061.00,0.0099
3060.00,0.0101
3059.00,0.0104
3058.00,0.0106
3057.00,0.0108
3056.00,0.0110
3055.00,0.0113
3054.00,0.0115
3053.00,0.0117
3052.00,0.0119
3051.00,0.0121
3050.00,0.0122
3049.00,0.0122
3048.00,0.0122
3047.00,0.0121
3046.00,0.0120
3045.00,0.0118
3044.00,0.0116
3043.00,0.0114
3042.00,0.0111
3041.00,0.0109
3040.00,0.0108
3039.00,0.0107
3038.00,0.0106
3037.00,0.0105
3036.00,0.0105
3035.00,0.0104
3034.00,0.0104
3033.00,0.0104
3032.00,0.0105
3031.00,0.0106
3030.00,0.0107
3029.00,0.0107
3028.00,0.0108
3027.00,0.0109
3026.00,0.0109
3025.00,0.0109
3024.00,0.0109
3023.00,0.0109
3022.00,0.0108
3021.00,0.0108
3020.00,0.0108
3019.00,0.0107
3018.00,0.0107
3017.00,0.0106
3016.00,0.0105
3015.00,0.0105
3014.00,0.0105
3013.00,0.0105
3012.00,0.0105
3011.00,0.0106
3010.00,0.0107
3009.00,0.0108
3008.00,0.0110
3007.00,0.0111
3006.00,0.0113
3005.00,0.0115
3004.00,0.0117
3003.00,0.0120
3002.00,0.0123
3001.00,0.0127
3000.00,0.0131
2999.00,0.0136
2998.00,0.0142
2997.00,0.0148
2996.00,0.0155
2995.00,0.0164
2994.00,0.0173
2993.00,0.0183
2992.00,0.0194
2991.00,0.0206
2990.00,0.0220
2989.00,0.0234
2988.00,0.0249
2987.00,0.0265
2986.00,0.0281
2985.00,0.0298
2984.00,0.0316
2983.00,0.0334
2982.00,0.0353
2981.00,0.0373
2980.00,0.0395
2979.00,0.0417
2978.00,0.0440
2977.00,0.0463
2976.00,0.0487
2975.00,0.0511
2974.00,0.0535
2973.00,0.0559
2972.00,0.0584
2971.00,0.0610
2970.00,0.0635
2969.00,0.0660
2968.00,0.0683
2967.00,0.0704
2966.00,0.0722
2965.00,0.0737
2964.00,0.0747
2963.00,0.0755
2962.00,0.0759
2961.00,0.0760
2960.00,0.0759
2959.00,0.0756
2958.00,0.0750
2957.00,0.0742
2956.00,0.0731
2955.00,0.0717
2954.00,0.0700
2953.00,0.0681
2952.00,0.0662
2951.00,0.0643
2950.00,0.0627
2949.00,0.0614
2948.00,0.0607
2947.00,0.0607
2946.00,0.0613
2945.00,0.0626
2944.00,0.0645
2943.00,0.0670
2942.00,0.0700
2941.00,0.0735
2940.00,0.0774
2939.00,0.0816
2938.00,0.0860
2937.00,0.0905
2936.00,0.0951
2935.00,0.0997
2934.00,0.1041
2933.00,0.1082
2932.00,0.1118
2931.00,0.1149
2930.00,0.1174
2929.00,0.1192
2928.00,0.1203
2927.00,0.1208
2926.00,0.1206
2925.00,0.1199
2924.00,0.1186
2923.00,0.1169
2922.00,0.1148
2921.00,0.1124
2920.00,0.1099
2919.00,0.1073
2918.00,0.1047
2917.00,0.1022
2916.00,0.0997
2915.00,0.0972
2914.00,0.0947
2913.00,0.0921
2912.00,0.0894
2911.00,0.0866
2910.00,0.0836
2909.00,0.0806
2908.00,0.0776
2907.00,0.0746
2906.00,0.0717
2905.00,0.0690
2904.00,0.0664
2903.00,0.0639
2902.00,0.0617
2901.00,0.0596
2900.00,0.0576
2899.00,0.0558
2898.00,0.0542
2897.00,0.0526
2896.00,0.0512
2895.00,0.0499
2894.00,0.0487
2893.00,0.0476
2892.00,0.0466
2891.00,0.0457
2890.00,0.0448
2889.00,0.0441
2888.00,0.0435
2887.00,0.0430
2886.00,0.0426
2885.00,0.0424
2884.00,0.0423
2883.00,0.0424
2882.00,0.0427
2881.00,0.0432
2880.00,0.0440
2879.00,0.0450
2878.00,0.0464
2877.00,0.0479
2876.00,0.0496
2875.00,0.0514
2874.00,0.0530
2873.00,0.0543
2872.00,0.0553
2871.00,0.0557
2870.00,0.0558
2869.00,0.0557
2868.00,0.0558
2867.00,0.0561
2866.00,0.0570
2865.00,0.0585
2864.00,0.0605
2863.00,0.0630
2862.00,0.0657
2861.00,0.0683
2860.00,0.0707
2859.00,0.0727
2858.00,0.0738
2857.00,0.0741
2856.00,0.0736
2855.00,0.0722
2854.00,0.0702
2853.00,0.0676
2852.00,0.0647
2851.00,0.0616
2850.00,0.0583
2849.00,0.0549
2848.00,0.0515
2847.00,0.0481
2846.00,0.0448
2845.00,0.0416
2844.00,0.0386
2843.00,0.0357
2842.00,0.0331
2841.00,0.0307
2840.00,0.0286
2839.00,0.0268
2838.00,0.0251
2837.00,0.0237
2836.00,0.0225
2835.00,0.0213
2834.00,0.0203
2833.00,0.0193
2832.00,0.0184
2831.00,0.0176
2830.00,0.0169
2829.00,0.0162
2828.00,0.0155
2827.00,0.0149
2826.00,0.0143
2825.00,0.0138
2824.00,0.0134
2823.00,0.0130
2822.00,0.0126
2821.00,0.0122
2820.00,0.0118
2819.00,0.0115
2818.00,0.0112
2817.00,0.0109
2816.00,0.0107
2815.00,0.0105
2814.00,0.0102
2813.00,0.0101
2812.00,0.0099
2811.00,0.0097
2810.00,0.0096
2809.00,0.0094
2808.00,0.0093
2807.00,0.0091
2806.00,0.0089
2805.00,0.0088
2804.00,0.0086
2803.00,0.0085
2802.00,0.0083
2801.00,0.0082
2800.00,0.0080
2799.00,0.0079
2798.00,0.0077
2797.00,0.0076
2796.00,0.0075
2795.00,0.0074
2794.00,0.0073
2793.00,0.0072
2792.00,0.0071
2791.00,0.0070
2790.00,0.0070
2789.00,0.0069
2788.00,0.0068
2787.00,0.0068
2786.00,0.0067
2785.00,0.0066
2784.00,0.0066
2783.00,0.0065
2782.00,0.0064
2781.00,0.0063
2780.00,0.0062
2779.00,0.0061
2778.00,0.0060
2777.00,0.0060
2776.00,0.0059
2775.00,0.0059
2774.00,0.0059
2773.00,0.0059
2772.00,0.0058
2771.00,0.0058
2770.00,0.0058
2769.00,0.0058
2768.00,0.0058
2767.00,0.0058
2766.00,0.0058
2765.00,0.0058
2764.00,0.0058
2763.00,0.0058
2762.00,0.0058
2761.00,0.0058
2760.00,0.0058
2759.00,0.0058
2758.00,0.0058
2757.00,0.0058
