Created as New Dataset,Sample 343 By YargerLab Date Tuesday, November 11 2025
cm-1,A
4000.00,0.0025
3999.00,0.0025
3998.00,0.0025
3997.00,0.0025
3996.00,0.0025
3995.00,0.0025
3994.00,0.0024
3993.00,0.0024
3992.00,0.0024
3991.00,0.0024
3990.00,0.0024
3989.00,0.0024
3988.00,0.0024
3987.00,0.0024
3986.00,0.0024
3985.00,0.0025
3984.00,0.0024
3983.00,0.0024
3982.00,0.0024
3981.00,0.0024
3980.00,0.0024
3979.00,0.0025
3978.00,0.0025
3977.00,0.0025
3976.00,0.0025
3975.00,0.0025
3974.00,0.0025
3973.00,0.0025
3972.00,0.0025
3971.00,0.0025
3970.00,0.0025
3969.00,0.0025
3968.00,0.0024
3967.00,0.0024
3966.00,0.0024
3965.00,0.0024
3964.00,0.0024
3963.00,0.0024
3962.00,0.0024
3961.00,0.0024
3960.00,0.0024
3959.00,0.0025
3958.00,0.0025
3957.00,0.0025
3956.00,0.0025
3955.00,0.0025
3954.00,0.0025
3953.00,0.0025
3952.00,0.0025
3951.00,0.0025
3950.00,0.0026
3949.00,0.0026
3948.00,0.0026
3947.00,0.0026
3946.00,0.0026
3945.00,0.0026
3944.00,0.0026
3943.00,0.0026
3942.00,0.0025
3941.00,0.0025
3940.00,0.0026
3939.00,0.0026
3938.00,0.0026
3937.00,0.0026
3936.00,0.0026
3935.00,0.0027
3934.00,0.0027
3933.00,0.0027
3932.00,0.0027
3931.00,0.0026
3930.00,0.0027
3929.00,0.0027
3928.00,0.0027
3927.00,0.0027
3926.00,0.0026
3925.00,0.0026
3924.00,0.0026
3923.00,0.0026
3922.00,0.0027
3921.00,0.0027
3920.00,0.0027
3919.00,0.0028
3918.00,0.0028
3917.00,0.0027
3916.00,0.0027
3915.00,0.0027
3914.00,0.0027
3913.00,0.0026
3912.00,0.0026
3911.00,0.0026
3910.00,0.0026
3909.00,0.0026
3908.00,0.0026
3907.00,0.0026
3906.00,0.0027
3905.00,0.0027
3904.00,0.0028
3903.00,0.0029
3902.00,0.0031
3901.00,0.0031
3900.00,0.0031
3899.00,0.0031
3898.00,0.0030
3897.00,0.0030
3896.00,0.0029
3895.00,0.0029
3894.00,0.0028
3893.00,0.0027
3892.00,0.0027
3891.00,0.0027
3890.00,0.0027
3889.00,0.0028
3888.00,0.0029
3887.00,0.0029
3886.00,0.0029
3885.00,0.0028
3884.00,0.0028
3883.00,0.0029
3882.00,0.0029
3881.00,0.0029
3880.00,0.0029
3879.00,0.0029
3878.00,0.0029
3877.00,0.0030
3876.00,0.0030
3875.00,0.0030
3874.00,0.0029
3873.00,0.0029
3872.00,0.0030
3871.00,0.0030
3870.00,0.0030
3869.00,0.0030
3868.00,0.0030
3867.00,0.0030
3866.00,0.0031
3865.00,0.0031
3864.00,0.0031
3863.00,0.0030
3862.00,0.0030
3861.00,0.0030
3860.00,0.0030
3859.00,0.0029
3858.00,0.0028
3857.00,0.0027
3856.00,0.0027
3855.00,0.0027
3854.00,0.0028
3853.00,0.0029
3852.00,0.0030
3851.00,0.0031
3850.00,0.0031
3849.00,0.0031
3848.00,0.0030
3847.00,0.0030
3846.00,0.0030
3845.00,0.0030
3844.00,0.0030
3843.00,0.0030
3842.00,0.0031
3841.00,0.0031
3840.00,0.0031
3839.00,0.0031
3838.00,0.0031
3837.00,0.0031
3836.00,0.0031
3835.00,0.0031
3834.00,0.0031
3833.00,0.0031
3832.00,0.0030
3831.00,0.0030
3830.00,0.0030
3829.00,0.0030
3828.00,0.0031
3827.00,0.0030
3826.00,0.0030
3825.00,0.0030
3824.00,0.0031
3823.00,0.0031
3822.00,0.0031
3821.00,0.0031
3820.00,0.0031
3819.00,0.0031
3818.00,0.0031
3817.00,0.0032
3816.00,0.0031
3815.00,0.0030
3814.00,0.0029
3813.00,0.0029
3812.00,0.0029
3811.00,0.0029
3810.00,0.0028
3809.00,0.0029
3808.00,0.0029
3807.00,0.0029
3806.00,0.0029
3805.00,0.0029
3804.00,0.0030
3803.00,0.0032
3802.00,0.0032
3801.00,0.0031
3800.00,0.0031
3799.00,0.0031
3798.00,0.0031
3797.00,0.0031
3796.00,0.0030
3795.00,0.0030
3794.00,0.0029
3793.00,0.0029
3792.00,0.0028
3791.00,0.0028
3790.00,0.0028
3789.00,0.0028
3788.00,0.0028
3787.00,0.0028
3786.00,0.0028
3785.00,0.0028
3784.00,0.0028
3783.00,0.0028
3782.00,0.0029
3781.00,0.0029
3780.00,0.0029
3779.00,0.0029
3778.00,0.0029
3777.00,0.0028
3776.00,0.0028
3775.00,0.0027
3774.00,0.0027
3773.00,0.0027
3772.00,0.0027
3771.00,0.0028
3770.00,0.0029
3769.00,0.0029
3768.00,0.0030
3767.00,0.0030
3766.00,0.0030
3765.00,0.0030
3764.00,0.0030
3763.00,0.0030
3762.00,0.0030
3761.00,0.0031
3760.00,0.0031
3759.00,0.0031
3758.00,0.0031
3757.00,0.0031
3756.00,0.0031
3755.00,0.0031
3754.00,0.0032
3753.00,0.0032
3752.00,0.0032
3751.00,0.0033
3750.00,0.0033
3749.00,0.0034
3748.00,0.0034
3747.00,0.0034
3746.00,0.0035
3745.00,0.0035
3744.00,0.0034
3743.00,0.0034
3742.00,0.0034
3741.00,0.0034
3740.00,0.0034
3739.00,0.0034
3738.00,0.0035
3737.00,0.0035
3736.00,0.0035
3735.00,0.0035
3734.00,0.0035
3733.00,0.0034
3732.00,0.0034
3731.00,0.0033
3730.00,0.0032
3729.00,0.0032
3728.00,0.0032
3727.00,0.0031
3726.00,0.0031
3725.00,0.0030
3724.00,0.0030
3723.00,0.0030
3722.00,0.0030
3721.00,0.0030
3720.00,0.0030
3719.00,0.0030
3718.00,0.0029
3717.00,0.0029
3716.00,0.0029
3715.00,0.0029
3714.00,0.0030
3713.00,0.0030
3712.00,0.0030
3711.00,0.0031
3710.00,0.0031
3709.00,0.0032
3708.00,0.0032
3707.00,0.0031
3706.00,0.0030
3705.00,0.0029
3704.00,0.0029
3703.00,0.0028
3702.00,0.0027
3701.00,0.0027
3700.00,0.0027
3699.00,0.0028
3698.00,0.0028
3697.00,0.0029
3696.00,0.0029
3695.00,0.0029
3694.00,0.0030
3693.00,0.0031
3692.00,0.0031
3691.00,0.0032
3690.00,0.0032
3689.00,0.0033
3688.00,0.0033
3687.00,0.0033
3686.00,0.0034
3685.00,0.0034
3684.00,0.0034
3683.00,0.0034
3682.00,0.0035
3681.00,0.0035
3680.00,0.0036
3679.00,0.0036
3678.00,0.0037
3677.00,0.0038
3676.00,0.0038
3675.00,0.0038
3674.00,0.0038
3673.00,0.0039
3672.00,0.0040
3671.00,0.0040
3670.00,0.0039
3669.00,0.0038
3668.00,0.0037
3667.00,0.0037
3666.00,0.0037
3665.00,0.0037
3664.00,0.0037
3663.00,0.0036
3662.00,0.0036
3661.00,0.0036
3660.00,0.0036
3659.00,0.0037
3658.00,0.0037
3657.00,0.0038
3656.00,0.0038
3655.00,0.0039
3654.00,0.0039
3653.00,0.0040
3652.00,0.0041
3651.00,0.0042
3650.00,0.0043
3649.00,0.0044
3648.00,0.0044
3647.00,0.0044
3646.00,0.0044
3645.00,0.0043
3644.00,0.0043
3643.00,0.0042
3642.00,0.0041
3641.00,0.0040
3640.00,0.0040
3639.00,0.0040
3638.00,0.0040
3637.00,0.0041
3636.00,0.0041
3635.00,0.0041
3634.00,0.0041
3633.00,0.0041
3632.00,0.0042
3631.00,0.0042
3630.00,0.0043
3629.00,0.0043
3628.00,0.0044
3627.00,0.0045
3626.00,0.0045
3625.00,0.0045
3624.00,0.0045
3623.00,0.0045
3622.00,0.0046
3621.00,0.0046
3620.00,0.0046
3619.00,0.0046
3618.00,0.0047
3617.00,0.0048
3616.00,0.0049
3615.00,0.0049
3614.00,0.0049
3613.00,0.0049
3612.00,0.0049
3611.00,0.0051
3610.00,0.0051
3609.00,0.0052
3608.00,0.0051
3607.00,0.0051
3606.00,0.0051
3605.00,0.0051
3604.00,0.0051
3603.00,0.0051
3602.00,0.0051
3601.00,0.0051
3600.00,0.0051
3599.00,0.0052
3598.00,0.0053
3597.00,0.0053
3596.00,0.0054
3595.00,0.0054
3594.00,0.0055
3593.00,0.0055
3592.00,0.0056
3591.00,0.0057
3590.00,0.0058
3589.00,0.0058
3588.00,0.0058
3587.00,0.0058
3586.00,0.0059
3585.00,0.0060
3584.00,0.0060
3583.00,0.0060
3582.00,0.0060
3581.00,0.0061
3580.00,0.0061
3579.00,0.0062
3578.00,0.0062
3577.00,0.0063
3576.00,0.0063
3575.00,0.0064
3574.00,0.0064
3573.00,0.0064
3572.00,0.0065
3571.00,0.0066
3570.00,0.0067
3569.00,0.0068
3568.00,0.0070
3567.00,0.0070
3566.00,0.0071
3565.00,0.0072
3564.00,0.0072
3563.00,0.0072
3562.00,0.0072
3561.00,0.0072
3560.00,0.0072
3559.00,0.0073
3558.00,0.0073
3557.00,0.0074
3556.00,0.0074
3555.00,0.0075
3554.00,0.0076
3553.00,0.0077
3552.00,0.0078
3551.00,0.0078
3550.00,0.0079
3549.00,0.0079
3548.00,0.0080
3547.00,0.0080
3546.00,0.0080
3545.00,0.0081
3544.00,0.0081
3543.00,0.0082
3542.00,0.0082
3541.00,0.0082
3540.00,0.0082
3539.00,0.0082
3538.00,0.0082
3537.00,0.0083
3536.00,0.0083
3535.00,0.0084
3534.00,0.0084
3533.00,0.0085
3532.00,0.0086
3531.00,0.0087
3530.00,0.0088
3529.00,0.0088
3528.00,0.0089
3527.00,0.0090
3526.00,0.0090
3525.00,0.0091
3524.00,0.0091
3523.00,0.0091
3522.00,0.0091
3521.00,0.0092
3520.00,0.0093
3519.00,0.0093
3518.00,0.0094
3517.00,0.0095
3516.00,0.0095
3515.00,0.0096
3514.00,0.0097
3513.00,0.0097
3512.00,0.0098
3511.00,0.0099
3510.00,0.0099
3509.00,0.0100
3508.00,0.0101
3507.00,0.0102
3506.00,0.0103
3505.00,0.0104
3504.00,0.0104
3503.00,0.0105
3502.00,0.0106
3501.00,0.0107
3500.00,0.0108
3499.00,0.0109
3498.00,0.0109
3497.00,0.0110
3496.00,0.0110
3495.00,0.0111
3494.00,0.0111
3493.00,0.0112
3492.00,0.0113
3491.00,0.0114
3490.00,0.0115
3489.00,0.0116
3488.00,0.0117
3487.00,0.0118
3486.00,0.0119
3485.00,0.0119
3484.00,0.0120
3483.00,0.0121
3482.00,0.0122
3481.00,0.0123
3480.00,0.0124
3479.00,0.0125
3478.00,0.0126
3477.00,0.0127
3476.00,0.0127
3475.00,0.0128
3474.00,0.0129
3473.00,0.0130
3472.00,0.0131
3471.00,0.0131
3470.00,0.0132
3469.00,0.0133
3468.00,0.0134
3467.00,0.0135
3466.00,0.0135
3465.00,0.0136
3464.00,0.0137
3463.00,0.0138
3462.00,0.0138
3461.00,0.0139
3460.00,0.0140
3459.00,0.0140
3458.00,0.0142
3457.00,0.0143
3456.00,0.0144
3455.00,0.0144
3454.00,0.0145
3453.00,0.0145
3452.00,0.0146
3451.00,0.0147
3450.00,0.0148
3449.00,0.0148
3448.00,0.0149
3447.00,0.0150
3446.00,0.0150
3445.00,0.0151
3444.00,0.0151
3443.00,0.0152
3442.00,0.0152
3441.00,0.0152
3440.00,0.0153
3439.00,0.0154
3438.00,0.0155
3437.00,0.0155
3436.00,0.0156
3435.00,0.0156
3434.00,0.0157
3433.00,0.0157
3432.00,0.0158
3431.00,0.0159
3430.00,0.0159
3429.00,0.0160
3428.00,0.0161
3427.00,0.0161
3426.00,0.0162
3425.00,0.0162
3424.00,0.0163
3423.00,0.0163
3422.00,0.0163
3421.00,0.0164
3420.00,0.0164
3419.00,0.0165
3418.00,0.0166
3417.00,0.0166
3416.00,0.0167
3415.00,0.0167
3414.00,0.0168
3413.00,0.0168
3412.00,0.0169
3411.00,0.0169
3410.00,0.0170
3409.00,0.0171
3408.00,0.0171
3407.00,0.0172
3406.00,0.0173
3405.00,0.0173
3404.00,0.0174
3403.00,0.0174
3402.00,0.0175
3401.00,0.0175
3400.00,0.0176
3399.00,0.0176
3398.00,0.0177
3397.00,0.0177
3396.00,0.0177
3395.00,0.0178
3394.00,0.0178
3393.00,0.0179
3392.00,0.0181
3391.00,0.0182
3390.00,0.0183
3389.00,0.0183
3388.00,0.0184
3387.00,0.0185
3386.00,0.0186
3385.00,0.0187
3384.00,0.0187
3383.00,0.0188
3382.00,0.0188
3381.00,0.0189
3380.00,0.0189
3379.00,0.0190
3378.00,0.0191
3377.00,0.0191
3376.00,0.0192
3375.00,0.0193
3374.00,0.0194
3373.00,0.0194
3372.00,0.0194
3371.00,0.0194
3370.00,0.0194
3369.00,0.0194
3368.00,0.0196
3367.00,0.0197
3366.00,0.0199
3365.00,0.0200
3364.00,0.0201
3363.00,0.0202
3362.00,0.0202
3361.00,0.0203
3360.00,0.0203
3359.00,0.0204
3358.00,0.0205
3357.00,0.0206
3356.00,0.0207
3355.00,0.0207
3354.00,0.0207
3353.00,0.0207
3352.00,0.0207
3351.00,0.0207
3350.00,0.0208
3349.00,0.0209
3348.00,0.0211
3347.00,0.0211
3346.00,0.0212
3345.00,0.0212
3344.00,0.0212
3343.00,0.0212
3342.00,0.0213
3341.00,0.0213
3340.00,0.0213
3339.00,0.0213
3338.00,0.0214
3337.00,0.0215
3336.00,0.0216
3335.00,0.0217
3334.00,0.0218
3333.00,0.0219
3332.00,0.0218
3331.00,0.0218
3330.00,0.0218
3329.00,0.0218
3328.00,0.0219
3327.00,0.0219
3326.00,0.0219
3325.00,0.0220
3324.00,0.0221
3323.00,0.0222
3322.00,0.0223
3321.00,0.0223
3320.00,0.0224
3319.00,0.0224
3318.00,0.0225
3317.00,0.0225
3316.00,0.0225
3315.00,0.0226
3314.00,0.0226
3313.00,0.0226
3312.00,0.0226
3311.00,0.0225
3310.00,0.0225
3309.00,0.0224
3308.00,0.0223
3307.00,0.0223
3306.00,0.0224
3305.00,0.0225
3304.00,0.0227
3303.00,0.0228
3302.00,0.0228
3301.00,0.0229
3300.00,0.0229
3299.00,0.0229
3298.00,0.0229
3297.00,0.0229
3296.00,0.0229
3295.00,0.0229
3294.00,0.0230
3293.00,0.0230
3292.00,0.0230
3291.00,0.0231
3290.00,0.0231
3289.00,0.0232
3288.00,0.0232
3287.00,0.0233
3286.00,0.0233
3285.00,0.0233
3284.00,0.0233
3283.00,0.0233
3282.00,0.0233
3281.00,0.0233
3280.00,0.0233
3279.00,0.0233
3278.00,0.0233
3277.00,0.0232
3276.00,0.0232
3275.00,0.0232
3274.00,0.0232
3273.00,0.0233
3272.00,0.0233
3271.00,0.0234
3270.00,0.0234
3269.00,0.0235
3268.00,0.0234
3267.00,0.0234
3266.00,0.0233
3265.00,0.0233
3264.00,0.0233
3263.00,0.0233
3262.00,0.0234
3261.00,0.0234
3260.00,0.0233
3259.00,0.0233
3258.00,0.0233
3257.00,0.0233
3256.00,0.0233
3255.00,0.0233
3254.00,0.0233
3253.00,0.0233
3252.00,0.0233
3251.00,0.0233
3250.00,0.0233
3249.00,0.0232
3248.00,0.0232
3247.00,0.0232
3246.00,0.0233
3245.00,0.0233
3244.00,0.0233
3243.00,0.0233
3242.00,0.0233
3241.00,0.0233
3240.00,0.0233
3239.00,0.0233
3238.00,0.0233
3237.00,0.0234
3236.00,0.0233
3235.00,0.0233
3234.00,0.0232
3233.00,0.0232
3232.00,0.0232
3231.00,0.0231
3230.00,0.0231
3229.00,0.0231
3228.00,0.0231
3227.00,0.0231
3226.00,0.0230
3225.00,0.0230
3224.00,0.0230
3223.00,0.0229
3222.00,0.0229
3221.00,0.0229
3220.00,0.0229
3219.00,0.0229
3218.00,0.0229
3217.00,0.0229
3216.00,0.0229
3215.00,0.0228
3214.00,0.0228
3213.00,0.0228
3212.00,0.0228
3211.00,0.0227
3210.00,0.0227
3209.00,0.0227
3208.00,0.0226
3207.00,0.0226
3206.00,0.0226
3205.00,0.0226
3204.00,0.0226
3203.00,0.0227
3202.00,0.0227
3201.00,0.0226
3200.00,0.0226
3199.00,0.0226
3198.00,0.0225
3197.00,0.0225
3196.00,0.0225
3195.00,0.0224
3194.00,0.0224
3193.00,0.0224
3192.00,0.0224
3191.00,0.0223
3190.00,0.0223
3189.00,0.0222
3188.00,0.0222
3187.00,0.0222
3186.00,0.0221
3185.00,0.0221
3184.00,0.0220
3183.00,0.0220
3182.00,0.0219
3181.00,0.0219
3180.00,0.0218
3179.00,0.0218
3178.00,0.0217
3177.00,0.0216
3176.00,0.0216
3175.00,0.0215
3174.00,0.0215
3173.00,0.0214
3172.00,0.0214
3171.00,0.0213
3170.00,0.0213
3169.00,0.0212
3168.00,0.0211
3167.00,0.0211
3166.00,0.0210
3165.00,0.0210
3164.00,0.0209
3163.00,0.0208
3162.00,0.0207
3161.00,0.0207
3160.00,0.0206
3159.00,0.0205
3158.00,0.0205
3157.00,0.0204
3156.00,0.0203
3155.00,0.0202
3154.00,0.0201
3153.00,0.0201
3152.00,0.0200
3151.00,0.0199
3150.00,0.0199
3149.00,0.0198
3148.00,0.0197
3147.00,0.0196
3146.00,0.0194
3145.00,0.0193
3144.00,0.0192
3143.00,0.0192
3142.00,0.0192
3141.00,0.0192
3140.00,0.0193
3139.00,0.0192
3138.00,0.0192
3137.00,0.0191
3136.00,0.0190
3135.00,0.0190
3134.00,0.0189
3133.00,0.0189
3132.00,0.0188
3131.00,0.0187
3130.00,0.0187
3129.00,0.0186
3128.00,0.0186
3127.00,0.0185
3126.00,0.0185
3125.00,0.0184
3124.00,0.0184
3123.00,0.0183
3122.00,0.0183
3121.00,0.0182
3120.00,0.0182
3119.00,0.0181
3118.00,0.0181
3117.00,0.0180
3116.00,0.0179
3115.00,0.0179
3114.00,0.0178
3113.00,0.0177
3112.00,0.0176
3111.00,0.0175
3110.00,0.0175
3109.00,0.0174
3108.00,0.0174
3107.00,0.0173
3106.00,0.0172
3105.00,0.0171
3104.00,0.0170
3103.00,0.0169
3102.00,0.0169
3101.00,0.0168
3100.00,0.0167
3099.00,0.0167
3098.00,0.0166
3097.00,0.0165
3096.00,0.0165
3095.00,0.0164
3094.00,0.0164
3093.00,0.0163
3092.00,0.0163
3091.00,0.0162
3090.00,0.0162
3089.00,0.0161
3088.00,0.0161
3087.00,0.0161
3086.00,0.0161
3085.00,0.0161
3084.00,0.0160
3083.00,0.0160
3082.00,0.0160
3081.00,0.0160
3080.00,0.0161
3079.00,0.0161
3078.00,0.0161
3077.00,0.0161
3076.00,0.0160
3075.00,0.0160
3074.00,0.0159
3073.00,0.0159
3072.00,0.0159
3071.00,0.0158
3070.00,0.0158
3069.00,0.0157
3068.00,0.0157
3067.00,0.0156
3066.00,0.0155
3065.00,0.0154
3064.00,0.0152
3063.00,0.0151
3062.00,0.0150
3061.00,0.0149
3060.00,0.0147
3059.00,0.0146
3058.00,0.0145
3057.00,0.0145
3056.00,0.0144
3055.00,0.0143
3054.00,0.0143
3053.00,0.0142
3052.00,0.0142
3051.00,0.0142
3050.00,0.0141
3049.00,0.0141
3048.00,0.0140
3047.00,0.0139
3046.00,0.0139
3045.00,0.0138
3044.00,0.0138
3043.00,0.0138
3042.00,0.0137
3041.00,0.0137
3040.00,0.0137
3039.00,0.0136
3038.00,0.0136
3037.00,0.0136
3036.00,0.0135
3035.00,0.0135
3034.00,0.0135
3033.00,0.0135
3032.00,0.0134
3031.00,0.0134
3030.00,0.0133
3029.00,0.0133
3028.00,0.0133
3027.00,0.0133
3026.00,0.0133
3025.00,0.0133
3024.00,0.0133
3023.00,0.0133
3022.00,0.0133
3021.00,0.0133
3020.00,0.0132
3019.00,0.0132
3018.00,0.0132
3017.00,0.0133
3016.00,0.0135
3015.00,0.0137
3014.00,0.0139
3013.00,0.0141
3012.00,0.0143
3011.00,0.0144
3010.00,0.0146
3009.00,0.0148
3008.00,0.0151
3007.00,0.0153
3006.00,0.0156
3005.00,0.0159
3004.00,0.0162
3003.00,0.0165
3002.00,0.0169
3001.00,0.0173
3000.00,0.0177
2999.00,0.0181
2998.00,0.0186
2997.00,0.0191
2996.00,0.0196
2995.00,0.0201
2994.00,0.0206
2993.00,0.0212
2992.00,0.0219
2991.00,0.0225
2990.00,0.0232
2989.00,0.0238
2988.00,0.0245
2987.00,0.0252
2986.00,0.0260
2985.00,0.0268
2984.00,0.0277
2983.00,0.0286
2982.00,0.0294
2981.00,0.0301
2980.00,0.0307
2979.00,0.0313
2978.00,0.0318
2977.00,0.0323
2976.00,0.0329
2975.00,0.0335
2974.00,0.0341
2973.00,0.0348
2972.00,0.0356
2971.00,0.0362
2970.00,0.0368
2969.00,0.0374
2968.00,0.0380
2967.00,0.0385
2966.00,0.0391
2965.00,0.0397
2964.00,0.0402
2963.00,0.0408
2962.00,0.0412
2961.00,0.0416
2960.00,0.0419
2959.00,0.0422
2958.00,0.0424
2957.00,0.0426
2956.00,0.0426
2955.00,0.0425
2954.00,0.0424
2953.00,0.0422
2952.00,0.0419
2951.00,0.0416
2950.00,0.0413
2949.00,0.0410
2948.00,0.0407
2947.00,0.0405
2946.00,0.0403
2945.00,0.0403
2944.00,0.0403
2943.00,0.0404
2942.00,0.0407
2941.00,0.0410
2940.00,0.0415
2939.00,0.0421
2938.00,0.0428
2937.00,0.0435
2936.00,0.0443
2935.00,0.0451
2934.00,0.0460
2933.00,0.0468
2932.00,0.0477
2931.00,0.0485
2930.00,0.0492
2929.00,0.0498
2928.00,0.0504
2927.00,0.0508
2926.00,0.0511
2925.00,0.0513
2924.00,0.0514
2923.00,0.0514
2922.00,0.0513
2921.00,0.0512
2920.00,0.0508
2919.00,0.0504
2918.00,0.0498
2917.00,0.0492
2916.00,0.0485
2915.00,0.0477
2914.00,0.0469
2913.00,0.0461
2912.00,0.0453
2911.00,0.0445
2910.00,0.0437
2909.00,0.0429
2908.00,0.0421
2907.00,0.0414
2906.00,0.0407
2905.00,0.0400
2904.00,0.0394
2903.00,0.0389
2902.00,0.0385
2901.00,0.0381
2900.00,0.0377
2899.00,0.0375
2898.00,0.0372
2897.00,0.0370
2896.00,0.0368
2895.00,0.0366
2894.00,0.0364
2893.00,0.0363
2892.00,0.0361
2891.00,0.0360
2890.00,0.0358
2889.00,0.0356
2888.00,0.0354
2887.00,0.0353
2886.00,0.0351
2885.00,0.0350
2884.00,0.0349
2883.00,0.0349
2882.00,0.0348
2881.00,0.0347
2880.00,0.0347
2879.00,0.0347
2878.00,0.0347
2877.00,0.0347
2876.00,0.0348
2875.00,0.0349
2874.00,0.0351
2873.00,0.0352
2872.00,0.0353
2871.00,0.0353
2870.00,0.0352
2869.00,0.0351
2868.00,0.0349
2867.00,0.0348
2866.00,0.0347
2865.00,0.0346
2864.00,0.0347
2863.00,0.0349
2862.00,0.0351
2861.00,0.0354
2860.00,0.0356
2859.00,0.0359
2858.00,0.0361
2857.00,0.0362
2856.00,0.0361
2855.00,0.0359
2854.00,0.0354
2853.00,0.0348
2852.00,0.0340
2851.00,0.0331
2850.00,0.0321
2849.00,0.0311
2848.00,0.0300
2847.00,0.0289
2846.00,0.0279
2845.00,0.0269
2844.00,0.0259
2843.00,0.0250
2842.00,0.0241
2841.00,0.0234
2840.00,0.0227
2839.00,0.0222
2838.00,0.0217
2837.00,0.0214
2836.00,0.0211
2835.00,0.0208
2834.00,0.0206
2833.00,0.0204
2832.00,0.0201
2831.00,0.0198
2830.00,0.0196
2829.00,0.0193
2828.00,0.0189
2827.00,0.0185
2826.00,0.0181
2825.00,0.0176
2824.00,0.0172
2823.00,0.0167
2822.00,0.0163
2821.00,0.0158
2820.00,0.0155
2819.00,0.0151
2818.00,0.0148
2817.00,0.0145
2816.00,0.0142
2815.00,0.0140
2814.00,0.0138
2813.00,0.0136
2812.00,0.0134
2811.00,0.0132
2810.00,0.0131
2809.00,0.0129
2808.00,0.0128
2807.00,0.0127
2806.00,0.0126
2805.00,0.0124
2804.00,0.0123
2803.00,0.0122
2802.00,0.0121
2801.00,0.0121
2800.00,0.0120
2799.00,0.0120
2798.00,0.0119
2797.00,0.0118
2796.00,0.0117
2795.00,0.0116
2794.00,0.0115
2793.00,0.0115
2792.00,0.0114
2791.00,0.0114
2790.00,0.0113
2789.00,0.0113
2788.00,0.0112
2787.00,0.0112
2786.00,0.0111
2785.00,0.0111
2784.00,0.0111
2783.00,0.0110
2782.00,0.0110
2781.00,0.0109
2780.00,0.0109
2779.00,0.0109
2778.00,0.0108
2777.00,0.0107
2776.00,0.0107
2775.00,0.0107
2774.00,0.0106
2773.00,0.0106
2772.00,0.0106
2771.00,0.0105
2770.00,0.0105
2769.00,0.0104
2768.00,0.0104
2767.00,0.0104
2766.00,0.0104
2765.00,0.0103
2764.00,0.0103
2763.00,0.0103
2762.00,0.0103
2761.00,0.0103
2760.00,0.0103
2759.00,0.0103
2758.00,0.0103
2757.00,0.0103
