Created as New Dataset,Sample 423 By YargerLab Date Thursday, December 04 2025
cm-1,A
4000.00,0.0057
3999.00,0.0057
3998.00,0.0057
3997.00,0.0057
3996.00,0.0057
3995.00,0.0056
3994.00,0.0056
3993.00,0.0056
3992.00,0.0056
3991.00,0.0056
3990.00,0.0056
3989.00,0.0056
3988.00,0.0057
3987.00,0.0057
3986.00,0.0057
3985.00,0.0057
3984.00,0.0057
3983.00,0.0057
3982.00,0.0056
3981.00,0.0056
3980.00,0.0056
3979.00,0.0056
3978.00,0.0056
3977.00,0.0057
3976.00,0.0057
3975.00,0.0057
3974.00,0.0057
3973.00,0.0057
3972.00,0.0057
3971.00,0.0057
3970.00,0.0057
3969.00,0.0057
3968.00,0.0057
3967.00,0.0057
3966.00,0.0057
3965.00,0.0057
3964.00,0.0056
3963.00,0.0056
3962.00,0.0056
3961.00,0.0056
3960.00,0.0056
3959.00,0.0056
3958.00,0.0056
3957.00,0.0056
3956.00,0.0056
3955.00,0.0056
3954.00,0.0056
3953.00,0.0056
3952.00,0.0056
3951.00,0.0057
3950.00,0.0057
3949.00,0.0056
3948.00,0.0056
3947.00,0.0056
3946.00,0.0056
3945.00,0.0056
3944.00,0.0056
3943.00,0.0056
3942.00,0.0056
3941.00,0.0056
3940.00,0.0056
3939.00,0.0056
3938.00,0.0056
3937.00,0.0057
3936.00,0.0057
3935.00,0.0057
3934.00,0.0057
3933.00,0.0056
3932.00,0.0056
3931.00,0.0056
3930.00,0.0056
3929.00,0.0056
3928.00,0.0056
3927.00,0.0056
3926.00,0.0056
3925.00,0.0056
3924.00,0.0056
3923.00,0.0056
3922.00,0.0056
3921.00,0.0057
3920.00,0.0057
3919.00,0.0057
3918.00,0.0056
3917.00,0.0056
3916.00,0.0056
3915.00,0.0056
3914.00,0.0056
3913.00,0.0056
3912.00,0.0056
3911.00,0.0056
3910.00,0.0057
3909.00,0.0057
3908.00,0.0057
3907.00,0.0057
3906.00,0.0057
3905.00,0.0057
3904.00,0.0057
3903.00,0.0056
3902.00,0.0056
3901.00,0.0056
3900.00,0.0056
3899.00,0.0056
3898.00,0.0056
3897.00,0.0056
3896.00,0.0056
3895.00,0.0056
3894.00,0.0056
3893.00,0.0056
3892.00,0.0056
3891.00,0.0056
3890.00,0.0056
3889.00,0.0057
3888.00,0.0057
3887.00,0.0057
3886.00,0.0057
3885.00,0.0057
3884.00,0.0057
3883.00,0.0057
3882.00,0.0057
3881.00,0.0056
3880.00,0.0056
3879.00,0.0056
3878.00,0.0056
3877.00,0.0056
3876.00,0.0056
3875.00,0.0056
3874.00,0.0056
3873.00,0.0057
3872.00,0.0057
3871.00,0.0057
3870.00,0.0057
3869.00,0.0057
3868.00,0.0057
3867.00,0.0057
3866.00,0.0057
3865.00,0.0057
3864.00,0.0057
3863.00,0.0057
3862.00,0.0056
3861.00,0.0056
3860.00,0.0056
3859.00,0.0056
3858.00,0.0056
3857.00,0.0057
3856.00,0.0057
3855.00,0.0058
3854.00,0.0058
3853.00,0.0058
3852.00,0.0058
3851.00,0.0058
3850.00,0.0058
3849.00,0.0057
3848.00,0.0057
3847.00,0.0057
3846.00,0.0057
3845.00,0.0057
3844.00,0.0057
3843.00,0.0057
3842.00,0.0057
3841.00,0.0057
3840.00,0.0057
3839.00,0.0057
3838.00,0.0057
3837.00,0.0057
3836.00,0.0057
3835.00,0.0057
3834.00,0.0057
3833.00,0.0057
3832.00,0.0057
3831.00,0.0057
3830.00,0.0057
3829.00,0.0057
3828.00,0.0057
3827.00,0.0057
3826.00,0.0057
3825.00,0.0057
3824.00,0.0057
3823.00,0.0057
3822.00,0.0057
3821.00,0.0057
3820.00,0.0057
3819.00,0.0057
3818.00,0.0058
3817.00,0.0058
3816.00,0.0058
3815.00,0.0058
3814.00,0.0058
3813.00,0.0058
3812.00,0.0058
3811.00,0.0057
3810.00,0.0057
3809.00,0.0057
3808.00,0.0057
3807.00,0.0057
3806.00,0.0057
3805.00,0.0057
3804.00,0.0058
3803.00,0.0058
3802.00,0.0058
3801.00,0.0058
3800.00,0.0057
3799.00,0.0057
3798.00,0.0057
3797.00,0.0057
3796.00,0.0057
3795.00,0.0057
3794.00,0.0057
3793.00,0.0057
3792.00,0.0057
3791.00,0.0056
3790.00,0.0056
3789.00,0.0056
3788.00,0.0056
3787.00,0.0056
3786.00,0.0056
3785.00,0.0056
3784.00,0.0056
3783.00,0.0056
3782.00,0.0056
3781.00,0.0057
3780.00,0.0057
3779.00,0.0056
3778.00,0.0056
3777.00,0.0056
3776.00,0.0056
3775.00,0.0057
3774.00,0.0057
3773.00,0.0057
3772.00,0.0057
3771.00,0.0057
3770.00,0.0057
3769.00,0.0057
3768.00,0.0057
3767.00,0.0057
3766.00,0.0057
3765.00,0.0056
3764.00,0.0056
3763.00,0.0056
3762.00,0.0056
3761.00,0.0056
3760.00,0.0056
3759.00,0.0056
3758.00,0.0056
3757.00,0.0057
3756.00,0.0057
3755.00,0.0057
3754.00,0.0058
3753.00,0.0058
3752.00,0.0058
3751.00,0.0058
3750.00,0.0058
3749.00,0.0058
3748.00,0.0059
3747.00,0.0059
3746.00,0.0059
3745.00,0.0058
3744.00,0.0058
3743.00,0.0057
3742.00,0.0057
3741.00,0.0057
3740.00,0.0057
3739.00,0.0056
3738.00,0.0057
3737.00,0.0057
3736.00,0.0057
3735.00,0.0057
3734.00,0.0057
3733.00,0.0057
3732.00,0.0057
3731.00,0.0056
3730.00,0.0056
3729.00,0.0056
3728.00,0.0056
3727.00,0.0055
3726.00,0.0055
3725.00,0.0055
3724.00,0.0055
3723.00,0.0055
3722.00,0.0055
3721.00,0.0055
3720.00,0.0055
3719.00,0.0055
3718.00,0.0056
3717.00,0.0056
3716.00,0.0056
3715.00,0.0056
3714.00,0.0056
3713.00,0.0056
3712.00,0.0056
3711.00,0.0056
3710.00,0.0056
3709.00,0.0056
3708.00,0.0056
3707.00,0.0056
3706.00,0.0056
3705.00,0.0056
3704.00,0.0056
3703.00,0.0055
3702.00,0.0055
3701.00,0.0055
3700.00,0.0055
3699.00,0.0055
3698.00,0.0055
3697.00,0.0056
3696.00,0.0056
3695.00,0.0056
3694.00,0.0056
3693.00,0.0056
3692.00,0.0057
3691.00,0.0057
3690.00,0.0057
3689.00,0.0058
3688.00,0.0058
3687.00,0.0058
3686.00,0.0058
3685.00,0.0058
3684.00,0.0058
3683.00,0.0059
3682.00,0.0059
3681.00,0.0059
3680.00,0.0060
3679.00,0.0061
3678.00,0.0061
3677.00,0.0062
3676.00,0.0062
3675.00,0.0062
3674.00,0.0062
3673.00,0.0062
3672.00,0.0062
3671.00,0.0061
3670.00,0.0061
3669.00,0.0061
3668.00,0.0061
3667.00,0.0061
3666.00,0.0061
3665.00,0.0061
3664.00,0.0061
3663.00,0.0061
3662.00,0.0061
3661.00,0.0062
3660.00,0.0062
3659.00,0.0062
3658.00,0.0062
3657.00,0.0063
3656.00,0.0063
3655.00,0.0063
3654.00,0.0063
3653.00,0.0064
3652.00,0.0064
3651.00,0.0065
3650.00,0.0065
3649.00,0.0065
3648.00,0.0066
3647.00,0.0066
3646.00,0.0066
3645.00,0.0066
3644.00,0.0066
3643.00,0.0066
3642.00,0.0067
3641.00,0.0067
3640.00,0.0067
3639.00,0.0067
3638.00,0.0068
3637.00,0.0068
3636.00,0.0068
3635.00,0.0069
3634.00,0.0069
3633.00,0.0069
3632.00,0.0070
3631.00,0.0070
3630.00,0.0071
3629.00,0.0071
3628.00,0.0072
3627.00,0.0072
3626.00,0.0072
3625.00,0.0073
3624.00,0.0073
3623.00,0.0073
3622.00,0.0073
3621.00,0.0074
3620.00,0.0074
3619.00,0.0075
3618.00,0.0076
3617.00,0.0077
3616.00,0.0077
3615.00,0.0078
3614.00,0.0078
3613.00,0.0078
3612.00,0.0079
3611.00,0.0079
3610.00,0.0080
3609.00,0.0081
3608.00,0.0081
3607.00,0.0082
3606.00,0.0082
3605.00,0.0083
3604.00,0.0083
3603.00,0.0084
3602.00,0.0085
3601.00,0.0086
3600.00,0.0086
3599.00,0.0087
3598.00,0.0088
3597.00,0.0088
3596.00,0.0089
3595.00,0.0089
3594.00,0.0090
3593.00,0.0091
3592.00,0.0091
3591.00,0.0092
3590.00,0.0093
3589.00,0.0093
3588.00,0.0094
3587.00,0.0095
3586.00,0.0096
3585.00,0.0096
3584.00,0.0097
3583.00,0.0098
3582.00,0.0098
3581.00,0.0099
3580.00,0.0100
3579.00,0.0101
3578.00,0.0102
3577.00,0.0102
3576.00,0.0103
3575.00,0.0104
3574.00,0.0105
3573.00,0.0106
3572.00,0.0107
3571.00,0.0107
3570.00,0.0108
3569.00,0.0109
3568.00,0.0110
3567.00,0.0111
3566.00,0.0112
3565.00,0.0113
3564.00,0.0113
3563.00,0.0114
3562.00,0.0115
3561.00,0.0116
3560.00,0.0116
3559.00,0.0117
3558.00,0.0117
3557.00,0.0118
3556.00,0.0119
3555.00,0.0120
3554.00,0.0121
3553.00,0.0122
3552.00,0.0122
3551.00,0.0123
3550.00,0.0124
3549.00,0.0125
3548.00,0.0126
3547.00,0.0127
3546.00,0.0127
3545.00,0.0128
3544.00,0.0128
3543.00,0.0128
3542.00,0.0129
3541.00,0.0129
3540.00,0.0130
3539.00,0.0131
3538.00,0.0131
3537.00,0.0132
3536.00,0.0133
3535.00,0.0133
3534.00,0.0134
3533.00,0.0134
3532.00,0.0135
3531.00,0.0135
3530.00,0.0136
3529.00,0.0137
3528.00,0.0137
3527.00,0.0138
3526.00,0.0138
3525.00,0.0139
3524.00,0.0139
3523.00,0.0140
3522.00,0.0140
3521.00,0.0141
3520.00,0.0141
3519.00,0.0142
3518.00,0.0143
3517.00,0.0143
3516.00,0.0144
3515.00,0.0145
3514.00,0.0145
3513.00,0.0146
3512.00,0.0146
3511.00,0.0147
3510.00,0.0148
3509.00,0.0148
3508.00,0.0149
3507.00,0.0150
3506.00,0.0150
3505.00,0.0151
3504.00,0.0152
3503.00,0.0153
3502.00,0.0153
3501.00,0.0154
3500.00,0.0154
3499.00,0.0155
3498.00,0.0155
3497.00,0.0156
3496.00,0.0157
3495.00,0.0157
3494.00,0.0158
3493.00,0.0159
3492.00,0.0159
3491.00,0.0160
3490.00,0.0160
3489.00,0.0161
3488.00,0.0161
3487.00,0.0161
3486.00,0.0162
3485.00,0.0163
3484.00,0.0164
3483.00,0.0164
3482.00,0.0165
3481.00,0.0166
3480.00,0.0167
3479.00,0.0167
3478.00,0.0168
3477.00,0.0168
3476.00,0.0168
3475.00,0.0169
3474.00,0.0170
3473.00,0.0171
3472.00,0.0171
3471.00,0.0172
3470.00,0.0173
3469.00,0.0174
3468.00,0.0174
3467.00,0.0175
3466.00,0.0175
3465.00,0.0175
3464.00,0.0175
3463.00,0.0176
3462.00,0.0176
3461.00,0.0177
3460.00,0.0178
3459.00,0.0178
3458.00,0.0179
3457.00,0.0179
3456.00,0.0180
3455.00,0.0180
3454.00,0.0181
3453.00,0.0181
3452.00,0.0182
3451.00,0.0182
3450.00,0.0183
3449.00,0.0183
3448.00,0.0183
3447.00,0.0184
3446.00,0.0184
3445.00,0.0184
3444.00,0.0184
3443.00,0.0185
3442.00,0.0185
3441.00,0.0186
3440.00,0.0186
3439.00,0.0187
3438.00,0.0187
3437.00,0.0187
3436.00,0.0188
3435.00,0.0188
3434.00,0.0188
3433.00,0.0188
3432.00,0.0188
3431.00,0.0189
3430.00,0.0189
3429.00,0.0189
3428.00,0.0190
3427.00,0.0190
3426.00,0.0190
3425.00,0.0190
3424.00,0.0190
3423.00,0.0190
3422.00,0.0190
3421.00,0.0191
3420.00,0.0191
3419.00,0.0191
3418.00,0.0192
3417.00,0.0192
3416.00,0.0192
3415.00,0.0192
3414.00,0.0192
3413.00,0.0193
3412.00,0.0193
3411.00,0.0194
3410.00,0.0194
3409.00,0.0194
3408.00,0.0194
3407.00,0.0195
3406.00,0.0195
3405.00,0.0195
3404.00,0.0195
3403.00,0.0195
3402.00,0.0195
3401.00,0.0195
3400.00,0.0196
3399.00,0.0196
3398.00,0.0197
3397.00,0.0197
3396.00,0.0198
3395.00,0.0198
3394.00,0.0197
3393.00,0.0197
3392.00,0.0197
3391.00,0.0198
3390.00,0.0199
3389.00,0.0199
3388.00,0.0200
3387.00,0.0200
3386.00,0.0201
3385.00,0.0201
3384.00,0.0202
3383.00,0.0202
3382.00,0.0202
3381.00,0.0202
3380.00,0.0203
3379.00,0.0203
3378.00,0.0203
3377.00,0.0204
3376.00,0.0204
3375.00,0.0204
3374.00,0.0204
3373.00,0.0204
3372.00,0.0204
3371.00,0.0203
3370.00,0.0203
3369.00,0.0204
3368.00,0.0204
3367.00,0.0205
3366.00,0.0206
3365.00,0.0207
3364.00,0.0207
3363.00,0.0208
3362.00,0.0208
3361.00,0.0208
3360.00,0.0209
3359.00,0.0209
3358.00,0.0210
3357.00,0.0210
3356.00,0.0211
3355.00,0.0211
3354.00,0.0211
3353.00,0.0210
3352.00,0.0210
3351.00,0.0210
3350.00,0.0210
3349.00,0.0211
3348.00,0.0212
3347.00,0.0213
3346.00,0.0213
3345.00,0.0213
3344.00,0.0212
3343.00,0.0212
3342.00,0.0212
3341.00,0.0212
3340.00,0.0211
3339.00,0.0211
3338.00,0.0212
3337.00,0.0213
3336.00,0.0214
3335.00,0.0214
3334.00,0.0215
3333.00,0.0215
3332.00,0.0215
3331.00,0.0215
3330.00,0.0215
3329.00,0.0214
3328.00,0.0214
3327.00,0.0213
3326.00,0.0213
3325.00,0.0214
3324.00,0.0214
3323.00,0.0215
3322.00,0.0215
3321.00,0.0216
3320.00,0.0216
3319.00,0.0216
3318.00,0.0216
3317.00,0.0217
3316.00,0.0217
3315.00,0.0217
3314.00,0.0216
3313.00,0.0216
3312.00,0.0215
3311.00,0.0214
3310.00,0.0213
3309.00,0.0212
3308.00,0.0212
3307.00,0.0211
3306.00,0.0212
3305.00,0.0213
3304.00,0.0214
3303.00,0.0216
3302.00,0.0216
3301.00,0.0217
3300.00,0.0217
3299.00,0.0216
3298.00,0.0216
3297.00,0.0215
3296.00,0.0215
3295.00,0.0214
3294.00,0.0214
3293.00,0.0214
3292.00,0.0215
3291.00,0.0215
3290.00,0.0216
3289.00,0.0216
3288.00,0.0217
3287.00,0.0217
3286.00,0.0217
3285.00,0.0216
3284.00,0.0216
3283.00,0.0216
3282.00,0.0215
3281.00,0.0215
3280.00,0.0215
3279.00,0.0215
3278.00,0.0215
3277.00,0.0215
3276.00,0.0214
3275.00,0.0214
3274.00,0.0213
3273.00,0.0213
3272.00,0.0212
3271.00,0.0212
3270.00,0.0212
3269.00,0.0213
3268.00,0.0213
3267.00,0.0213
3266.00,0.0213
3265.00,0.0213
3264.00,0.0213
3263.00,0.0213
3262.00,0.0212
3261.00,0.0212
3260.00,0.0212
3259.00,0.0212
3258.00,0.0211
3257.00,0.0211
3256.00,0.0211
3255.00,0.0211
3254.00,0.0211
3253.00,0.0211
3252.00,0.0211
3251.00,0.0210
3250.00,0.0210
3249.00,0.0209
3248.00,0.0209
3247.00,0.0209
3246.00,0.0209
3245.00,0.0209
3244.00,0.0209
3243.00,0.0209
3242.00,0.0209
3241.00,0.0208
3240.00,0.0208
3239.00,0.0208
3238.00,0.0208
3237.00,0.0208
3236.00,0.0207
3235.00,0.0207
3234.00,0.0206
3233.00,0.0206
3232.00,0.0206
3231.00,0.0206
3230.00,0.0206
3229.00,0.0205
3228.00,0.0205
3227.00,0.0205
3226.00,0.0205
3225.00,0.0204
3224.00,0.0204
3223.00,0.0203
3222.00,0.0203
3221.00,0.0203
3220.00,0.0203
3219.00,0.0202
3218.00,0.0202
3217.00,0.0201
3216.00,0.0200
3215.00,0.0200
3214.00,0.0199
3213.00,0.0199
3212.00,0.0199
3211.00,0.0199
3210.00,0.0198
3209.00,0.0198
3208.00,0.0198
3207.00,0.0198
3206.00,0.0198
3205.00,0.0197
3204.00,0.0197
3203.00,0.0196
3202.00,0.0196
3201.00,0.0196
3200.00,0.0196
3199.00,0.0196
3198.00,0.0196
3197.00,0.0195
3196.00,0.0195
3195.00,0.0195
3194.00,0.0194
3193.00,0.0194
3192.00,0.0193
3191.00,0.0193
3190.00,0.0192
3189.00,0.0192
3188.00,0.0191
3187.00,0.0191
3186.00,0.0191
3185.00,0.0190
3184.00,0.0190
3183.00,0.0189
3182.00,0.0189
3181.00,0.0188
3180.00,0.0187
3179.00,0.0187
3178.00,0.0186
3177.00,0.0186
3176.00,0.0185
3175.00,0.0185
3174.00,0.0184
3173.00,0.0184
3172.00,0.0183
3171.00,0.0183
3170.00,0.0182
3169.00,0.0182
3168.00,0.0181
3167.00,0.0181
3166.00,0.0180
3165.00,0.0179
3164.00,0.0179
3163.00,0.0178
3162.00,0.0178
3161.00,0.0177
3160.00,0.0177
3159.00,0.0176
3158.00,0.0176
3157.00,0.0176
3156.00,0.0175
3155.00,0.0175
3154.00,0.0174
3153.00,0.0173
3152.00,0.0173
3151.00,0.0172
3150.00,0.0171
3149.00,0.0171
3148.00,0.0171
3147.00,0.0170
3146.00,0.0170
3145.00,0.0169
3144.00,0.0168
3143.00,0.0168
3142.00,0.0167
3141.00,0.0166
3140.00,0.0166
3139.00,0.0166
3138.00,0.0165
3137.00,0.0165
3136.00,0.0165
3135.00,0.0164
3134.00,0.0164
3133.00,0.0163
3132.00,0.0163
3131.00,0.0163
3130.00,0.0162
3129.00,0.0162
3128.00,0.0161
3127.00,0.0161
3126.00,0.0160
3125.00,0.0160
3124.00,0.0159
3123.00,0.0159
3122.00,0.0159
3121.00,0.0159
3120.00,0.0159
3119.00,0.0158
3118.00,0.0158
3117.00,0.0157
3116.00,0.0157
3115.00,0.0156
3114.00,0.0155
3113.00,0.0155
3112.00,0.0154
3111.00,0.0154
3110.00,0.0153
3109.00,0.0153
3108.00,0.0152
3107.00,0.0151
3106.00,0.0151
3105.00,0.0150
3104.00,0.0150
3103.00,0.0149
3102.00,0.0149
3101.00,0.0149
3100.00,0.0148
3099.00,0.0147
3098.00,0.0147
3097.00,0.0146
3096.00,0.0146
3095.00,0.0145
3094.00,0.0145
3093.00,0.0144
3092.00,0.0144
3091.00,0.0144
3090.00,0.0144
3089.00,0.0143
3088.00,0.0143
3087.00,0.0142
3086.00,0.0142
3085.00,0.0142
3084.00,0.0141
3083.00,0.0141
3082.00,0.0141
3081.00,0.0141
3080.00,0.0141
3079.00,0.0141
3078.00,0.0140
3077.00,0.0140
3076.00,0.0141
3075.00,0.0141
3074.00,0.0141
3073.00,0.0140
3072.00,0.0140
3071.00,0.0140
3070.00,0.0139
3069.00,0.0139
3068.00,0.0138
3067.00,0.0138
3066.00,0.0137
3065.00,0.0136
3064.00,0.0136
3063.00,0.0135
3062.00,0.0134
3061.00,0.0133
3060.00,0.0132
3059.00,0.0131
3058.00,0.0131
3057.00,0.0130
3056.00,0.0130
3055.00,0.0129
3054.00,0.0129
3053.00,0.0128
3052.00,0.0128
3051.00,0.0127
3050.00,0.0127
3049.00,0.0127
3048.00,0.0126
3047.00,0.0126
3046.00,0.0126
3045.00,0.0126
3044.00,0.0125
3043.00,0.0125
3042.00,0.0124
3041.00,0.0124
3040.00,0.0124
3039.00,0.0124
3038.00,0.0124
3037.00,0.0123
3036.00,0.0123
3035.00,0.0123
3034.00,0.0123
3033.00,0.0123
3032.00,0.0123
3031.00,0.0123
3030.00,0.0123
3029.00,0.0123
3028.00,0.0123
3027.00,0.0123
3026.00,0.0123
3025.00,0.0123
3024.00,0.0123
3023.00,0.0124
3022.00,0.0124
3021.00,0.0124
3020.00,0.0125
3019.00,0.0125
3018.00,0.0126
3017.00,0.0127
3016.00,0.0128
3015.00,0.0129
3014.00,0.0130
3013.00,0.0131
3012.00,0.0133
3011.00,0.0134
3010.00,0.0135
3009.00,0.0137
3008.00,0.0139
3007.00,0.0141
3006.00,0.0143
3005.00,0.0146
3004.00,0.0148
3003.00,0.0151
3002.00,0.0154
3001.00,0.0157
3000.00,0.0161
2999.00,0.0164
2998.00,0.0168
2997.00,0.0172
2996.00,0.0176
2995.00,0.0181
2994.00,0.0185
2993.00,0.0190
2992.00,0.0195
2991.00,0.0200
2990.00,0.0205
2989.00,0.0209
2988.00,0.0214
2987.00,0.0219
2986.00,0.0224
2985.00,0.0229
2984.00,0.0234
2983.00,0.0238
2982.00,0.0243
2981.00,0.0247
2980.00,0.0251
2979.00,0.0254
2978.00,0.0258
2977.00,0.0262
2976.00,0.0265
2975.00,0.0269
2974.00,0.0272
2973.00,0.0276
2972.00,0.0280
2971.00,0.0284
2970.00,0.0289
2969.00,0.0293
2968.00,0.0298
2967.00,0.0303
2966.00,0.0309
2965.00,0.0314
2964.00,0.0319
2963.00,0.0325
2962.00,0.0330
2961.00,0.0335
2960.00,0.0340
2959.00,0.0345
2958.00,0.0349
2957.00,0.0352
2956.00,0.0355
2955.00,0.0357
2954.00,0.0359
2953.00,0.0360
2952.00,0.0361
2951.00,0.0361
2950.00,0.0360
2949.00,0.0359
2948.00,0.0358
2947.00,0.0357
2946.00,0.0356
2945.00,0.0355
2944.00,0.0354
2943.00,0.0353
2942.00,0.0353
2941.00,0.0353
2940.00,0.0354
2939.00,0.0355
2938.00,0.0357
2937.00,0.0360
2936.00,0.0363
2935.00,0.0366
2934.00,0.0369
2933.00,0.0373
2932.00,0.0377
2931.00,0.0381
2930.00,0.0385
2929.00,0.0388
2928.00,0.0392
2927.00,0.0395
2926.00,0.0398
2925.00,0.0401
2924.00,0.0403
2923.00,0.0404
2922.00,0.0405
2921.00,0.0405
2920.00,0.0404
2919.00,0.0403
2918.00,0.0400
2917.00,0.0397
2916.00,0.0394
2915.00,0.0390
2914.00,0.0385
2913.00,0.0381
2912.00,0.0376
2911.00,0.0370
2910.00,0.0365
2909.00,0.0360
2908.00,0.0354
2907.00,0.0349
2906.00,0.0344
2905.00,0.0340
2904.00,0.0336
2903.00,0.0333
2902.00,0.0330
2901.00,0.0328
2900.00,0.0327
2899.00,0.0325
2898.00,0.0324
2897.00,0.0324
2896.00,0.0323
2895.00,0.0322
2894.00,0.0321
2893.00,0.0321
2892.00,0.0320
2891.00,0.0319
2890.00,0.0318
2889.00,0.0317
2888.00,0.0317
2887.00,0.0316
2886.00,0.0315
2885.00,0.0314
2884.00,0.0314
2883.00,0.0314
2882.00,0.0313
2881.00,0.0313
2880.00,0.0313
2879.00,0.0312
2878.00,0.0312
2877.00,0.0312
2876.00,0.0311
2875.00,0.0311
2874.00,0.0310
2873.00,0.0310
2872.00,0.0310
2871.00,0.0309
2870.00,0.0308
2869.00,0.0307
2868.00,0.0305
2867.00,0.0303
2866.00,0.0302
2865.00,0.0301
2864.00,0.0300
2863.00,0.0299
2862.00,0.0299
2861.00,0.0299
2860.00,0.0299
2859.00,0.0299
2858.00,0.0298
2857.00,0.0297
2856.00,0.0296
2855.00,0.0293
2854.00,0.0290
2853.00,0.0285
2852.00,0.0280
2851.00,0.0275
2850.00,0.0268
2849.00,0.0261
2848.00,0.0254
2847.00,0.0248
2846.00,0.0241
2845.00,0.0235
2844.00,0.0229
2843.00,0.0223
2842.00,0.0217
2841.00,0.0212
2840.00,0.0208
2839.00,0.0204
2838.00,0.0202
2837.00,0.0199
2836.00,0.0198
2835.00,0.0196
2834.00,0.0195
2833.00,0.0193
2832.00,0.0192
2831.00,0.0190
2830.00,0.0188
2829.00,0.0186
2828.00,0.0183
2827.00,0.0181
2826.00,0.0178
2825.00,0.0174
2824.00,0.0171
2823.00,0.0168
2822.00,0.0164
2821.00,0.0161
2820.00,0.0158
2819.00,0.0155
2818.00,0.0152
2817.00,0.0150
2816.00,0.0147
2815.00,0.0145
2814.00,0.0143
2813.00,0.0141
2812.00,0.0139
2811.00,0.0137
2810.00,0.0135
2809.00,0.0134
2808.00,0.0132
2807.00,0.0131
2806.00,0.0130
2805.00,0.0128
2804.00,0.0127
2803.00,0.0126
2802.00,0.0125
2801.00,0.0124
2800.00,0.0123
2799.00,0.0122
2798.00,0.0121
2797.00,0.0120
2796.00,0.0120
2795.00,0.0119
2794.00,0.0118
2793.00,0.0118
2792.00,0.0117
2791.00,0.0117
2790.00,0.0116
2789.00,0.0115
2788.00,0.0115
2787.00,0.0114
2786.00,0.0114
2785.00,0.0113
2784.00,0.0113
2783.00,0.0113
2782.00,0.0112
2781.00,0.0112
2780.00,0.0112
2779.00,0.0111
2778.00,0.0110
2777.00,0.0110
2776.00,0.0109
2775.00,0.0109
2774.00,0.0109
2773.00,0.0108
2772.00,0.0108
2771.00,0.0107
2770.00,0.0107
2769.00,0.0106
2768.00,0.0106
2767.00,0.0106
2766.00,0.0105
2765.00,0.0105
2764.00,0.0105
2763.00,0.0105
2762.00,0.0105
2761.00,0.0105
2760.00,0.0104
2759.00,0.0104
2758.00,0.0104
2757.00,0.0104
