Created as New Dataset,Sample 347 By YargerLab Date Tuesday, November 11 2025
cm-1,A
4000.00,0.0060
3999.00,0.0060
3998.00,0.0060
3997.00,0.0061
3996.00,0.0061
3995.00,0.0060
3994.00,0.0060
3993.00,0.0059
3992.00,0.0058
3991.00,0.0057
3990.00,0.0057
3989.00,0.0057
3988.00,0.0057
3987.00,0.0057
3986.00,0.0057
3985.00,0.0057
3984.00,0.0058
3983.00,0.0058
3982.00,0.0059
3981.00,0.0060
3980.00,0.0060
3979.00,0.0060
3978.00,0.0060
3977.00,0.0060
3976.00,0.0060
3975.00,0.0059
3974.00,0.0059
3973.00,0.0059
3972.00,0.0058
3971.00,0.0058
3970.00,0.0058
3969.00,0.0058
3968.00,0.0057
3967.00,0.0057
3966.00,0.0057
3965.00,0.0057
3964.00,0.0057
3963.00,0.0058
3962.00,0.0058
3961.00,0.0059
3960.00,0.0059
3959.00,0.0058
3958.00,0.0058
3957.00,0.0058
3956.00,0.0058
3955.00,0.0058
3954.00,0.0058
3953.00,0.0058
3952.00,0.0058
3951.00,0.0058
3950.00,0.0058
3949.00,0.0058
3948.00,0.0058
3947.00,0.0058
3946.00,0.0058
3945.00,0.0058
3944.00,0.0058
3943.00,0.0058
3942.00,0.0058
3941.00,0.0058
3940.00,0.0058
3939.00,0.0058
3938.00,0.0058
3937.00,0.0058
3936.00,0.0059
3935.00,0.0059
3934.00,0.0059
3933.00,0.0059
3932.00,0.0058
3931.00,0.0058
3930.00,0.0058
3929.00,0.0058
3928.00,0.0058
3927.00,0.0058
3926.00,0.0058
3925.00,0.0058
3924.00,0.0058
3923.00,0.0058
3922.00,0.0058
3921.00,0.0058
3920.00,0.0058
3919.00,0.0058
3918.00,0.0058
3917.00,0.0058
3916.00,0.0059
3915.00,0.0059
3914.00,0.0059
3913.00,0.0058
3912.00,0.0058
3911.00,0.0057
3910.00,0.0057
3909.00,0.0058
3908.00,0.0058
3907.00,0.0059
3906.00,0.0059
3905.00,0.0059
3904.00,0.0059
3903.00,0.0059
3902.00,0.0059
3901.00,0.0059
3900.00,0.0059
3899.00,0.0059
3898.00,0.0059
3897.00,0.0059
3896.00,0.0059
3895.00,0.0059
3894.00,0.0059
3893.00,0.0058
3892.00,0.0058
3891.00,0.0057
3890.00,0.0057
3889.00,0.0057
3888.00,0.0057
3887.00,0.0057
3886.00,0.0057
3885.00,0.0057
3884.00,0.0058
3883.00,0.0059
3882.00,0.0060
3881.00,0.0060
3880.00,0.0060
3879.00,0.0060
3878.00,0.0060
3877.00,0.0059
3876.00,0.0059
3875.00,0.0058
3874.00,0.0058
3873.00,0.0058
3872.00,0.0058
3871.00,0.0058
3870.00,0.0058
3869.00,0.0058
3868.00,0.0058
3867.00,0.0059
3866.00,0.0059
3865.00,0.0059
3864.00,0.0059
3863.00,0.0059
3862.00,0.0059
3861.00,0.0059
3860.00,0.0059
3859.00,0.0059
3858.00,0.0059
3857.00,0.0059
3856.00,0.0059
3855.00,0.0059
3854.00,0.0058
3853.00,0.0057
3852.00,0.0057
3851.00,0.0057
3850.00,0.0057
3849.00,0.0057
3848.00,0.0057
3847.00,0.0057
3846.00,0.0058
3845.00,0.0058
3844.00,0.0058
3843.00,0.0059
3842.00,0.0059
3841.00,0.0059
3840.00,0.0059
3839.00,0.0059
3838.00,0.0059
3837.00,0.0059
3836.00,0.0059
3835.00,0.0059
3834.00,0.0059
3833.00,0.0058
3832.00,0.0059
3831.00,0.0059
3830.00,0.0059
3829.00,0.0059
3828.00,0.0059
3827.00,0.0059
3826.00,0.0059
3825.00,0.0059
3824.00,0.0059
3823.00,0.0058
3822.00,0.0058
3821.00,0.0057
3820.00,0.0057
3819.00,0.0058
3818.00,0.0058
3817.00,0.0058
3816.00,0.0058
3815.00,0.0058
3814.00,0.0058
3813.00,0.0058
3812.00,0.0058
3811.00,0.0057
3810.00,0.0057
3809.00,0.0058
3808.00,0.0058
3807.00,0.0059
3806.00,0.0060
3805.00,0.0061
3804.00,0.0060
3803.00,0.0059
3802.00,0.0058
3801.00,0.0058
3800.00,0.0058
3799.00,0.0058
3798.00,0.0058
3797.00,0.0058
3796.00,0.0057
3795.00,0.0058
3794.00,0.0058
3793.00,0.0058
3792.00,0.0058
3791.00,0.0058
3790.00,0.0058
3789.00,0.0059
3788.00,0.0059
3787.00,0.0058
3786.00,0.0058
3785.00,0.0057
3784.00,0.0057
3783.00,0.0057
3782.00,0.0057
3781.00,0.0057
3780.00,0.0057
3779.00,0.0057
3778.00,0.0057
3777.00,0.0057
3776.00,0.0058
3775.00,0.0058
3774.00,0.0058
3773.00,0.0058
3772.00,0.0059
3771.00,0.0058
3770.00,0.0058
3769.00,0.0058
3768.00,0.0057
3767.00,0.0057
3766.00,0.0057
3765.00,0.0057
3764.00,0.0057
3763.00,0.0057
3762.00,0.0057
3761.00,0.0057
3760.00,0.0057
3759.00,0.0058
3758.00,0.0058
3757.00,0.0058
3756.00,0.0058
3755.00,0.0058
3754.00,0.0058
3753.00,0.0058
3752.00,0.0058
3751.00,0.0058
3750.00,0.0058
3749.00,0.0057
3748.00,0.0057
3747.00,0.0057
3746.00,0.0057
3745.00,0.0057
3744.00,0.0058
3743.00,0.0058
3742.00,0.0058
3741.00,0.0058
3740.00,0.0057
3739.00,0.0056
3738.00,0.0056
3737.00,0.0057
3736.00,0.0057
3735.00,0.0058
3734.00,0.0058
3733.00,0.0058
3732.00,0.0058
3731.00,0.0058
3730.00,0.0057
3729.00,0.0057
3728.00,0.0057
3727.00,0.0057
3726.00,0.0057
3725.00,0.0057
3724.00,0.0057
3723.00,0.0057
3722.00,0.0057
3721.00,0.0056
3720.00,0.0056
3719.00,0.0056
3718.00,0.0056
3717.00,0.0057
3716.00,0.0057
3715.00,0.0058
3714.00,0.0058
3713.00,0.0058
3712.00,0.0057
3711.00,0.0057
3710.00,0.0057
3709.00,0.0056
3708.00,0.0056
3707.00,0.0056
3706.00,0.0055
3705.00,0.0055
3704.00,0.0055
3703.00,0.0056
3702.00,0.0056
3701.00,0.0056
3700.00,0.0056
3699.00,0.0056
3698.00,0.0056
3697.00,0.0056
3696.00,0.0056
3695.00,0.0056
3694.00,0.0056
3693.00,0.0056
3692.00,0.0056
3691.00,0.0056
3690.00,0.0056
3689.00,0.0056
3688.00,0.0056
3687.00,0.0057
3686.00,0.0057
3685.00,0.0058
3684.00,0.0058
3683.00,0.0058
3682.00,0.0058
3681.00,0.0059
3680.00,0.0059
3679.00,0.0059
3678.00,0.0060
3677.00,0.0060
3676.00,0.0060
3675.00,0.0060
3674.00,0.0060
3673.00,0.0060
3672.00,0.0060
3671.00,0.0059
3670.00,0.0058
3669.00,0.0058
3668.00,0.0058
3667.00,0.0058
3666.00,0.0058
3665.00,0.0058
3664.00,0.0058
3663.00,0.0058
3662.00,0.0059
3661.00,0.0059
3660.00,0.0059
3659.00,0.0059
3658.00,0.0059
3657.00,0.0060
3656.00,0.0060
3655.00,0.0060
3654.00,0.0061
3653.00,0.0062
3652.00,0.0062
3651.00,0.0062
3650.00,0.0062
3649.00,0.0062
3648.00,0.0061
3647.00,0.0061
3646.00,0.0060
3645.00,0.0060
3644.00,0.0060
3643.00,0.0060
3642.00,0.0061
3641.00,0.0061
3640.00,0.0061
3639.00,0.0061
3638.00,0.0061
3637.00,0.0060
3636.00,0.0060
3635.00,0.0060
3634.00,0.0060
3633.00,0.0061
3632.00,0.0061
3631.00,0.0062
3630.00,0.0062
3629.00,0.0062
3628.00,0.0063
3627.00,0.0063
3626.00,0.0064
3625.00,0.0064
3624.00,0.0065
3623.00,0.0065
3622.00,0.0066
3621.00,0.0066
3620.00,0.0067
3619.00,0.0067
3618.00,0.0068
3617.00,0.0068
3616.00,0.0068
3615.00,0.0067
3614.00,0.0066
3613.00,0.0066
3612.00,0.0066
3611.00,0.0066
3610.00,0.0066
3609.00,0.0067
3608.00,0.0067
3607.00,0.0067
3606.00,0.0067
3605.00,0.0067
3604.00,0.0067
3603.00,0.0068
3602.00,0.0068
3601.00,0.0069
3600.00,0.0069
3599.00,0.0069
3598.00,0.0070
3597.00,0.0070
3596.00,0.0070
3595.00,0.0070
3594.00,0.0071
3593.00,0.0071
3592.00,0.0072
3591.00,0.0072
3590.00,0.0072
3589.00,0.0072
3588.00,0.0073
3587.00,0.0073
3586.00,0.0074
3585.00,0.0074
3584.00,0.0074
3583.00,0.0074
3582.00,0.0074
3581.00,0.0074
3580.00,0.0074
3579.00,0.0074
3578.00,0.0075
3577.00,0.0075
3576.00,0.0076
3575.00,0.0076
3574.00,0.0077
3573.00,0.0077
3572.00,0.0077
3571.00,0.0078
3570.00,0.0078
3569.00,0.0079
3568.00,0.0079
3567.00,0.0079
3566.00,0.0079
3565.00,0.0079
3564.00,0.0080
3563.00,0.0080
3562.00,0.0080
3561.00,0.0080
3560.00,0.0081
3559.00,0.0081
3558.00,0.0081
3557.00,0.0082
3556.00,0.0083
3555.00,0.0083
3554.00,0.0084
3553.00,0.0084
3552.00,0.0085
3551.00,0.0085
3550.00,0.0086
3549.00,0.0087
3548.00,0.0088
3547.00,0.0088
3546.00,0.0088
3545.00,0.0088
3544.00,0.0088
3543.00,0.0088
3542.00,0.0089
3541.00,0.0090
3540.00,0.0091
3539.00,0.0091
3538.00,0.0091
3537.00,0.0091
3536.00,0.0090
3535.00,0.0090
3534.00,0.0090
3533.00,0.0090
3532.00,0.0090
3531.00,0.0090
3530.00,0.0091
3529.00,0.0092
3528.00,0.0092
3527.00,0.0093
3526.00,0.0093
3525.00,0.0094
3524.00,0.0096
3523.00,0.0098
3522.00,0.0100
3521.00,0.0102
3520.00,0.0102
3519.00,0.0102
3518.00,0.0102
3517.00,0.0101
3516.00,0.0101
3515.00,0.0102
3514.00,0.0103
3513.00,0.0103
3512.00,0.0104
3511.00,0.0104
3510.00,0.0104
3509.00,0.0104
3508.00,0.0105
3507.00,0.0105
3506.00,0.0106
3505.00,0.0106
3504.00,0.0106
3503.00,0.0106
3502.00,0.0107
3501.00,0.0108
3500.00,0.0109
3499.00,0.0110
3498.00,0.0111
3497.00,0.0111
3496.00,0.0111
3495.00,0.0111
3494.00,0.0111
3493.00,0.0111
3492.00,0.0111
3491.00,0.0112
3490.00,0.0113
3489.00,0.0114
3488.00,0.0115
3487.00,0.0116
3486.00,0.0117
3485.00,0.0117
3484.00,0.0118
3483.00,0.0119
3482.00,0.0120
3481.00,0.0121
3480.00,0.0121
3479.00,0.0122
3478.00,0.0122
3477.00,0.0122
3476.00,0.0122
3475.00,0.0122
3474.00,0.0123
3473.00,0.0123
3472.00,0.0124
3471.00,0.0125
3470.00,0.0127
3469.00,0.0128
3468.00,0.0129
3467.00,0.0130
3466.00,0.0131
3465.00,0.0131
3464.00,0.0132
3463.00,0.0132
3462.00,0.0133
3461.00,0.0133
3460.00,0.0134
3459.00,0.0134
3458.00,0.0134
3457.00,0.0135
3456.00,0.0135
3455.00,0.0136
3454.00,0.0137
3453.00,0.0138
3452.00,0.0139
3451.00,0.0140
3450.00,0.0140
3449.00,0.0140
3448.00,0.0141
3447.00,0.0141
3446.00,0.0142
3445.00,0.0142
3444.00,0.0143
3443.00,0.0143
3442.00,0.0144
3441.00,0.0144
3440.00,0.0144
3439.00,0.0145
3438.00,0.0145
3437.00,0.0146
3436.00,0.0146
3435.00,0.0147
3434.00,0.0148
3433.00,0.0148
3432.00,0.0148
3431.00,0.0149
3430.00,0.0149
3429.00,0.0149
3428.00,0.0150
3427.00,0.0150
3426.00,0.0150
3425.00,0.0150
3424.00,0.0150
3423.00,0.0151
3422.00,0.0151
3421.00,0.0152
3420.00,0.0153
3419.00,0.0153
3418.00,0.0154
3417.00,0.0154
3416.00,0.0154
3415.00,0.0154
3414.00,0.0155
3413.00,0.0155
3412.00,0.0156
3411.00,0.0157
3410.00,0.0158
3409.00,0.0158
3408.00,0.0159
3407.00,0.0159
3406.00,0.0159
3405.00,0.0159
3404.00,0.0159
3403.00,0.0159
3402.00,0.0159
3401.00,0.0160
3400.00,0.0160
3399.00,0.0161
3398.00,0.0161
3397.00,0.0161
3396.00,0.0162
3395.00,0.0162
3394.00,0.0163
3393.00,0.0164
3392.00,0.0165
3391.00,0.0166
3390.00,0.0166
3389.00,0.0166
3388.00,0.0166
3387.00,0.0167
3386.00,0.0167
3385.00,0.0168
3384.00,0.0168
3383.00,0.0169
3382.00,0.0169
3381.00,0.0170
3380.00,0.0170
3379.00,0.0171
3378.00,0.0172
3377.00,0.0173
3376.00,0.0173
3375.00,0.0174
3374.00,0.0174
3373.00,0.0174
3372.00,0.0174
3371.00,0.0174
3370.00,0.0174
3369.00,0.0174
3368.00,0.0175
3367.00,0.0176
3366.00,0.0178
3365.00,0.0179
3364.00,0.0180
3363.00,0.0180
3362.00,0.0180
3361.00,0.0181
3360.00,0.0182
3359.00,0.0182
3358.00,0.0183
3357.00,0.0184
3356.00,0.0184
3355.00,0.0184
3354.00,0.0184
3353.00,0.0185
3352.00,0.0185
3351.00,0.0185
3350.00,0.0186
3349.00,0.0186
3348.00,0.0187
3347.00,0.0188
3346.00,0.0188
3345.00,0.0188
3344.00,0.0189
3343.00,0.0189
3342.00,0.0189
3341.00,0.0189
3340.00,0.0190
3339.00,0.0190
3338.00,0.0190
3337.00,0.0190
3336.00,0.0191
3335.00,0.0192
3334.00,0.0192
3333.00,0.0193
3332.00,0.0193
3331.00,0.0193
3330.00,0.0193
3329.00,0.0193
3328.00,0.0193
3327.00,0.0193
3326.00,0.0193
3325.00,0.0194
3324.00,0.0195
3323.00,0.0196
3322.00,0.0197
3321.00,0.0198
3320.00,0.0198
3319.00,0.0199
3318.00,0.0199
3317.00,0.0199
3316.00,0.0199
3315.00,0.0200
3314.00,0.0200
3313.00,0.0200
3312.00,0.0200
3311.00,0.0199
3310.00,0.0198
3309.00,0.0197
3308.00,0.0196
3307.00,0.0196
3306.00,0.0196
3305.00,0.0197
3304.00,0.0199
3303.00,0.0200
3302.00,0.0201
3301.00,0.0202
3300.00,0.0202
3299.00,0.0202
3298.00,0.0203
3297.00,0.0203
3296.00,0.0203
3295.00,0.0204
3294.00,0.0204
3293.00,0.0204
3292.00,0.0204
3291.00,0.0204
3290.00,0.0204
3289.00,0.0204
3288.00,0.0205
3287.00,0.0205
3286.00,0.0205
3285.00,0.0205
3284.00,0.0205
3283.00,0.0206
3282.00,0.0206
3281.00,0.0205
3280.00,0.0206
3279.00,0.0206
3278.00,0.0206
3277.00,0.0206
3276.00,0.0205
3275.00,0.0205
3274.00,0.0204
3273.00,0.0204
3272.00,0.0205
3271.00,0.0205
3270.00,0.0206
3269.00,0.0206
3268.00,0.0206
3267.00,0.0206
3266.00,0.0205
3265.00,0.0205
3264.00,0.0205
3263.00,0.0205
3262.00,0.0206
3261.00,0.0206
3260.00,0.0206
3259.00,0.0206
3258.00,0.0205
3257.00,0.0205
3256.00,0.0205
3255.00,0.0205
3254.00,0.0204
3253.00,0.0204
3252.00,0.0204
3251.00,0.0205
3250.00,0.0205
3249.00,0.0206
3248.00,0.0206
3247.00,0.0206
3246.00,0.0206
3245.00,0.0206
3244.00,0.0205
3243.00,0.0205
3242.00,0.0206
3241.00,0.0206
3240.00,0.0206
3239.00,0.0206
3238.00,0.0206
3237.00,0.0206
3236.00,0.0205
3235.00,0.0204
3234.00,0.0203
3233.00,0.0203
3232.00,0.0203
3231.00,0.0203
3230.00,0.0203
3229.00,0.0203
3228.00,0.0203
3227.00,0.0202
3226.00,0.0202
3225.00,0.0202
3224.00,0.0201
3223.00,0.0202
3222.00,0.0202
3221.00,0.0203
3220.00,0.0202
3219.00,0.0202
3218.00,0.0202
3217.00,0.0202
3216.00,0.0202
3215.00,0.0202
3214.00,0.0202
3213.00,0.0201
3212.00,0.0201
3211.00,0.0201
3210.00,0.0201
3209.00,0.0200
3208.00,0.0200
3207.00,0.0199
3206.00,0.0199
3205.00,0.0198
3204.00,0.0198
3203.00,0.0198
3202.00,0.0198
3201.00,0.0198
3200.00,0.0197
3199.00,0.0197
3198.00,0.0197
3197.00,0.0197
3196.00,0.0197
3195.00,0.0197
3194.00,0.0197
3193.00,0.0197
3192.00,0.0197
3191.00,0.0197
3190.00,0.0196
3189.00,0.0196
3188.00,0.0196
3187.00,0.0196
3186.00,0.0196
3185.00,0.0195
3184.00,0.0195
3183.00,0.0194
3182.00,0.0193
3181.00,0.0192
3180.00,0.0191
3179.00,0.0191
3178.00,0.0191
3177.00,0.0191
3176.00,0.0191
3175.00,0.0190
3174.00,0.0189
3173.00,0.0189
3172.00,0.0189
3171.00,0.0188
3170.00,0.0188
3169.00,0.0188
3168.00,0.0187
3167.00,0.0186
3166.00,0.0186
3165.00,0.0185
3164.00,0.0184
3163.00,0.0183
3162.00,0.0183
3161.00,0.0182
3160.00,0.0181
3159.00,0.0181
3158.00,0.0180
3157.00,0.0180
3156.00,0.0179
3155.00,0.0179
3154.00,0.0178
3153.00,0.0177
3152.00,0.0177
3151.00,0.0177
3150.00,0.0177
3149.00,0.0177
3148.00,0.0176
3147.00,0.0176
3146.00,0.0175
3145.00,0.0174
3144.00,0.0173
3143.00,0.0172
3142.00,0.0171
3141.00,0.0171
3140.00,0.0171
3139.00,0.0171
3138.00,0.0171
3137.00,0.0170
3136.00,0.0170
3135.00,0.0169
3134.00,0.0169
3133.00,0.0169
3132.00,0.0168
3131.00,0.0168
3130.00,0.0168
3129.00,0.0167
3128.00,0.0166
3127.00,0.0165
3126.00,0.0164
3125.00,0.0164
3124.00,0.0163
3123.00,0.0163
3122.00,0.0162
3121.00,0.0162
3120.00,0.0162
3119.00,0.0161
3118.00,0.0160
3117.00,0.0160
3116.00,0.0159
3115.00,0.0159
3114.00,0.0158
3113.00,0.0158
3112.00,0.0158
3111.00,0.0157
3110.00,0.0157
3109.00,0.0156
3108.00,0.0156
3107.00,0.0155
3106.00,0.0154
3105.00,0.0154
3104.00,0.0154
3103.00,0.0154
3102.00,0.0154
3101.00,0.0153
3100.00,0.0153
3099.00,0.0151
3098.00,0.0150
3097.00,0.0150
3096.00,0.0149
3095.00,0.0149
3094.00,0.0149
3093.00,0.0149
3092.00,0.0148
3091.00,0.0148
3090.00,0.0148
3089.00,0.0148
3088.00,0.0148
3087.00,0.0148
3086.00,0.0148
3085.00,0.0148
3084.00,0.0149
3083.00,0.0148
3082.00,0.0148
3081.00,0.0148
3080.00,0.0147
3079.00,0.0147
3078.00,0.0147
3077.00,0.0147
3076.00,0.0147
3075.00,0.0147
3074.00,0.0147
3073.00,0.0147
3072.00,0.0147
3071.00,0.0146
3070.00,0.0145
3069.00,0.0144
3068.00,0.0144
3067.00,0.0143
3066.00,0.0142
3065.00,0.0142
3064.00,0.0141
3063.00,0.0141
3062.00,0.0140
3061.00,0.0139
3060.00,0.0138
3059.00,0.0136
3058.00,0.0135
3057.00,0.0135
3056.00,0.0134
3055.00,0.0134
3054.00,0.0133
3053.00,0.0133
3052.00,0.0132
3051.00,0.0132
3050.00,0.0131
3049.00,0.0130
3048.00,0.0128
3047.00,0.0128
3046.00,0.0128
3045.00,0.0128
3044.00,0.0128
3043.00,0.0128
3042.00,0.0128
3041.00,0.0127
3040.00,0.0127
3039.00,0.0127
3038.00,0.0127
3037.00,0.0126
3036.00,0.0126
3035.00,0.0125
3034.00,0.0125
3033.00,0.0125
3032.00,0.0125
3031.00,0.0124
3030.00,0.0124
3029.00,0.0124
3028.00,0.0125
3027.00,0.0125
3026.00,0.0126
3025.00,0.0126
3024.00,0.0127
3023.00,0.0129
3022.00,0.0130
3021.00,0.0131
3020.00,0.0129
3019.00,0.0127
3018.00,0.0126
3017.00,0.0127
3016.00,0.0129
3015.00,0.0130
3014.00,0.0128
3013.00,0.0126
3012.00,0.0125
3011.00,0.0125
3010.00,0.0126
3009.00,0.0128
3008.00,0.0130
3007.00,0.0132
3006.00,0.0135
3005.00,0.0137
3004.00,0.0138
3003.00,0.0140
3002.00,0.0142
3001.00,0.0144
3000.00,0.0146
2999.00,0.0148
2998.00,0.0149
2997.00,0.0151
2996.00,0.0152
2995.00,0.0154
2994.00,0.0157
2993.00,0.0161
2992.00,0.0165
2991.00,0.0169
2990.00,0.0173
2989.00,0.0177
2988.00,0.0180
2987.00,0.0182
2986.00,0.0185
2985.00,0.0186
2984.00,0.0189
2983.00,0.0191
2982.00,0.0194
2981.00,0.0197
2980.00,0.0200
2979.00,0.0204
2978.00,0.0207
2977.00,0.0210
2976.00,0.0213
2975.00,0.0216
2974.00,0.0220
2973.00,0.0223
2972.00,0.0227
2971.00,0.0232
2970.00,0.0236
2969.00,0.0241
2968.00,0.0246
2967.00,0.0251
2966.00,0.0256
2965.00,0.0261
2964.00,0.0267
2963.00,0.0273
2962.00,0.0278
2961.00,0.0283
2960.00,0.0288
2959.00,0.0293
2958.00,0.0296
2957.00,0.0299
2956.00,0.0301
2955.00,0.0303
2954.00,0.0304
2953.00,0.0304
2952.00,0.0304
2951.00,0.0304
2950.00,0.0303
2949.00,0.0302
2948.00,0.0300
2947.00,0.0299
2946.00,0.0298
2945.00,0.0298
2944.00,0.0299
2943.00,0.0300
2942.00,0.0302
2941.00,0.0303
2940.00,0.0306
2939.00,0.0309
2938.00,0.0313
2937.00,0.0317
2936.00,0.0322
2935.00,0.0327
2934.00,0.0332
2933.00,0.0337
2932.00,0.0342
2931.00,0.0347
2930.00,0.0352
2929.00,0.0356
2928.00,0.0361
2927.00,0.0365
2926.00,0.0369
2925.00,0.0372
2924.00,0.0374
2923.00,0.0375
2922.00,0.0375
2921.00,0.0374
2920.00,0.0372
2919.00,0.0370
2918.00,0.0368
2917.00,0.0365
2916.00,0.0361
2915.00,0.0357
2914.00,0.0353
2913.00,0.0348
2912.00,0.0344
2911.00,0.0339
2910.00,0.0334
2909.00,0.0329
2908.00,0.0324
2907.00,0.0319
2906.00,0.0315
2905.00,0.0311
2904.00,0.0307
2903.00,0.0304
2902.00,0.0301
2901.00,0.0298
2900.00,0.0295
2899.00,0.0293
2898.00,0.0291
2897.00,0.0289
2896.00,0.0287
2895.00,0.0286
2894.00,0.0285
2893.00,0.0283
2892.00,0.0282
2891.00,0.0280
2890.00,0.0279
2889.00,0.0278
2888.00,0.0277
2887.00,0.0276
2886.00,0.0275
2885.00,0.0275
2884.00,0.0274
2883.00,0.0273
2882.00,0.0272
2881.00,0.0271
2880.00,0.0271
2879.00,0.0271
2878.00,0.0271
2877.00,0.0271
2876.00,0.0272
2875.00,0.0272
2874.00,0.0272
2873.00,0.0272
2872.00,0.0273
2871.00,0.0274
2870.00,0.0273
2869.00,0.0273
2868.00,0.0272
2867.00,0.0271
2866.00,0.0270
2865.00,0.0269
2864.00,0.0270
2863.00,0.0271
2862.00,0.0272
2861.00,0.0274
2860.00,0.0275
2859.00,0.0277
2858.00,0.0279
2857.00,0.0281
2856.00,0.0282
2855.00,0.0281
2854.00,0.0279
2853.00,0.0275
2852.00,0.0270
2851.00,0.0265
2850.00,0.0258
2849.00,0.0251
2848.00,0.0244
2847.00,0.0238
2846.00,0.0231
2845.00,0.0224
2844.00,0.0218
2843.00,0.0211
2842.00,0.0206
2841.00,0.0201
2840.00,0.0196
2839.00,0.0193
2838.00,0.0190
2837.00,0.0188
2836.00,0.0187
2835.00,0.0187
2834.00,0.0187
2833.00,0.0187
2832.00,0.0187
2831.00,0.0186
2830.00,0.0185
2829.00,0.0183
2828.00,0.0181
2827.00,0.0179
2826.00,0.0176
2825.00,0.0173
2824.00,0.0170
2823.00,0.0167
2822.00,0.0163
2821.00,0.0160
2820.00,0.0157
2819.00,0.0154
2818.00,0.0151
2817.00,0.0149
2816.00,0.0146
2815.00,0.0144
2814.00,0.0142
2813.00,0.0140
2812.00,0.0139
2811.00,0.0137
2810.00,0.0135
2809.00,0.0134
2808.00,0.0132
2807.00,0.0131
2806.00,0.0130
2805.00,0.0129
2804.00,0.0128
2803.00,0.0127
2802.00,0.0125
2801.00,0.0124
2800.00,0.0122
2799.00,0.0121
2798.00,0.0120
2797.00,0.0120
2796.00,0.0120
2795.00,0.0119
2794.00,0.0119
2793.00,0.0118
2792.00,0.0117
2791.00,0.0116
2790.00,0.0116
2789.00,0.0115
2788.00,0.0115
2787.00,0.0115
2786.00,0.0114
2785.00,0.0114
2784.00,0.0113
2783.00,0.0113
2782.00,0.0113
2781.00,0.0112
2780.00,0.0112
2779.00,0.0112
2778.00,0.0112
2777.00,0.0111
2776.00,0.0111
2775.00,0.0110
2774.00,0.0109
2773.00,0.0109
2772.00,0.0108
2771.00,0.0108
2770.00,0.0107
2769.00,0.0107
2768.00,0.0107
2767.00,0.0107
2766.00,0.0106
2765.00,0.0106
2764.00,0.0106
2763.00,0.0106
2762.00,0.0106
2761.00,0.0106
2760.00,0.0106
2759.00,0.0106
2758.00,0.0106
2757.00,0.0106
