Created as New Dataset,Sample 302 By YargerLab Date Saturday, October 18 2025
cm-1,A
4000.00,0.0005
3999.00,0.0005
3998.00,0.0005
3997.00,0.0005
3996.00,0.0005
3995.00,0.0005
3994.00,0.0004
3993.00,0.0004
3992.00,0.0004
3991.00,0.0004
3990.00,0.0004
3989.00,0.0005
3988.00,0.0005
3987.00,0.0005
3986.00,0.0005
3985.00,0.0005
3984.00,0.0005
3983.00,0.0005
3982.00,0.0005
3981.00,0.0005
3980.00,0.0005
3979.00,0.0005
3978.00,0.0005
3977.00,0.0005
3976.00,0.0005
3975.00,0.0004
3974.00,0.0004
3973.00,0.0004
3972.00,0.0004
3971.00,0.0004
3970.00,0.0005
3969.00,0.0005
3968.00,0.0005
3967.00,0.0005
3966.00,0.0005
3965.00,0.0005
3964.00,0.0004
3963.00,0.0004
3962.00,0.0004
3961.00,0.0004
3960.00,0.0004
3959.00,0.0004
3958.00,0.0004
3957.00,0.0004
3956.00,0.0004
3955.00,0.0004
3954.00,0.0004
3953.00,0.0004
3952.00,0.0004
3951.00,0.0004
3950.00,0.0004
3949.00,0.0004
3948.00,0.0004
3947.00,0.0004
3946.00,0.0003
3945.00,0.0003
3944.00,0.0003
3943.00,0.0003
3942.00,0.0003
3941.00,0.0003
3940.00,0.0003
3939.00,0.0004
3938.00,0.0004
3937.00,0.0004
3936.00,0.0004
3935.00,0.0004
3934.00,0.0004
3933.00,0.0004
3932.00,0.0004
3931.00,0.0003
3930.00,0.0003
3929.00,0.0003
3928.00,0.0003
3927.00,0.0003
3926.00,0.0003
3925.00,0.0003
3924.00,0.0003
3923.00,0.0003
3922.00,0.0003
3921.00,0.0003
3920.00,0.0003
3919.00,0.0003
3918.00,0.0002
3917.00,0.0002
3916.00,0.0003
3915.00,0.0003
3914.00,0.0003
3913.00,0.0003
3912.00,0.0003
3911.00,0.0003
3910.00,0.0003
3909.00,0.0003
3908.00,0.0003
3907.00,0.0003
3906.00,0.0003
3905.00,0.0003
3904.00,0.0002
3903.00,0.0002
3902.00,0.0001
3901.00,-0.0000
3900.00,-0.0001
3899.00,-0.0000
3898.00,0.0000
3897.00,0.0001
3896.00,0.0001
3895.00,0.0001
3894.00,0.0001
3893.00,0.0001
3892.00,0.0001
3891.00,0.0002
3890.00,0.0002
3889.00,0.0002
3888.00,0.0001
3887.00,0.0001
3886.00,0.0001
3885.00,0.0001
3884.00,0.0001
3883.00,0.0001
3882.00,-0.0000
3881.00,-0.0000
3880.00,0.0000
3879.00,0.0001
3878.00,0.0001
3877.00,0.0001
3876.00,0.0001
3875.00,0.0001
3874.00,0.0002
3873.00,0.0002
3872.00,0.0001
3871.00,0.0000
3870.00,0.0000
3869.00,0.0000
3868.00,0.0000
3867.00,-0.0000
3866.00,-0.0001
3865.00,-0.0000
3864.00,0.0000
3863.00,0.0001
3862.00,0.0001
3861.00,0.0001
3860.00,0.0001
3859.00,0.0001
3858.00,0.0001
3857.00,0.0000
3856.00,-0.0000
3855.00,-0.0001
3854.00,-0.0001
3853.00,-0.0001
3852.00,-0.0001
3851.00,-0.0002
3850.00,-0.0002
3849.00,-0.0001
3848.00,-0.0000
3847.00,0.0000
3846.00,0.0001
3845.00,0.0001
3844.00,0.0001
3843.00,0.0001
3842.00,0.0001
3841.00,0.0001
3840.00,-0.0000
3839.00,-0.0001
3838.00,-0.0001
3837.00,-0.0001
3836.00,-0.0001
3835.00,-0.0001
3834.00,-0.0001
3833.00,-0.0001
3832.00,-0.0000
3831.00,0.0000
3830.00,0.0001
3829.00,0.0001
3828.00,0.0001
3827.00,0.0001
3826.00,0.0001
3825.00,0.0001
3824.00,0.0000
3823.00,-0.0001
3822.00,-0.0001
3821.00,-0.0001
3820.00,-0.0001
3819.00,-0.0001
3818.00,-0.0002
3817.00,-0.0002
3816.00,-0.0001
3815.00,-0.0000
3814.00,0.0000
3813.00,0.0000
3812.00,0.0000
3811.00,0.0001
3810.00,0.0001
3809.00,0.0001
3808.00,0.0001
3807.00,0.0001
3806.00,0.0001
3805.00,0.0001
3804.00,-0.0000
3803.00,-0.0001
3802.00,-0.0002
3801.00,-0.0001
3800.00,-0.0001
3799.00,-0.0001
3798.00,-0.0001
3797.00,-0.0001
3796.00,-0.0000
3795.00,0.0000
3794.00,0.0000
3793.00,0.0000
3792.00,0.0000
3791.00,0.0001
3790.00,0.0001
3789.00,0.0001
3788.00,0.0001
3787.00,0.0002
3786.00,0.0002
3785.00,0.0002
3784.00,0.0002
3783.00,0.0002
3782.00,0.0001
3781.00,0.0000
3780.00,-0.0000
3779.00,-0.0000
3778.00,0.0000
3777.00,0.0000
3776.00,0.0000
3775.00,0.0000
3774.00,0.0001
3773.00,0.0001
3772.00,0.0001
3771.00,0.0001
3770.00,0.0001
3769.00,0.0001
3768.00,0.0000
3767.00,-0.0000
3766.00,-0.0000
3765.00,-0.0000
3764.00,0.0000
3763.00,0.0000
3762.00,-0.0000
3761.00,0.0000
3760.00,0.0000
3759.00,0.0001
3758.00,0.0001
3757.00,0.0000
3756.00,0.0000
3755.00,0.0000
3754.00,-0.0000
3753.00,-0.0000
3752.00,-0.0000
3751.00,-0.0001
3750.00,-0.0002
3749.00,-0.0002
3748.00,-0.0003
3747.00,-0.0003
3746.00,-0.0004
3745.00,-0.0004
3744.00,-0.0003
3743.00,-0.0003
3742.00,-0.0004
3741.00,-0.0004
3740.00,-0.0003
3739.00,-0.0003
3738.00,-0.0002
3737.00,-0.0002
3736.00,-0.0003
3735.00,-0.0004
3734.00,-0.0005
3733.00,-0.0005
3732.00,-0.0005
3731.00,-0.0003
3730.00,-0.0002
3729.00,-0.0001
3728.00,-0.0001
3727.00,-0.0000
3726.00,0.0000
3725.00,0.0000
3724.00,-0.0000
3723.00,-0.0000
3722.00,-0.0001
3721.00,-0.0001
3720.00,-0.0000
3719.00,-0.0000
3718.00,-0.0000
3717.00,-0.0000
3716.00,-0.0001
3715.00,-0.0001
3714.00,-0.0001
3713.00,-0.0002
3712.00,-0.0002
3711.00,-0.0002
3710.00,-0.0003
3709.00,-0.0003
3708.00,-0.0002
3707.00,-0.0001
3706.00,-0.0001
3705.00,-0.0001
3704.00,-0.0001
3703.00,-0.0001
3702.00,-0.0001
3701.00,-0.0000
3700.00,-0.0000
3699.00,-0.0000
3698.00,-0.0000
3697.00,0.0000
3696.00,0.0000
3695.00,0.0000
3694.00,-0.0000
3693.00,-0.0000
3692.00,-0.0000
3691.00,-0.0000
3690.00,-0.0000
3689.00,-0.0001
3688.00,-0.0001
3687.00,-0.0001
3686.00,-0.0001
3685.00,-0.0000
3684.00,0.0001
3683.00,0.0001
3682.00,0.0001
3681.00,0.0002
3680.00,0.0002
3679.00,0.0001
3678.00,0.0000
3677.00,-0.0001
3676.00,-0.0001
3675.00,-0.0001
3674.00,-0.0001
3673.00,-0.0001
3672.00,-0.0002
3671.00,-0.0001
3670.00,-0.0000
3669.00,0.0001
3668.00,0.0001
3667.00,0.0002
3666.00,0.0002
3665.00,0.0003
3664.00,0.0004
3663.00,0.0004
3662.00,0.0005
3661.00,0.0005
3660.00,0.0005
3659.00,0.0005
3658.00,0.0005
3657.00,0.0005
3656.00,0.0005
3655.00,0.0005
3654.00,0.0004
3653.00,0.0003
3652.00,0.0003
3651.00,0.0004
3650.00,0.0004
3649.00,0.0004
3648.00,0.0003
3647.00,0.0003
3646.00,0.0003
3645.00,0.0004
3644.00,0.0005
3643.00,0.0006
3642.00,0.0007
3641.00,0.0008
3640.00,0.0008
3639.00,0.0009
3638.00,0.0009
3637.00,0.0009
3636.00,0.0009
3635.00,0.0010
3634.00,0.0010
3633.00,0.0010
3632.00,0.0010
3631.00,0.0009
3630.00,0.0009
3629.00,0.0009
3628.00,0.0010
3627.00,0.0011
3626.00,0.0011
3625.00,0.0012
3624.00,0.0013
3623.00,0.0013
3622.00,0.0014
3621.00,0.0014
3620.00,0.0014
3619.00,0.0014
3618.00,0.0015
3617.00,0.0015
3616.00,0.0016
3615.00,0.0016
3614.00,0.0017
3613.00,0.0017
3612.00,0.0018
3611.00,0.0019
3610.00,0.0019
3609.00,0.0019
3608.00,0.0020
3607.00,0.0020
3606.00,0.0021
3605.00,0.0021
3604.00,0.0022
3603.00,0.0023
3602.00,0.0024
3601.00,0.0025
3600.00,0.0025
3599.00,0.0026
3598.00,0.0026
3597.00,0.0026
3596.00,0.0026
3595.00,0.0027
3594.00,0.0027
3593.00,0.0028
3592.00,0.0028
3591.00,0.0029
3590.00,0.0029
3589.00,0.0030
3588.00,0.0030
3587.00,0.0031
3586.00,0.0032
3585.00,0.0033
3584.00,0.0033
3583.00,0.0034
3582.00,0.0035
3581.00,0.0036
3580.00,0.0037
3579.00,0.0037
3578.00,0.0038
3577.00,0.0039
3576.00,0.0039
3575.00,0.0040
3574.00,0.0041
3573.00,0.0042
3572.00,0.0043
3571.00,0.0043
3570.00,0.0044
3569.00,0.0044
3568.00,0.0044
3567.00,0.0045
3566.00,0.0046
3565.00,0.0047
3564.00,0.0049
3563.00,0.0050
3562.00,0.0051
3561.00,0.0053
3560.00,0.0054
3559.00,0.0055
3558.00,0.0056
3557.00,0.0057
3556.00,0.0058
3555.00,0.0058
3554.00,0.0059
3553.00,0.0060
3552.00,0.0062
3551.00,0.0063
3550.00,0.0064
3549.00,0.0065
3548.00,0.0066
3547.00,0.0067
3546.00,0.0068
3545.00,0.0069
3544.00,0.0070
3543.00,0.0071
3542.00,0.0073
3541.00,0.0074
3540.00,0.0076
3539.00,0.0077
3538.00,0.0078
3537.00,0.0079
3536.00,0.0080
3535.00,0.0081
3534.00,0.0083
3533.00,0.0084
3532.00,0.0085
3531.00,0.0087
3530.00,0.0088
3529.00,0.0090
3528.00,0.0091
3527.00,0.0092
3526.00,0.0094
3525.00,0.0095
3524.00,0.0097
3523.00,0.0098
3522.00,0.0100
3521.00,0.0102
3520.00,0.0103
3519.00,0.0105
3518.00,0.0106
3517.00,0.0108
3516.00,0.0110
3515.00,0.0112
3514.00,0.0113
3513.00,0.0115
3512.00,0.0116
3511.00,0.0118
3510.00,0.0119
3509.00,0.0121
3508.00,0.0123
3507.00,0.0124
3506.00,0.0126
3505.00,0.0128
3504.00,0.0130
3503.00,0.0132
3502.00,0.0134
3501.00,0.0135
3500.00,0.0137
3499.00,0.0139
3498.00,0.0141
3497.00,0.0143
3496.00,0.0144
3495.00,0.0146
3494.00,0.0148
3493.00,0.0150
3492.00,0.0151
3491.00,0.0153
3490.00,0.0154
3489.00,0.0156
3488.00,0.0158
3487.00,0.0160
3486.00,0.0162
3485.00,0.0164
3484.00,0.0166
3483.00,0.0168
3482.00,0.0170
3481.00,0.0172
3480.00,0.0174
3479.00,0.0176
3478.00,0.0177
3477.00,0.0178
3476.00,0.0180
3475.00,0.0181
3474.00,0.0183
3473.00,0.0185
3472.00,0.0186
3471.00,0.0188
3470.00,0.0190
3469.00,0.0192
3468.00,0.0193
3467.00,0.0195
3466.00,0.0196
3465.00,0.0197
3464.00,0.0198
3463.00,0.0199
3462.00,0.0201
3461.00,0.0202
3460.00,0.0203
3459.00,0.0204
3458.00,0.0205
3457.00,0.0206
3456.00,0.0206
3455.00,0.0207
3454.00,0.0208
3453.00,0.0209
3452.00,0.0210
3451.00,0.0211
3450.00,0.0212
3449.00,0.0212
3448.00,0.0213
3447.00,0.0213
3446.00,0.0214
3445.00,0.0214
3444.00,0.0215
3443.00,0.0215
3442.00,0.0216
3441.00,0.0216
3440.00,0.0217
3439.00,0.0218
3438.00,0.0218
3437.00,0.0218
3436.00,0.0219
3435.00,0.0219
3434.00,0.0219
3433.00,0.0219
3432.00,0.0219
3431.00,0.0219
3430.00,0.0219
3429.00,0.0219
3428.00,0.0219
3427.00,0.0218
3426.00,0.0218
3425.00,0.0218
3424.00,0.0218
3423.00,0.0218
3422.00,0.0218
3421.00,0.0218
3420.00,0.0218
3419.00,0.0217
3418.00,0.0217
3417.00,0.0217
3416.00,0.0217
3415.00,0.0217
3414.00,0.0217
3413.00,0.0217
3412.00,0.0217
3411.00,0.0216
3410.00,0.0216
3409.00,0.0216
3408.00,0.0215
3407.00,0.0215
3406.00,0.0215
3405.00,0.0214
3404.00,0.0214
3403.00,0.0214
3402.00,0.0214
3401.00,0.0214
3400.00,0.0214
3399.00,0.0213
3398.00,0.0212
3397.00,0.0211
3396.00,0.0210
3395.00,0.0210
3394.00,0.0210
3393.00,0.0209
3392.00,0.0209
3391.00,0.0209
3390.00,0.0208
3389.00,0.0207
3388.00,0.0207
3387.00,0.0206
3386.00,0.0205
3385.00,0.0205
3384.00,0.0204
3383.00,0.0204
3382.00,0.0203
3381.00,0.0203
3380.00,0.0202
3379.00,0.0201
3378.00,0.0201
3377.00,0.0200
3376.00,0.0200
3375.00,0.0200
3374.00,0.0199
3373.00,0.0199
3372.00,0.0199
3371.00,0.0198
3370.00,0.0198
3369.00,0.0197
3368.00,0.0196
3367.00,0.0196
3366.00,0.0195
3365.00,0.0194
3364.00,0.0193
3363.00,0.0192
3362.00,0.0192
3361.00,0.0191
3360.00,0.0190
3359.00,0.0190
3358.00,0.0189
3357.00,0.0188
3356.00,0.0188
3355.00,0.0187
3354.00,0.0187
3353.00,0.0187
3352.00,0.0186
3351.00,0.0186
3350.00,0.0185
3349.00,0.0184
3348.00,0.0184
3347.00,0.0183
3346.00,0.0182
3345.00,0.0181
3344.00,0.0181
3343.00,0.0180
3342.00,0.0180
3341.00,0.0179
3340.00,0.0178
3339.00,0.0177
3338.00,0.0177
3337.00,0.0176
3336.00,0.0175
3335.00,0.0175
3334.00,0.0174
3333.00,0.0173
3332.00,0.0172
3331.00,0.0172
3330.00,0.0171
3329.00,0.0171
3328.00,0.0170
3327.00,0.0170
3326.00,0.0169
3325.00,0.0168
3324.00,0.0167
3323.00,0.0166
3322.00,0.0165
3321.00,0.0165
3320.00,0.0164
3319.00,0.0163
3318.00,0.0162
3317.00,0.0162
3316.00,0.0161
3315.00,0.0160
3314.00,0.0159
3313.00,0.0158
3312.00,0.0158
3311.00,0.0157
3310.00,0.0157
3309.00,0.0156
3308.00,0.0156
3307.00,0.0155
3306.00,0.0154
3305.00,0.0154
3304.00,0.0153
3303.00,0.0152
3302.00,0.0151
3301.00,0.0150
3300.00,0.0149
3299.00,0.0148
3298.00,0.0148
3297.00,0.0147
3296.00,0.0146
3295.00,0.0146
3294.00,0.0145
3293.00,0.0144
3292.00,0.0143
3291.00,0.0142
3290.00,0.0142
3289.00,0.0141
3288.00,0.0141
3287.00,0.0140
3286.00,0.0139
3285.00,0.0138
3284.00,0.0138
3283.00,0.0137
3282.00,0.0136
3281.00,0.0135
3280.00,0.0135
3279.00,0.0134
3278.00,0.0133
3277.00,0.0133
3276.00,0.0132
3275.00,0.0131
3274.00,0.0130
3273.00,0.0130
3272.00,0.0129
3271.00,0.0128
3270.00,0.0128
3269.00,0.0127
3268.00,0.0126
3267.00,0.0125
3266.00,0.0125
3265.00,0.0124
3264.00,0.0123
3263.00,0.0123
3262.00,0.0122
3261.00,0.0121
3260.00,0.0121
3259.00,0.0120
3258.00,0.0119
3257.00,0.0118
3256.00,0.0118
3255.00,0.0117
3254.00,0.0116
3253.00,0.0116
3252.00,0.0115
3251.00,0.0114
3250.00,0.0113
3249.00,0.0113
3248.00,0.0112
3247.00,0.0111
3246.00,0.0110
3245.00,0.0110
3244.00,0.0109
3243.00,0.0108
3242.00,0.0107
3241.00,0.0106
3240.00,0.0106
3239.00,0.0105
3238.00,0.0105
3237.00,0.0104
3236.00,0.0103
3235.00,0.0103
3234.00,0.0102
3233.00,0.0101
3232.00,0.0100
3231.00,0.0100
3230.00,0.0099
3229.00,0.0098
3228.00,0.0097
3227.00,0.0097
3226.00,0.0097
3225.00,0.0096
3224.00,0.0096
3223.00,0.0095
3222.00,0.0094
3221.00,0.0093
3220.00,0.0093
3219.00,0.0092
3218.00,0.0092
3217.00,0.0091
3216.00,0.0091
3215.00,0.0090
3214.00,0.0089
3213.00,0.0089
3212.00,0.0088
3211.00,0.0087
3210.00,0.0087
3209.00,0.0086
3208.00,0.0086
3207.00,0.0085
3206.00,0.0085
3205.00,0.0084
3204.00,0.0084
3203.00,0.0083
3202.00,0.0082
3201.00,0.0081
3200.00,0.0081
3199.00,0.0080
3198.00,0.0080
3197.00,0.0079
3196.00,0.0078
3195.00,0.0078
3194.00,0.0077
3193.00,0.0077
3192.00,0.0076
3191.00,0.0076
3190.00,0.0076
3189.00,0.0075
3188.00,0.0075
3187.00,0.0074
3186.00,0.0073
3185.00,0.0072
3184.00,0.0072
3183.00,0.0071
3182.00,0.0071
3181.00,0.0071
3180.00,0.0070
3179.00,0.0070
3178.00,0.0069
3177.00,0.0068
3176.00,0.0068
3175.00,0.0067
3174.00,0.0067
3173.00,0.0066
3172.00,0.0066
3171.00,0.0065
3170.00,0.0065
3169.00,0.0064
3168.00,0.0063
3167.00,0.0063
3166.00,0.0062
3165.00,0.0062
3164.00,0.0061
3163.00,0.0061
3162.00,0.0060
3161.00,0.0060
3160.00,0.0059
3159.00,0.0059
3158.00,0.0058
3157.00,0.0058
3156.00,0.0057
3155.00,0.0057
3154.00,0.0056
3153.00,0.0056
3152.00,0.0056
3151.00,0.0055
3150.00,0.0055
3149.00,0.0055
3148.00,0.0054
3147.00,0.0054
3146.00,0.0053
3145.00,0.0053
3144.00,0.0052
3143.00,0.0052
3142.00,0.0052
3141.00,0.0051
3140.00,0.0051
3139.00,0.0050
3138.00,0.0050
3137.00,0.0050
3136.00,0.0049
3135.00,0.0049
3134.00,0.0049
3133.00,0.0048
3132.00,0.0048
3131.00,0.0048
3130.00,0.0048
3129.00,0.0047
3128.00,0.0047
3127.00,0.0047
3126.00,0.0046
3125.00,0.0046
3124.00,0.0046
3123.00,0.0046
3122.00,0.0045
3121.00,0.0045
3120.00,0.0045
3119.00,0.0044
3118.00,0.0044
3117.00,0.0043
3116.00,0.0043
3115.00,0.0043
3114.00,0.0043
3113.00,0.0042
3112.00,0.0042
3111.00,0.0042
3110.00,0.0042
3109.00,0.0041
3108.00,0.0041
3107.00,0.0041
3106.00,0.0041
3105.00,0.0040
3104.00,0.0040
3103.00,0.0040
3102.00,0.0040
3101.00,0.0040
3100.00,0.0040
3099.00,0.0040
3098.00,0.0040
3097.00,0.0040
3096.00,0.0040
3095.00,0.0040
3094.00,0.0040
3093.00,0.0040
3092.00,0.0040
3091.00,0.0040
3090.00,0.0041
3089.00,0.0041
3088.00,0.0041
3087.00,0.0042
3086.00,0.0042
3085.00,0.0042
3084.00,0.0042
3083.00,0.0043
3082.00,0.0043
3081.00,0.0044
3080.00,0.0044
3079.00,0.0045
3078.00,0.0045
3077.00,0.0045
3076.00,0.0046
3075.00,0.0046
3074.00,0.0046
3073.00,0.0046
3072.00,0.0046
3071.00,0.0046
3070.00,0.0045
3069.00,0.0045
3068.00,0.0044
3067.00,0.0043
3066.00,0.0042
3065.00,0.0041
3064.00,0.0040
3063.00,0.0039
3062.00,0.0039
3061.00,0.0038
3060.00,0.0038
3059.00,0.0037
3058.00,0.0037
3057.00,0.0036
3056.00,0.0036
3055.00,0.0036
3054.00,0.0036
3053.00,0.0036
3052.00,0.0036
3051.00,0.0036
3050.00,0.0036
3049.00,0.0036
3048.00,0.0036
3047.00,0.0036
3046.00,0.0036
3045.00,0.0037
3044.00,0.0037
3043.00,0.0037
3042.00,0.0038
3041.00,0.0038
3040.00,0.0038
3039.00,0.0038
3038.00,0.0038
3037.00,0.0038
3036.00,0.0038
3035.00,0.0038
3034.00,0.0038
3033.00,0.0038
3032.00,0.0038
3031.00,0.0038
3030.00,0.0038
3029.00,0.0038
3028.00,0.0039
3027.00,0.0039
3026.00,0.0039
3025.00,0.0039
3024.00,0.0040
3023.00,0.0040
3022.00,0.0040
3021.00,0.0041
3020.00,0.0041
3019.00,0.0042
3018.00,0.0042
3017.00,0.0043
3016.00,0.0043
3015.00,0.0044
3014.00,0.0045
3013.00,0.0046
3012.00,0.0048
3011.00,0.0049
3010.00,0.0050
3009.00,0.0051
3008.00,0.0052
3007.00,0.0054
3006.00,0.0056
3005.00,0.0058
3004.00,0.0060
3003.00,0.0062
3002.00,0.0065
3001.00,0.0067
3000.00,0.0069
2999.00,0.0072
2998.00,0.0074
2997.00,0.0077
2996.00,0.0080
2995.00,0.0083
2994.00,0.0086
2993.00,0.0089
2992.00,0.0092
2991.00,0.0095
2990.00,0.0099
2989.00,0.0102
2988.00,0.0105
2987.00,0.0108
2986.00,0.0111
2985.00,0.0114
2984.00,0.0117
2983.00,0.0119
2982.00,0.0122
2981.00,0.0125
2980.00,0.0128
2979.00,0.0131
2978.00,0.0134
2977.00,0.0137
2976.00,0.0140
2975.00,0.0143
2974.00,0.0147
2973.00,0.0150
2972.00,0.0154
2971.00,0.0158
2970.00,0.0163
2969.00,0.0167
2968.00,0.0171
2967.00,0.0176
2966.00,0.0179
2965.00,0.0183
2964.00,0.0187
2963.00,0.0191
2962.00,0.0194
2961.00,0.0197
2960.00,0.0200
2959.00,0.0203
2958.00,0.0205
2957.00,0.0206
2956.00,0.0208
2955.00,0.0209
2954.00,0.0210
2953.00,0.0211
2952.00,0.0213
2951.00,0.0214
2950.00,0.0215
2949.00,0.0217
2948.00,0.0220
2947.00,0.0224
2946.00,0.0228
2945.00,0.0234
2944.00,0.0240
2943.00,0.0248
2942.00,0.0255
2941.00,0.0264
2940.00,0.0272
2939.00,0.0281
2938.00,0.0290
2937.00,0.0299
2936.00,0.0307
2935.00,0.0316
2934.00,0.0323
2933.00,0.0330
2932.00,0.0336
2931.00,0.0341
2930.00,0.0345
2929.00,0.0348
2928.00,0.0350
2927.00,0.0352
2926.00,0.0352
2925.00,0.0352
2924.00,0.0352
2923.00,0.0350
2922.00,0.0348
2921.00,0.0346
2920.00,0.0343
2919.00,0.0340
2918.00,0.0337
2917.00,0.0334
2916.00,0.0330
2915.00,0.0327
2914.00,0.0324
2913.00,0.0321
2912.00,0.0318
2911.00,0.0315
2910.00,0.0312
2909.00,0.0309
2908.00,0.0307
2907.00,0.0304
2906.00,0.0301
2905.00,0.0299
2904.00,0.0296
2903.00,0.0294
2902.00,0.0291
2901.00,0.0289
2900.00,0.0287
2899.00,0.0284
2898.00,0.0282
2897.00,0.0279
2896.00,0.0277
2895.00,0.0274
2894.00,0.0272
2893.00,0.0269
2892.00,0.0267
2891.00,0.0265
2890.00,0.0263
2889.00,0.0261
2888.00,0.0259
2887.00,0.0257
2886.00,0.0256
2885.00,0.0254
2884.00,0.0253
2883.00,0.0252
2882.00,0.0252
2881.00,0.0251
2880.00,0.0251
2879.00,0.0250
2878.00,0.0250
2877.00,0.0251
2876.00,0.0251
2875.00,0.0251
2874.00,0.0252
2873.00,0.0251
2872.00,0.0250
2871.00,0.0248
2870.00,0.0246
2869.00,0.0243
2868.00,0.0241
2867.00,0.0238
2866.00,0.0237
2865.00,0.0236
2864.00,0.0236
2863.00,0.0236
2862.00,0.0237
2861.00,0.0239
2860.00,0.0240
2859.00,0.0241
2858.00,0.0241
2857.00,0.0240
2856.00,0.0238
2855.00,0.0234
2854.00,0.0230
2853.00,0.0225
2852.00,0.0219
2851.00,0.0214
2850.00,0.0208
2849.00,0.0203
2848.00,0.0197
2847.00,0.0192
2846.00,0.0188
2845.00,0.0185
2844.00,0.0182
2843.00,0.0179
2842.00,0.0178
2841.00,0.0176
2840.00,0.0176
2839.00,0.0176
2838.00,0.0176
2837.00,0.0176
2836.00,0.0176
2835.00,0.0175
2834.00,0.0174
2833.00,0.0172
2832.00,0.0169
2831.00,0.0166
2830.00,0.0162
2829.00,0.0157
2828.00,0.0153
2827.00,0.0148
2826.00,0.0142
2825.00,0.0137
2824.00,0.0133
2823.00,0.0129
2822.00,0.0125
2821.00,0.0121
2820.00,0.0118
2819.00,0.0114
2818.00,0.0111
2817.00,0.0109
2816.00,0.0106
2815.00,0.0103
2814.00,0.0100
2813.00,0.0097
2812.00,0.0094
2811.00,0.0091
2810.00,0.0087
2809.00,0.0084
2808.00,0.0081
2807.00,0.0077
2806.00,0.0074
2805.00,0.0071
2804.00,0.0068
2803.00,0.0065
2802.00,0.0062
2801.00,0.0060
2800.00,0.0058
2799.00,0.0056
2798.00,0.0055
2797.00,0.0053
2796.00,0.0051
2795.00,0.0050
2794.00,0.0049
2793.00,0.0048
2792.00,0.0047
2791.00,0.0046
2790.00,0.0046
2789.00,0.0045
2788.00,0.0044
2787.00,0.0043
2786.00,0.0043
2785.00,0.0042
2784.00,0.0042
2783.00,0.0041
2782.00,0.0040
2781.00,0.0040
2780.00,0.0040
2779.00,0.0039
2778.00,0.0039
2777.00,0.0038
2776.00,0.0038
2775.00,0.0038
2774.00,0.0037
2773.00,0.0037
2772.00,0.0037
2771.00,0.0036
2770.00,0.0036
2769.00,0.0036
2768.00,0.0036
2767.00,0.0035
2766.00,0.0035
2765.00,0.0035
