Created as New Dataset,Sample 267 By YargerLab Date Saturday, October 18 2025
cm-1,A
4000.00,0.0040
3999.00,0.0041
3998.00,0.0041
3997.00,0.0041
3996.00,0.0040
3995.00,0.0040
3994.00,0.0040
3993.00,0.0040
3992.00,0.0040
3991.00,0.0040
3990.00,0.0040
3989.00,0.0041
3988.00,0.0041
3987.00,0.0041
3986.00,0.0041
3985.00,0.0041
3984.00,0.0041
3983.00,0.0041
3982.00,0.0040
3981.00,0.0040
3980.00,0.0040
3979.00,0.0041
3978.00,0.0040
3977.00,0.0040
3976.00,0.0040
3975.00,0.0040
3974.00,0.0040
3973.00,0.0040
3972.00,0.0040
3971.00,0.0040
3970.00,0.0040
3969.00,0.0040
3968.00,0.0040
3967.00,0.0040
3966.00,0.0040
3965.00,0.0040
3964.00,0.0040
3963.00,0.0040
3962.00,0.0040
3961.00,0.0040
3960.00,0.0041
3959.00,0.0041
3958.00,0.0040
3957.00,0.0040
3956.00,0.0040
3955.00,0.0040
3954.00,0.0040
3953.00,0.0040
3952.00,0.0040
3951.00,0.0041
3950.00,0.0041
3949.00,0.0041
3948.00,0.0041
3947.00,0.0041
3946.00,0.0041
3945.00,0.0041
3944.00,0.0041
3943.00,0.0041
3942.00,0.0041
3941.00,0.0041
3940.00,0.0041
3939.00,0.0041
3938.00,0.0041
3937.00,0.0041
3936.00,0.0041
3935.00,0.0040
3934.00,0.0040
3933.00,0.0041
3932.00,0.0041
3931.00,0.0041
3930.00,0.0042
3929.00,0.0042
3928.00,0.0042
3927.00,0.0042
3926.00,0.0041
3925.00,0.0041
3924.00,0.0041
3923.00,0.0041
3922.00,0.0041
3921.00,0.0041
3920.00,0.0041
3919.00,0.0041
3918.00,0.0041
3917.00,0.0041
3916.00,0.0041
3915.00,0.0041
3914.00,0.0041
3913.00,0.0041
3912.00,0.0040
3911.00,0.0040
3910.00,0.0040
3909.00,0.0040
3908.00,0.0041
3907.00,0.0041
3906.00,0.0041
3905.00,0.0042
3904.00,0.0042
3903.00,0.0042
3902.00,0.0043
3901.00,0.0043
3900.00,0.0043
3899.00,0.0043
3898.00,0.0042
3897.00,0.0042
3896.00,0.0041
3895.00,0.0041
3894.00,0.0041
3893.00,0.0041
3892.00,0.0041
3891.00,0.0041
3890.00,0.0041
3889.00,0.0041
3888.00,0.0041
3887.00,0.0042
3886.00,0.0042
3885.00,0.0042
3884.00,0.0042
3883.00,0.0043
3882.00,0.0042
3881.00,0.0042
3880.00,0.0041
3879.00,0.0041
3878.00,0.0041
3877.00,0.0042
3876.00,0.0042
3875.00,0.0041
3874.00,0.0041
3873.00,0.0042
3872.00,0.0042
3871.00,0.0042
3870.00,0.0042
3869.00,0.0042
3868.00,0.0042
3867.00,0.0042
3866.00,0.0042
3865.00,0.0042
3864.00,0.0041
3863.00,0.0042
3862.00,0.0042
3861.00,0.0042
3860.00,0.0042
3859.00,0.0042
3858.00,0.0041
3857.00,0.0042
3856.00,0.0042
3855.00,0.0042
3854.00,0.0042
3853.00,0.0043
3852.00,0.0043
3851.00,0.0043
3850.00,0.0043
3849.00,0.0042
3848.00,0.0042
3847.00,0.0042
3846.00,0.0041
3845.00,0.0041
3844.00,0.0041
3843.00,0.0041
3842.00,0.0042
3841.00,0.0042
3840.00,0.0043
3839.00,0.0043
3838.00,0.0043
3837.00,0.0043
3836.00,0.0043
3835.00,0.0042
3834.00,0.0042
3833.00,0.0042
3832.00,0.0041
3831.00,0.0041
3830.00,0.0041
3829.00,0.0041
3828.00,0.0041
3827.00,0.0041
3826.00,0.0041
3825.00,0.0041
3824.00,0.0041
3823.00,0.0042
3822.00,0.0042
3821.00,0.0042
3820.00,0.0042
3819.00,0.0043
3818.00,0.0043
3817.00,0.0043
3816.00,0.0042
3815.00,0.0042
3814.00,0.0042
3813.00,0.0041
3812.00,0.0041
3811.00,0.0041
3810.00,0.0041
3809.00,0.0041
3808.00,0.0040
3807.00,0.0040
3806.00,0.0041
3805.00,0.0041
3804.00,0.0042
3803.00,0.0042
3802.00,0.0042
3801.00,0.0042
3800.00,0.0042
3799.00,0.0042
3798.00,0.0042
3797.00,0.0042
3796.00,0.0041
3795.00,0.0040
3794.00,0.0040
3793.00,0.0040
3792.00,0.0040
3791.00,0.0040
3790.00,0.0039
3789.00,0.0039
3788.00,0.0039
3787.00,0.0040
3786.00,0.0040
3785.00,0.0040
3784.00,0.0040
3783.00,0.0040
3782.00,0.0040
3781.00,0.0040
3780.00,0.0040
3779.00,0.0040
3778.00,0.0040
3777.00,0.0040
3776.00,0.0040
3775.00,0.0039
3774.00,0.0039
3773.00,0.0040
3772.00,0.0040
3771.00,0.0040
3770.00,0.0041
3769.00,0.0041
3768.00,0.0041
3767.00,0.0041
3766.00,0.0041
3765.00,0.0040
3764.00,0.0040
3763.00,0.0040
3762.00,0.0040
3761.00,0.0040
3760.00,0.0040
3759.00,0.0040
3758.00,0.0040
3757.00,0.0040
3756.00,0.0041
3755.00,0.0041
3754.00,0.0041
3753.00,0.0042
3752.00,0.0042
3751.00,0.0042
3750.00,0.0042
3749.00,0.0043
3748.00,0.0043
3747.00,0.0043
3746.00,0.0043
3745.00,0.0043
3744.00,0.0042
3743.00,0.0042
3742.00,0.0042
3741.00,0.0042
3740.00,0.0041
3739.00,0.0041
3738.00,0.0041
3737.00,0.0041
3736.00,0.0042
3735.00,0.0042
3734.00,0.0042
3733.00,0.0042
3732.00,0.0042
3731.00,0.0041
3730.00,0.0040
3729.00,0.0040
3728.00,0.0040
3727.00,0.0040
3726.00,0.0040
3725.00,0.0040
3724.00,0.0041
3723.00,0.0041
3722.00,0.0040
3721.00,0.0040
3720.00,0.0040
3719.00,0.0039
3718.00,0.0039
3717.00,0.0040
3716.00,0.0040
3715.00,0.0040
3714.00,0.0041
3713.00,0.0040
3712.00,0.0040
3711.00,0.0040
3710.00,0.0040
3709.00,0.0040
3708.00,0.0040
3707.00,0.0040
3706.00,0.0040
3705.00,0.0040
3704.00,0.0040
3703.00,0.0040
3702.00,0.0040
3701.00,0.0040
3700.00,0.0040
3699.00,0.0040
3698.00,0.0040
3697.00,0.0040
3696.00,0.0040
3695.00,0.0040
3694.00,0.0040
3693.00,0.0040
3692.00,0.0041
3691.00,0.0041
3690.00,0.0041
3689.00,0.0041
3688.00,0.0041
3687.00,0.0041
3686.00,0.0041
3685.00,0.0041
3684.00,0.0040
3683.00,0.0040
3682.00,0.0040
3681.00,0.0040
3680.00,0.0040
3679.00,0.0040
3678.00,0.0041
3677.00,0.0042
3676.00,0.0042
3675.00,0.0042
3674.00,0.0043
3673.00,0.0043
3672.00,0.0043
3671.00,0.0043
3670.00,0.0042
3669.00,0.0042
3668.00,0.0042
3667.00,0.0042
3666.00,0.0041
3665.00,0.0041
3664.00,0.0040
3663.00,0.0040
3662.00,0.0039
3661.00,0.0039
3660.00,0.0040
3659.00,0.0040
3658.00,0.0040
3657.00,0.0041
3656.00,0.0041
3655.00,0.0041
3654.00,0.0042
3653.00,0.0042
3652.00,0.0043
3651.00,0.0043
3650.00,0.0043
3649.00,0.0043
3648.00,0.0043
3647.00,0.0043
3646.00,0.0043
3645.00,0.0042
3644.00,0.0042
3643.00,0.0042
3642.00,0.0042
3641.00,0.0041
3640.00,0.0041
3639.00,0.0041
3638.00,0.0041
3637.00,0.0041
3636.00,0.0041
3635.00,0.0041
3634.00,0.0041
3633.00,0.0041
3632.00,0.0042
3631.00,0.0042
3630.00,0.0043
3629.00,0.0043
3628.00,0.0043
3627.00,0.0043
3626.00,0.0043
3625.00,0.0043
3624.00,0.0042
3623.00,0.0042
3622.00,0.0042
3621.00,0.0042
3620.00,0.0042
3619.00,0.0042
3618.00,0.0042
3617.00,0.0042
3616.00,0.0043
3615.00,0.0043
3614.00,0.0043
3613.00,0.0044
3612.00,0.0044
3611.00,0.0044
3610.00,0.0044
3609.00,0.0044
3608.00,0.0044
3607.00,0.0044
3606.00,0.0043
3605.00,0.0043
3604.00,0.0043
3603.00,0.0043
3602.00,0.0043
3601.00,0.0043
3600.00,0.0043
3599.00,0.0043
3598.00,0.0043
3597.00,0.0043
3596.00,0.0043
3595.00,0.0043
3594.00,0.0043
3593.00,0.0043
3592.00,0.0043
3591.00,0.0043
3590.00,0.0043
3589.00,0.0044
3588.00,0.0044
3587.00,0.0044
3586.00,0.0044
3585.00,0.0044
3584.00,0.0044
3583.00,0.0044
3582.00,0.0044
3581.00,0.0044
3580.00,0.0044
3579.00,0.0044
3578.00,0.0044
3577.00,0.0044
3576.00,0.0044
3575.00,0.0044
3574.00,0.0045
3573.00,0.0045
3572.00,0.0045
3571.00,0.0046
3570.00,0.0046
3569.00,0.0047
3568.00,0.0047
3567.00,0.0047
3566.00,0.0047
3565.00,0.0047
3564.00,0.0047
3563.00,0.0046
3562.00,0.0046
3561.00,0.0046
3560.00,0.0047
3559.00,0.0047
3558.00,0.0047
3557.00,0.0047
3556.00,0.0047
3555.00,0.0047
3554.00,0.0047
3553.00,0.0047
3552.00,0.0047
3551.00,0.0047
3550.00,0.0048
3549.00,0.0048
3548.00,0.0048
3547.00,0.0049
3546.00,0.0049
3545.00,0.0049
3544.00,0.0049
3543.00,0.0049
3542.00,0.0049
3541.00,0.0049
3540.00,0.0049
3539.00,0.0049
3538.00,0.0049
3537.00,0.0049
3536.00,0.0050
3535.00,0.0050
3534.00,0.0050
3533.00,0.0050
3532.00,0.0050
3531.00,0.0050
3530.00,0.0050
3529.00,0.0050
3528.00,0.0050
3527.00,0.0050
3526.00,0.0051
3525.00,0.0051
3524.00,0.0052
3523.00,0.0052
3522.00,0.0052
3521.00,0.0052
3520.00,0.0052
3519.00,0.0053
3518.00,0.0053
3517.00,0.0053
3516.00,0.0053
3515.00,0.0053
3514.00,0.0053
3513.00,0.0054
3512.00,0.0054
3511.00,0.0054
3510.00,0.0055
3509.00,0.0055
3508.00,0.0055
3507.00,0.0056
3506.00,0.0056
3505.00,0.0057
3504.00,0.0057
3503.00,0.0058
3502.00,0.0058
3501.00,0.0058
3500.00,0.0059
3499.00,0.0059
3498.00,0.0059
3497.00,0.0059
3496.00,0.0059
3495.00,0.0059
3494.00,0.0060
3493.00,0.0060
3492.00,0.0060
3491.00,0.0061
3490.00,0.0061
3489.00,0.0062
3488.00,0.0062
3487.00,0.0063
3486.00,0.0063
3485.00,0.0064
3484.00,0.0064
3483.00,0.0065
3482.00,0.0065
3481.00,0.0065
3480.00,0.0066
3479.00,0.0066
3478.00,0.0067
3477.00,0.0067
3476.00,0.0068
3475.00,0.0068
3474.00,0.0069
3473.00,0.0069
3472.00,0.0070
3471.00,0.0070
3470.00,0.0071
3469.00,0.0071
3468.00,0.0072
3467.00,0.0072
3466.00,0.0072
3465.00,0.0073
3464.00,0.0073
3463.00,0.0074
3462.00,0.0074
3461.00,0.0074
3460.00,0.0075
3459.00,0.0075
3458.00,0.0075
3457.00,0.0076
3456.00,0.0076
3455.00,0.0076
3454.00,0.0076
3453.00,0.0077
3452.00,0.0077
3451.00,0.0078
3450.00,0.0079
3449.00,0.0079
3448.00,0.0080
3447.00,0.0080
3446.00,0.0080
3445.00,0.0081
3444.00,0.0081
3443.00,0.0081
3442.00,0.0081
3441.00,0.0081
3440.00,0.0081
3439.00,0.0081
3438.00,0.0081
3437.00,0.0082
3436.00,0.0082
3435.00,0.0083
3434.00,0.0083
3433.00,0.0083
3432.00,0.0083
3431.00,0.0083
3430.00,0.0083
3429.00,0.0083
3428.00,0.0084
3427.00,0.0084
3426.00,0.0084
3425.00,0.0084
3424.00,0.0085
3423.00,0.0085
3422.00,0.0085
3421.00,0.0085
3420.00,0.0085
3419.00,0.0086
3418.00,0.0086
3417.00,0.0086
3416.00,0.0086
3415.00,0.0086
3414.00,0.0087
3413.00,0.0087
3412.00,0.0087
3411.00,0.0087
3410.00,0.0088
3409.00,0.0088
3408.00,0.0088
3407.00,0.0089
3406.00,0.0088
3405.00,0.0088
3404.00,0.0089
3403.00,0.0089
3402.00,0.0089
3401.00,0.0090
3400.00,0.0090
3399.00,0.0090
3398.00,0.0090
3397.00,0.0090
3396.00,0.0091
3395.00,0.0091
3394.00,0.0091
3393.00,0.0091
3392.00,0.0092
3391.00,0.0092
3390.00,0.0092
3389.00,0.0093
3388.00,0.0093
3387.00,0.0093
3386.00,0.0093
3385.00,0.0094
3384.00,0.0094
3383.00,0.0094
3382.00,0.0094
3381.00,0.0094
3380.00,0.0095
3379.00,0.0095
3378.00,0.0096
3377.00,0.0096
3376.00,0.0096
3375.00,0.0096
3374.00,0.0097
3373.00,0.0097
3372.00,0.0097
3371.00,0.0097
3370.00,0.0097
3369.00,0.0098
3368.00,0.0098
3367.00,0.0098
3366.00,0.0099
3365.00,0.0099
3364.00,0.0099
3363.00,0.0100
3362.00,0.0100
3361.00,0.0100
3360.00,0.0100
3359.00,0.0101
3358.00,0.0101
3357.00,0.0102
3356.00,0.0102
3355.00,0.0103
3354.00,0.0103
3353.00,0.0103
3352.00,0.0103
3351.00,0.0103
3350.00,0.0103
3349.00,0.0104
3348.00,0.0104
3347.00,0.0105
3346.00,0.0105
3345.00,0.0105
3344.00,0.0105
3343.00,0.0105
3342.00,0.0105
3341.00,0.0105
3340.00,0.0105
3339.00,0.0105
3338.00,0.0106
3337.00,0.0106
3336.00,0.0107
3335.00,0.0107
3334.00,0.0108
3333.00,0.0108
3332.00,0.0108
3331.00,0.0108
3330.00,0.0109
3329.00,0.0109
3328.00,0.0109
3327.00,0.0109
3326.00,0.0109
3325.00,0.0109
3324.00,0.0110
3323.00,0.0110
3322.00,0.0111
3321.00,0.0111
3320.00,0.0112
3319.00,0.0112
3318.00,0.0112
3317.00,0.0112
3316.00,0.0112
3315.00,0.0112
3314.00,0.0112
3313.00,0.0112
3312.00,0.0112
3311.00,0.0112
3310.00,0.0112
3309.00,0.0112
3308.00,0.0111
3307.00,0.0111
3306.00,0.0111
3305.00,0.0112
3304.00,0.0112
3303.00,0.0113
3302.00,0.0114
3301.00,0.0114
3300.00,0.0114
3299.00,0.0114
3298.00,0.0114
3297.00,0.0114
3296.00,0.0114
3295.00,0.0114
3294.00,0.0114
3293.00,0.0114
3292.00,0.0114
3291.00,0.0115
3290.00,0.0115
3289.00,0.0115
3288.00,0.0116
3287.00,0.0116
3286.00,0.0116
3285.00,0.0116
3284.00,0.0116
3283.00,0.0117
3282.00,0.0116
3281.00,0.0116
3280.00,0.0116
3279.00,0.0116
3278.00,0.0116
3277.00,0.0116
3276.00,0.0116
3275.00,0.0115
3274.00,0.0115
3273.00,0.0116
3272.00,0.0116
3271.00,0.0116
3270.00,0.0116
3269.00,0.0116
3268.00,0.0116
3267.00,0.0116
3266.00,0.0116
3265.00,0.0116
3264.00,0.0116
3263.00,0.0116
3262.00,0.0116
3261.00,0.0116
3260.00,0.0116
3259.00,0.0116
3258.00,0.0117
3257.00,0.0116
3256.00,0.0116
3255.00,0.0116
3254.00,0.0116
3253.00,0.0117
3252.00,0.0117
3251.00,0.0117
3250.00,0.0117
3249.00,0.0117
3248.00,0.0116
3247.00,0.0116
3246.00,0.0116
3245.00,0.0116
3244.00,0.0116
3243.00,0.0116
3242.00,0.0116
3241.00,0.0116
3240.00,0.0116
3239.00,0.0116
3238.00,0.0116
3237.00,0.0116
3236.00,0.0116
3235.00,0.0116
3234.00,0.0116
3233.00,0.0116
3232.00,0.0116
3231.00,0.0116
3230.00,0.0116
3229.00,0.0116
3228.00,0.0116
3227.00,0.0115
3226.00,0.0115
3225.00,0.0115
3224.00,0.0115
3223.00,0.0115
3222.00,0.0115
3221.00,0.0115
3220.00,0.0115
3219.00,0.0115
3218.00,0.0115
3217.00,0.0115
3216.00,0.0115
3215.00,0.0115
3214.00,0.0115
3213.00,0.0115
3212.00,0.0115
3211.00,0.0115
3210.00,0.0115
3209.00,0.0115
3208.00,0.0115
3207.00,0.0114
3206.00,0.0114
3205.00,0.0114
3204.00,0.0114
3203.00,0.0114
3202.00,0.0114
3201.00,0.0114
3200.00,0.0114
3199.00,0.0114
3198.00,0.0114
3197.00,0.0114
3196.00,0.0114
3195.00,0.0113
3194.00,0.0113
3193.00,0.0113
3192.00,0.0113
3191.00,0.0113
3190.00,0.0113
3189.00,0.0112
3188.00,0.0112
3187.00,0.0112
3186.00,0.0112
3185.00,0.0112
3184.00,0.0112
3183.00,0.0111
3182.00,0.0111
3181.00,0.0111
3180.00,0.0111
3179.00,0.0110
3178.00,0.0110
3177.00,0.0110
3176.00,0.0110
3175.00,0.0110
3174.00,0.0109
3173.00,0.0109
3172.00,0.0109
3171.00,0.0108
3170.00,0.0108
3169.00,0.0108
3168.00,0.0107
3167.00,0.0107
3166.00,0.0107
3165.00,0.0107
3164.00,0.0106
3163.00,0.0106
3162.00,0.0105
3161.00,0.0105
3160.00,0.0104
3159.00,0.0104
3158.00,0.0104
3157.00,0.0104
3156.00,0.0104
3155.00,0.0103
3154.00,0.0103
3153.00,0.0103
3152.00,0.0103
3151.00,0.0102
3150.00,0.0102
3149.00,0.0101
3148.00,0.0101
3147.00,0.0100
3146.00,0.0100
3145.00,0.0100
3144.00,0.0099
3143.00,0.0099
3142.00,0.0099
3141.00,0.0099
3140.00,0.0099
3139.00,0.0099
3138.00,0.0099
3137.00,0.0099
3136.00,0.0098
3135.00,0.0098
3134.00,0.0098
3133.00,0.0097
3132.00,0.0097
3131.00,0.0097
3130.00,0.0096
3129.00,0.0096
3128.00,0.0096
3127.00,0.0095
3126.00,0.0095
3125.00,0.0095
3124.00,0.0095
3123.00,0.0094
3122.00,0.0094
3121.00,0.0094
3120.00,0.0094
3119.00,0.0093
3118.00,0.0093
3117.00,0.0092
3116.00,0.0092
3115.00,0.0092
3114.00,0.0092
3113.00,0.0091
3112.00,0.0091
3111.00,0.0091
3110.00,0.0090
3109.00,0.0090
3108.00,0.0090
3107.00,0.0089
3106.00,0.0089
3105.00,0.0089
3104.00,0.0089
3103.00,0.0088
3102.00,0.0088
3101.00,0.0088
3100.00,0.0088
3099.00,0.0087
3098.00,0.0087
3097.00,0.0087
3096.00,0.0087
3095.00,0.0086
3094.00,0.0086
3093.00,0.0086
3092.00,0.0086
3091.00,0.0086
3090.00,0.0086
3089.00,0.0086
3088.00,0.0085
3087.00,0.0085
3086.00,0.0085
3085.00,0.0085
3084.00,0.0085
3083.00,0.0085
3082.00,0.0085
3081.00,0.0085
3080.00,0.0085
3079.00,0.0085
3078.00,0.0086
3077.00,0.0086
3076.00,0.0086
3075.00,0.0086
3074.00,0.0086
3073.00,0.0086
3072.00,0.0086
3071.00,0.0086
3070.00,0.0086
3069.00,0.0085
3068.00,0.0085
3067.00,0.0084
3066.00,0.0084
3065.00,0.0083
3064.00,0.0083
3063.00,0.0082
3062.00,0.0081
3061.00,0.0080
3060.00,0.0080
3059.00,0.0079
3058.00,0.0078
3057.00,0.0078
3056.00,0.0077
3055.00,0.0077
3054.00,0.0077
3053.00,0.0077
3052.00,0.0076
3051.00,0.0076
3050.00,0.0076
3049.00,0.0076
3048.00,0.0075
3047.00,0.0075
3046.00,0.0075
3045.00,0.0074
3044.00,0.0074
3043.00,0.0074
3042.00,0.0074
3041.00,0.0074
3040.00,0.0074
3039.00,0.0074
3038.00,0.0074
3037.00,0.0074
3036.00,0.0073
3035.00,0.0073
3034.00,0.0073
3033.00,0.0073
3032.00,0.0073
3031.00,0.0072
3030.00,0.0072
3029.00,0.0072
3028.00,0.0072
3027.00,0.0072
3026.00,0.0072
3025.00,0.0071
3024.00,0.0071
3023.00,0.0071
3022.00,0.0071
3021.00,0.0071
3020.00,0.0071
3019.00,0.0071
3018.00,0.0071
3017.00,0.0071
3016.00,0.0071
3015.00,0.0072
3014.00,0.0072
3013.00,0.0072
3012.00,0.0073
3011.00,0.0073
3010.00,0.0073
3009.00,0.0074
3008.00,0.0074
3007.00,0.0074
3006.00,0.0075
3005.00,0.0075
3004.00,0.0076
3003.00,0.0077
3002.00,0.0077
3001.00,0.0078
3000.00,0.0078
2999.00,0.0079
2998.00,0.0079
2997.00,0.0081
2996.00,0.0082
2995.00,0.0083
2994.00,0.0084
2993.00,0.0085
2992.00,0.0086
2991.00,0.0087
2990.00,0.0089
2989.00,0.0090
2988.00,0.0091
2987.00,0.0093
2986.00,0.0094
2985.00,0.0095
2984.00,0.0097
2983.00,0.0098
2982.00,0.0100
2981.00,0.0101
2980.00,0.0102
2979.00,0.0103
2978.00,0.0105
2977.00,0.0106
2976.00,0.0108
2975.00,0.0110
2974.00,0.0112
2973.00,0.0115
2972.00,0.0117
2971.00,0.0120
2970.00,0.0122
2969.00,0.0125
2968.00,0.0129
2967.00,0.0132
2966.00,0.0135
2965.00,0.0139
2964.00,0.0142
2963.00,0.0146
2962.00,0.0149
2961.00,0.0152
2960.00,0.0155
2959.00,0.0157
2958.00,0.0159
2957.00,0.0161
2956.00,0.0162
2955.00,0.0162
2954.00,0.0163
2953.00,0.0162
2952.00,0.0162
2951.00,0.0161
2950.00,0.0160
2949.00,0.0159
2948.00,0.0158
2947.00,0.0157
2946.00,0.0157
2945.00,0.0156
2944.00,0.0157
2943.00,0.0158
2942.00,0.0160
2941.00,0.0161
2940.00,0.0164
2939.00,0.0167
2938.00,0.0170
2937.00,0.0174
2936.00,0.0178
2935.00,0.0182
2934.00,0.0186
2933.00,0.0190
2932.00,0.0194
2931.00,0.0198
2930.00,0.0202
2929.00,0.0205
2928.00,0.0208
2927.00,0.0211
2926.00,0.0213
2925.00,0.0214
2924.00,0.0215
2923.00,0.0216
2922.00,0.0216
2921.00,0.0215
2920.00,0.0214
2919.00,0.0213
2918.00,0.0211
2917.00,0.0209
2916.00,0.0206
2915.00,0.0204
2914.00,0.0201
2913.00,0.0198
2912.00,0.0195
2911.00,0.0192
2910.00,0.0189
2909.00,0.0186
2908.00,0.0183
2907.00,0.0180
2906.00,0.0178
2905.00,0.0175
2904.00,0.0173
2903.00,0.0170
2902.00,0.0168
2901.00,0.0166
2900.00,0.0165
2899.00,0.0163
2898.00,0.0162
2897.00,0.0160
2896.00,0.0159
2895.00,0.0158
2894.00,0.0156
2893.00,0.0155
2892.00,0.0154
2891.00,0.0152
2890.00,0.0151
2889.00,0.0150
2888.00,0.0149
2887.00,0.0148
2886.00,0.0147
2885.00,0.0147
2884.00,0.0146
2883.00,0.0146
2882.00,0.0145
2881.00,0.0145
2880.00,0.0145
2879.00,0.0145
2878.00,0.0145
2877.00,0.0145
2876.00,0.0145
2875.00,0.0146
2874.00,0.0147
2873.00,0.0148
2872.00,0.0148
2871.00,0.0149
2870.00,0.0149
2869.00,0.0149
2868.00,0.0149
2867.00,0.0148
2866.00,0.0148
2865.00,0.0148
2864.00,0.0149
2863.00,0.0150
2862.00,0.0151
2861.00,0.0153
2860.00,0.0155
2859.00,0.0157
2858.00,0.0159
2857.00,0.0161
2856.00,0.0162
2855.00,0.0162
2854.00,0.0161
2853.00,0.0159
2852.00,0.0157
2851.00,0.0154
2850.00,0.0150
2849.00,0.0146
2848.00,0.0141
2847.00,0.0137
2846.00,0.0132
2845.00,0.0128
2844.00,0.0124
2843.00,0.0120
2842.00,0.0116
2841.00,0.0113
2840.00,0.0110
2839.00,0.0108
2838.00,0.0106
2837.00,0.0105
2836.00,0.0105
2835.00,0.0105
2834.00,0.0104
2833.00,0.0104
2832.00,0.0104
2831.00,0.0104
2830.00,0.0104
2829.00,0.0103
2828.00,0.0101
2827.00,0.0100
2826.00,0.0098
2825.00,0.0096
2824.00,0.0093
2823.00,0.0091
2822.00,0.0089
2821.00,0.0087
2820.00,0.0085
2819.00,0.0083
2818.00,0.0082
2817.00,0.0080
2816.00,0.0079
2815.00,0.0078
2814.00,0.0077
2813.00,0.0076
2812.00,0.0075
2811.00,0.0074
2810.00,0.0074
2809.00,0.0073
2808.00,0.0072
2807.00,0.0072
2806.00,0.0071
2805.00,0.0071
2804.00,0.0070
2803.00,0.0070
2802.00,0.0069
2801.00,0.0069
2800.00,0.0069
2799.00,0.0068
2798.00,0.0068
2797.00,0.0068
2796.00,0.0067
2795.00,0.0067
2794.00,0.0066
2793.00,0.0066
2792.00,0.0066
2791.00,0.0066
2790.00,0.0065
2789.00,0.0065
2788.00,0.0065
2787.00,0.0065
2786.00,0.0065
2785.00,0.0064
2784.00,0.0064
2783.00,0.0064
2782.00,0.0064
2781.00,0.0063
2780.00,0.0063
2779.00,0.0063
2778.00,0.0063
2777.00,0.0063
2776.00,0.0063
2775.00,0.0062
2774.00,0.0063
2773.00,0.0063
2772.00,0.0063
2771.00,0.0062
2770.00,0.0062
2769.00,0.0062
2768.00,0.0062
2767.00,0.0062
2766.00,0.0062
2765.00,0.0061
2764.00,0.0061
2763.00,0.0061
2762.00,0.0061
2761.00,0.0061
2760.00,0.0061
2759.00,0.0061
2758.00,0.0061
2757.00,0.0061
