Created as New Dataset,Sample 345 By YargerLab Date Tuesday, November 11 2025
cm-1,A
4000.00,0.0058
3999.00,0.0058
3998.00,0.0059
3997.00,0.0059
3996.00,0.0058
3995.00,0.0058
3994.00,0.0058
3993.00,0.0058
3992.00,0.0058
3991.00,0.0058
3990.00,0.0058
3989.00,0.0057
3988.00,0.0057
3987.00,0.0057
3986.00,0.0058
3985.00,0.0058
3984.00,0.0058
3983.00,0.0058
3982.00,0.0058
3981.00,0.0058
3980.00,0.0058
3979.00,0.0058
3978.00,0.0058
3977.00,0.0058
3976.00,0.0059
3975.00,0.0058
3974.00,0.0058
3973.00,0.0058
3972.00,0.0058
3971.00,0.0058
3970.00,0.0057
3969.00,0.0057
3968.00,0.0058
3967.00,0.0058
3966.00,0.0058
3965.00,0.0058
3964.00,0.0058
3963.00,0.0058
3962.00,0.0059
3961.00,0.0059
3960.00,0.0059
3959.00,0.0059
3958.00,0.0058
3957.00,0.0058
3956.00,0.0057
3955.00,0.0057
3954.00,0.0058
3953.00,0.0058
3952.00,0.0058
3951.00,0.0058
3950.00,0.0059
3949.00,0.0059
3948.00,0.0059
3947.00,0.0059
3946.00,0.0059
3945.00,0.0059
3944.00,0.0059
3943.00,0.0059
3942.00,0.0058
3941.00,0.0058
3940.00,0.0058
3939.00,0.0059
3938.00,0.0058
3937.00,0.0058
3936.00,0.0058
3935.00,0.0058
3934.00,0.0059
3933.00,0.0059
3932.00,0.0058
3931.00,0.0058
3930.00,0.0059
3929.00,0.0059
3928.00,0.0059
3927.00,0.0059
3926.00,0.0058
3925.00,0.0058
3924.00,0.0058
3923.00,0.0058
3922.00,0.0058
3921.00,0.0059
3920.00,0.0059
3919.00,0.0060
3918.00,0.0060
3917.00,0.0060
3916.00,0.0060
3915.00,0.0059
3914.00,0.0059
3913.00,0.0058
3912.00,0.0058
3911.00,0.0057
3910.00,0.0057
3909.00,0.0057
3908.00,0.0058
3907.00,0.0058
3906.00,0.0059
3905.00,0.0060
3904.00,0.0061
3903.00,0.0062
3902.00,0.0063
3901.00,0.0063
3900.00,0.0063
3899.00,0.0061
3898.00,0.0060
3897.00,0.0060
3896.00,0.0059
3895.00,0.0059
3894.00,0.0059
3893.00,0.0059
3892.00,0.0058
3891.00,0.0058
3890.00,0.0059
3889.00,0.0059
3888.00,0.0060
3887.00,0.0061
3886.00,0.0060
3885.00,0.0060
3884.00,0.0060
3883.00,0.0060
3882.00,0.0061
3881.00,0.0061
3880.00,0.0060
3879.00,0.0060
3878.00,0.0060
3877.00,0.0060
3876.00,0.0060
3875.00,0.0060
3874.00,0.0059
3873.00,0.0060
3872.00,0.0061
3871.00,0.0062
3870.00,0.0062
3869.00,0.0061
3868.00,0.0061
3867.00,0.0061
3866.00,0.0062
3865.00,0.0061
3864.00,0.0061
3863.00,0.0061
3862.00,0.0061
3861.00,0.0061
3860.00,0.0060
3859.00,0.0060
3858.00,0.0059
3857.00,0.0058
3856.00,0.0058
3855.00,0.0058
3854.00,0.0058
3853.00,0.0059
3852.00,0.0060
3851.00,0.0061
3850.00,0.0061
3849.00,0.0061
3848.00,0.0061
3847.00,0.0060
3846.00,0.0060
3845.00,0.0060
3844.00,0.0060
3843.00,0.0061
3842.00,0.0061
3841.00,0.0062
3840.00,0.0062
3839.00,0.0062
3838.00,0.0062
3837.00,0.0061
3836.00,0.0060
3835.00,0.0060
3834.00,0.0060
3833.00,0.0061
3832.00,0.0061
3831.00,0.0061
3830.00,0.0060
3829.00,0.0060
3828.00,0.0060
3827.00,0.0060
3826.00,0.0060
3825.00,0.0060
3824.00,0.0061
3823.00,0.0061
3822.00,0.0061
3821.00,0.0060
3820.00,0.0060
3819.00,0.0060
3818.00,0.0061
3817.00,0.0061
3816.00,0.0060
3815.00,0.0059
3814.00,0.0059
3813.00,0.0059
3812.00,0.0059
3811.00,0.0059
3810.00,0.0058
3809.00,0.0059
3808.00,0.0059
3807.00,0.0060
3806.00,0.0060
3805.00,0.0060
3804.00,0.0061
3803.00,0.0062
3802.00,0.0061
3801.00,0.0060
3800.00,0.0059
3799.00,0.0060
3798.00,0.0060
3797.00,0.0060
3796.00,0.0060
3795.00,0.0059
3794.00,0.0059
3793.00,0.0058
3792.00,0.0058
3791.00,0.0058
3790.00,0.0058
3789.00,0.0057
3788.00,0.0057
3787.00,0.0057
3786.00,0.0057
3785.00,0.0057
3784.00,0.0056
3783.00,0.0057
3782.00,0.0057
3781.00,0.0058
3780.00,0.0058
3779.00,0.0058
3778.00,0.0058
3777.00,0.0058
3776.00,0.0058
3775.00,0.0058
3774.00,0.0057
3773.00,0.0057
3772.00,0.0058
3771.00,0.0058
3770.00,0.0058
3769.00,0.0059
3768.00,0.0059
3767.00,0.0059
3766.00,0.0058
3765.00,0.0058
3764.00,0.0058
3763.00,0.0058
3762.00,0.0059
3761.00,0.0059
3760.00,0.0060
3759.00,0.0060
3758.00,0.0061
3757.00,0.0061
3756.00,0.0061
3755.00,0.0061
3754.00,0.0061
3753.00,0.0061
3752.00,0.0062
3751.00,0.0062
3750.00,0.0063
3749.00,0.0064
3748.00,0.0064
3747.00,0.0065
3746.00,0.0065
3745.00,0.0065
3744.00,0.0063
3743.00,0.0062
3742.00,0.0062
3741.00,0.0063
3740.00,0.0064
3739.00,0.0064
3738.00,0.0065
3737.00,0.0065
3736.00,0.0065
3735.00,0.0064
3734.00,0.0064
3733.00,0.0064
3732.00,0.0063
3731.00,0.0062
3730.00,0.0062
3729.00,0.0062
3728.00,0.0062
3727.00,0.0061
3726.00,0.0061
3725.00,0.0060
3724.00,0.0060
3723.00,0.0060
3722.00,0.0060
3721.00,0.0059
3720.00,0.0059
3719.00,0.0058
3718.00,0.0058
3717.00,0.0057
3716.00,0.0057
3715.00,0.0058
3714.00,0.0058
3713.00,0.0059
3712.00,0.0059
3711.00,0.0059
3710.00,0.0060
3709.00,0.0060
3708.00,0.0060
3707.00,0.0060
3706.00,0.0059
3705.00,0.0059
3704.00,0.0058
3703.00,0.0057
3702.00,0.0057
3701.00,0.0057
3700.00,0.0057
3699.00,0.0057
3698.00,0.0057
3697.00,0.0057
3696.00,0.0056
3695.00,0.0056
3694.00,0.0057
3693.00,0.0057
3692.00,0.0058
3691.00,0.0058
3690.00,0.0059
3689.00,0.0060
3688.00,0.0061
3687.00,0.0061
3686.00,0.0061
3685.00,0.0061
3684.00,0.0061
3683.00,0.0061
3682.00,0.0061
3681.00,0.0061
3680.00,0.0061
3679.00,0.0062
3678.00,0.0063
3677.00,0.0064
3676.00,0.0065
3675.00,0.0065
3674.00,0.0065
3673.00,0.0066
3672.00,0.0067
3671.00,0.0067
3670.00,0.0066
3669.00,0.0065
3668.00,0.0064
3667.00,0.0064
3666.00,0.0064
3665.00,0.0063
3664.00,0.0063
3663.00,0.0063
3662.00,0.0062
3661.00,0.0062
3660.00,0.0062
3659.00,0.0063
3658.00,0.0063
3657.00,0.0064
3656.00,0.0064
3655.00,0.0064
3654.00,0.0065
3653.00,0.0067
3652.00,0.0068
3651.00,0.0069
3650.00,0.0070
3649.00,0.0070
3648.00,0.0071
3647.00,0.0071
3646.00,0.0071
3645.00,0.0070
3644.00,0.0069
3643.00,0.0068
3642.00,0.0066
3641.00,0.0065
3640.00,0.0065
3639.00,0.0065
3638.00,0.0065
3637.00,0.0066
3636.00,0.0066
3635.00,0.0066
3634.00,0.0066
3633.00,0.0066
3632.00,0.0067
3631.00,0.0068
3630.00,0.0069
3629.00,0.0069
3628.00,0.0070
3627.00,0.0070
3626.00,0.0071
3625.00,0.0071
3624.00,0.0071
3623.00,0.0070
3622.00,0.0070
3621.00,0.0070
3620.00,0.0070
3619.00,0.0071
3618.00,0.0071
3617.00,0.0073
3616.00,0.0074
3615.00,0.0074
3614.00,0.0074
3613.00,0.0074
3612.00,0.0074
3611.00,0.0075
3610.00,0.0075
3609.00,0.0075
3608.00,0.0074
3607.00,0.0074
3606.00,0.0073
3605.00,0.0073
3604.00,0.0073
3603.00,0.0073
3602.00,0.0072
3601.00,0.0072
3600.00,0.0072
3599.00,0.0073
3598.00,0.0073
3597.00,0.0074
3596.00,0.0075
3595.00,0.0075
3594.00,0.0075
3593.00,0.0076
3592.00,0.0076
3591.00,0.0077
3590.00,0.0078
3589.00,0.0078
3588.00,0.0078
3587.00,0.0079
3586.00,0.0079
3585.00,0.0080
3584.00,0.0080
3583.00,0.0080
3582.00,0.0080
3581.00,0.0080
3580.00,0.0080
3579.00,0.0080
3578.00,0.0080
3577.00,0.0080
3576.00,0.0080
3575.00,0.0081
3574.00,0.0081
3573.00,0.0082
3572.00,0.0083
3571.00,0.0084
3570.00,0.0085
3569.00,0.0087
3568.00,0.0088
3567.00,0.0088
3566.00,0.0089
3565.00,0.0090
3564.00,0.0090
3563.00,0.0090
3562.00,0.0089
3561.00,0.0088
3560.00,0.0088
3559.00,0.0088
3558.00,0.0088
3557.00,0.0088
3556.00,0.0089
3555.00,0.0089
3554.00,0.0090
3553.00,0.0090
3552.00,0.0091
3551.00,0.0092
3550.00,0.0094
3549.00,0.0095
3548.00,0.0096
3547.00,0.0096
3546.00,0.0096
3545.00,0.0096
3544.00,0.0096
3543.00,0.0097
3542.00,0.0097
3541.00,0.0098
3540.00,0.0098
3539.00,0.0098
3538.00,0.0098
3537.00,0.0098
3536.00,0.0099
3535.00,0.0100
3534.00,0.0100
3533.00,0.0101
3532.00,0.0102
3531.00,0.0102
3530.00,0.0103
3529.00,0.0103
3528.00,0.0104
3527.00,0.0105
3526.00,0.0106
3525.00,0.0107
3524.00,0.0108
3523.00,0.0109
3522.00,0.0111
3521.00,0.0112
3520.00,0.0112
3519.00,0.0112
3518.00,0.0112
3517.00,0.0112
3516.00,0.0112
3515.00,0.0112
3514.00,0.0113
3513.00,0.0113
3512.00,0.0114
3511.00,0.0114
3510.00,0.0115
3509.00,0.0116
3508.00,0.0117
3507.00,0.0119
3506.00,0.0120
3505.00,0.0122
3504.00,0.0123
3503.00,0.0123
3502.00,0.0124
3501.00,0.0125
3500.00,0.0126
3499.00,0.0126
3498.00,0.0127
3497.00,0.0127
3496.00,0.0128
3495.00,0.0129
3494.00,0.0130
3493.00,0.0131
3492.00,0.0132
3491.00,0.0133
3490.00,0.0134
3489.00,0.0134
3488.00,0.0135
3487.00,0.0137
3486.00,0.0138
3485.00,0.0139
3484.00,0.0140
3483.00,0.0141
3482.00,0.0143
3481.00,0.0144
3480.00,0.0145
3479.00,0.0146
3478.00,0.0148
3477.00,0.0149
3476.00,0.0150
3475.00,0.0151
3474.00,0.0152
3473.00,0.0154
3472.00,0.0155
3471.00,0.0156
3470.00,0.0157
3469.00,0.0158
3468.00,0.0159
3467.00,0.0160
3466.00,0.0161
3465.00,0.0162
3464.00,0.0163
3463.00,0.0164
3462.00,0.0165
3461.00,0.0166
3460.00,0.0167
3459.00,0.0168
3458.00,0.0169
3457.00,0.0170
3456.00,0.0171
3455.00,0.0172
3454.00,0.0173
3453.00,0.0174
3452.00,0.0175
3451.00,0.0175
3450.00,0.0176
3449.00,0.0177
3448.00,0.0179
3447.00,0.0179
3446.00,0.0180
3445.00,0.0180
3444.00,0.0181
3443.00,0.0181
3442.00,0.0181
3441.00,0.0182
3440.00,0.0183
3439.00,0.0184
3438.00,0.0185
3437.00,0.0186
3436.00,0.0187
3435.00,0.0187
3434.00,0.0188
3433.00,0.0189
3432.00,0.0189
3431.00,0.0190
3430.00,0.0190
3429.00,0.0191
3428.00,0.0192
3427.00,0.0193
3426.00,0.0193
3425.00,0.0194
3424.00,0.0195
3423.00,0.0195
3422.00,0.0196
3421.00,0.0196
3420.00,0.0197
3419.00,0.0197
3418.00,0.0198
3417.00,0.0199
3416.00,0.0199
3415.00,0.0200
3414.00,0.0200
3413.00,0.0201
3412.00,0.0201
3411.00,0.0202
3410.00,0.0202
3409.00,0.0203
3408.00,0.0203
3407.00,0.0204
3406.00,0.0204
3405.00,0.0205
3404.00,0.0206
3403.00,0.0206
3402.00,0.0207
3401.00,0.0208
3400.00,0.0209
3399.00,0.0209
3398.00,0.0210
3397.00,0.0211
3396.00,0.0211
3395.00,0.0212
3394.00,0.0212
3393.00,0.0213
3392.00,0.0214
3391.00,0.0215
3390.00,0.0216
3389.00,0.0217
3388.00,0.0218
3387.00,0.0219
3386.00,0.0219
3385.00,0.0220
3384.00,0.0221
3383.00,0.0221
3382.00,0.0222
3381.00,0.0223
3380.00,0.0223
3379.00,0.0224
3378.00,0.0225
3377.00,0.0225
3376.00,0.0226
3375.00,0.0226
3374.00,0.0227
3373.00,0.0227
3372.00,0.0227
3371.00,0.0227
3370.00,0.0227
3369.00,0.0228
3368.00,0.0230
3367.00,0.0232
3366.00,0.0233
3365.00,0.0234
3364.00,0.0235
3363.00,0.0236
3362.00,0.0236
3361.00,0.0237
3360.00,0.0237
3359.00,0.0238
3358.00,0.0239
3357.00,0.0239
3356.00,0.0240
3355.00,0.0241
3354.00,0.0241
3353.00,0.0241
3352.00,0.0241
3351.00,0.0241
3350.00,0.0242
3349.00,0.0243
3348.00,0.0244
3347.00,0.0245
3346.00,0.0246
3345.00,0.0246
3344.00,0.0246
3343.00,0.0246
3342.00,0.0246
3341.00,0.0246
3340.00,0.0247
3339.00,0.0248
3338.00,0.0248
3337.00,0.0249
3336.00,0.0250
3335.00,0.0251
3334.00,0.0252
3333.00,0.0253
3332.00,0.0254
3331.00,0.0254
3330.00,0.0255
3329.00,0.0255
3328.00,0.0255
3327.00,0.0255
3326.00,0.0256
3325.00,0.0256
3324.00,0.0257
3323.00,0.0258
3322.00,0.0259
3321.00,0.0260
3320.00,0.0260
3319.00,0.0261
3318.00,0.0261
3317.00,0.0261
3316.00,0.0261
3315.00,0.0262
3314.00,0.0262
3313.00,0.0263
3312.00,0.0263
3311.00,0.0263
3310.00,0.0262
3309.00,0.0261
3308.00,0.0261
3307.00,0.0261
3306.00,0.0262
3305.00,0.0263
3304.00,0.0265
3303.00,0.0266
3302.00,0.0267
3301.00,0.0267
3300.00,0.0267
3299.00,0.0267
3298.00,0.0267
3297.00,0.0267
3296.00,0.0267
3295.00,0.0267
3294.00,0.0267
3293.00,0.0268
3292.00,0.0268
3291.00,0.0269
3290.00,0.0270
3289.00,0.0270
3288.00,0.0270
3287.00,0.0271
3286.00,0.0271
3285.00,0.0271
3284.00,0.0271
3283.00,0.0272
3282.00,0.0272
3281.00,0.0272
3280.00,0.0272
3279.00,0.0271
3278.00,0.0271
3277.00,0.0271
3276.00,0.0271
3275.00,0.0271
3274.00,0.0270
3273.00,0.0270
3272.00,0.0270
3271.00,0.0271
3270.00,0.0271
3269.00,0.0271
3268.00,0.0272
3267.00,0.0272
3266.00,0.0272
3265.00,0.0272
3264.00,0.0272
3263.00,0.0272
3262.00,0.0273
3261.00,0.0273
3260.00,0.0273
3259.00,0.0272
3258.00,0.0272
3257.00,0.0272
3256.00,0.0272
3255.00,0.0272
3254.00,0.0272
3253.00,0.0272
3252.00,0.0272
3251.00,0.0272
3250.00,0.0271
3249.00,0.0270
3248.00,0.0270
3247.00,0.0270
3246.00,0.0271
3245.00,0.0271
3244.00,0.0271
3243.00,0.0271
3242.00,0.0271
3241.00,0.0271
3240.00,0.0271
3239.00,0.0270
3238.00,0.0270
3237.00,0.0270
3236.00,0.0270
3235.00,0.0270
3234.00,0.0269
3233.00,0.0269
3232.00,0.0269
3231.00,0.0269
3230.00,0.0269
3229.00,0.0269
3228.00,0.0269
3227.00,0.0269
3226.00,0.0269
3225.00,0.0268
3224.00,0.0267
3223.00,0.0266
3222.00,0.0265
3221.00,0.0265
3220.00,0.0265
3219.00,0.0266
3218.00,0.0266
3217.00,0.0266
3216.00,0.0266
3215.00,0.0265
3214.00,0.0265
3213.00,0.0264
3212.00,0.0264
3211.00,0.0264
3210.00,0.0264
3209.00,0.0264
3208.00,0.0264
3207.00,0.0263
3206.00,0.0263
3205.00,0.0262
3204.00,0.0262
3203.00,0.0262
3202.00,0.0262
3201.00,0.0262
3200.00,0.0262
3199.00,0.0262
3198.00,0.0262
3197.00,0.0261
3196.00,0.0260
3195.00,0.0260
3194.00,0.0259
3193.00,0.0259
3192.00,0.0259
3191.00,0.0258
3190.00,0.0258
3189.00,0.0258
3188.00,0.0258
3187.00,0.0257
3186.00,0.0256
3185.00,0.0256
3184.00,0.0255
3183.00,0.0254
3182.00,0.0254
3181.00,0.0253
3180.00,0.0252
3179.00,0.0252
3178.00,0.0251
3177.00,0.0250
3176.00,0.0250
3175.00,0.0249
3174.00,0.0249
3173.00,0.0248
3172.00,0.0248
3171.00,0.0247
3170.00,0.0246
3169.00,0.0245
3168.00,0.0244
3167.00,0.0243
3166.00,0.0243
3165.00,0.0242
3164.00,0.0241
3163.00,0.0240
3162.00,0.0239
3161.00,0.0239
3160.00,0.0238
3159.00,0.0237
3158.00,0.0236
3157.00,0.0235
3156.00,0.0235
3155.00,0.0233
3154.00,0.0232
3153.00,0.0231
3152.00,0.0230
3151.00,0.0230
3150.00,0.0230
3149.00,0.0229
3148.00,0.0229
3147.00,0.0228
3146.00,0.0227
3145.00,0.0226
3144.00,0.0225
3143.00,0.0224
3142.00,0.0224
3141.00,0.0223
3140.00,0.0223
3139.00,0.0222
3138.00,0.0221
3137.00,0.0220
3136.00,0.0220
3135.00,0.0219
3134.00,0.0219
3133.00,0.0218
3132.00,0.0217
3131.00,0.0216
3130.00,0.0215
3129.00,0.0215
3128.00,0.0214
3127.00,0.0214
3126.00,0.0213
3125.00,0.0213
3124.00,0.0212
3123.00,0.0211
3122.00,0.0210
3121.00,0.0209
3120.00,0.0208
3119.00,0.0208
3118.00,0.0207
3117.00,0.0207
3116.00,0.0206
3115.00,0.0205
3114.00,0.0204
3113.00,0.0204
3112.00,0.0203
3111.00,0.0202
3110.00,0.0201
3109.00,0.0201
3108.00,0.0200
3107.00,0.0199
3106.00,0.0198
3105.00,0.0197
3104.00,0.0197
3103.00,0.0196
3102.00,0.0195
3101.00,0.0195
3100.00,0.0194
3099.00,0.0193
3098.00,0.0193
3097.00,0.0192
3096.00,0.0191
3095.00,0.0190
3094.00,0.0190
3093.00,0.0189
3092.00,0.0189
3091.00,0.0189
3090.00,0.0188
3089.00,0.0188
3088.00,0.0188
3087.00,0.0188
3086.00,0.0187
3085.00,0.0187
3084.00,0.0187
3083.00,0.0187
3082.00,0.0187
3081.00,0.0187
3080.00,0.0187
3079.00,0.0188
3078.00,0.0188
3077.00,0.0188
3076.00,0.0189
3075.00,0.0189
3074.00,0.0189
3073.00,0.0188
3072.00,0.0188
3071.00,0.0187
3070.00,0.0186
3069.00,0.0185
3068.00,0.0184
3067.00,0.0183
3066.00,0.0182
3065.00,0.0181
3064.00,0.0179
3063.00,0.0178
3062.00,0.0176
3061.00,0.0174
3060.00,0.0173
3059.00,0.0172
3058.00,0.0170
3057.00,0.0169
3056.00,0.0168
3055.00,0.0167
3054.00,0.0166
3053.00,0.0166
3052.00,0.0165
3051.00,0.0164
3050.00,0.0164
3049.00,0.0163
3048.00,0.0163
3047.00,0.0162
3046.00,0.0161
3045.00,0.0161
3044.00,0.0160
3043.00,0.0160
3042.00,0.0160
3041.00,0.0160
3040.00,0.0159
3039.00,0.0159
3038.00,0.0158
3037.00,0.0158
3036.00,0.0158
3035.00,0.0157
3034.00,0.0157
3033.00,0.0156
3032.00,0.0156
3031.00,0.0155
3030.00,0.0155
3029.00,0.0155
3028.00,0.0155
3027.00,0.0154
3026.00,0.0154
3025.00,0.0154
3024.00,0.0154
3023.00,0.0155
3022.00,0.0156
3021.00,0.0157
3020.00,0.0158
3019.00,0.0156
3018.00,0.0154
3017.00,0.0152
3016.00,0.0153
3015.00,0.0155
3014.00,0.0158
3013.00,0.0160
3012.00,0.0162
3011.00,0.0164
3010.00,0.0167
3009.00,0.0169
3008.00,0.0171
3007.00,0.0173
3006.00,0.0176
3005.00,0.0178
3004.00,0.0181
3003.00,0.0184
3002.00,0.0187
3001.00,0.0191
3000.00,0.0194
2999.00,0.0198
2998.00,0.0202
2997.00,0.0205
2996.00,0.0209
2995.00,0.0213
2994.00,0.0217
2993.00,0.0222
2992.00,0.0227
2991.00,0.0233
2990.00,0.0239
2989.00,0.0244
2988.00,0.0250
2987.00,0.0256
2986.00,0.0263
2985.00,0.0270
2984.00,0.0278
2983.00,0.0286
2982.00,0.0294
2981.00,0.0300
2980.00,0.0305
2979.00,0.0310
2978.00,0.0315
2977.00,0.0320
2976.00,0.0326
2975.00,0.0333
2974.00,0.0340
2973.00,0.0348
2972.00,0.0355
2971.00,0.0362
2970.00,0.0369
2969.00,0.0376
2968.00,0.0383
2967.00,0.0391
2966.00,0.0398
2965.00,0.0405
2964.00,0.0412
2963.00,0.0418
2962.00,0.0423
2961.00,0.0428
2960.00,0.0432
2959.00,0.0435
2958.00,0.0438
2957.00,0.0439
2956.00,0.0440
2955.00,0.0439
2954.00,0.0437
2953.00,0.0434
2952.00,0.0431
2951.00,0.0428
2950.00,0.0424
2949.00,0.0421
2948.00,0.0417
2947.00,0.0415
2946.00,0.0413
2945.00,0.0413
2944.00,0.0414
2943.00,0.0417
2942.00,0.0421
2941.00,0.0426
2940.00,0.0432
2939.00,0.0439
2938.00,0.0447
2937.00,0.0456
2936.00,0.0465
2935.00,0.0475
2934.00,0.0485
2933.00,0.0495
2932.00,0.0504
2931.00,0.0514
2930.00,0.0522
2929.00,0.0529
2928.00,0.0536
2927.00,0.0541
2926.00,0.0545
2925.00,0.0547
2924.00,0.0549
2923.00,0.0549
2922.00,0.0548
2921.00,0.0546
2920.00,0.0542
2919.00,0.0538
2918.00,0.0532
2917.00,0.0525
2916.00,0.0518
2915.00,0.0511
2914.00,0.0503
2913.00,0.0495
2912.00,0.0487
2911.00,0.0479
2910.00,0.0471
2909.00,0.0464
2908.00,0.0456
2907.00,0.0449
2906.00,0.0442
2905.00,0.0435
2904.00,0.0429
2903.00,0.0423
2902.00,0.0418
2901.00,0.0414
2900.00,0.0410
2899.00,0.0407
2898.00,0.0404
2897.00,0.0401
2896.00,0.0399
2895.00,0.0397
2894.00,0.0395
2893.00,0.0392
2892.00,0.0390
2891.00,0.0387
2890.00,0.0384
2889.00,0.0382
2888.00,0.0380
2887.00,0.0378
2886.00,0.0376
2885.00,0.0375
2884.00,0.0374
2883.00,0.0373
2882.00,0.0372
2881.00,0.0371
2880.00,0.0371
2879.00,0.0370
2878.00,0.0370
2877.00,0.0370
2876.00,0.0371
2875.00,0.0372
2874.00,0.0373
2873.00,0.0375
2872.00,0.0376
2871.00,0.0376
2870.00,0.0376
2869.00,0.0375
2868.00,0.0374
2867.00,0.0372
2866.00,0.0371
2865.00,0.0372
2864.00,0.0373
2863.00,0.0375
2862.00,0.0378
2861.00,0.0381
2860.00,0.0385
2859.00,0.0390
2858.00,0.0393
2857.00,0.0395
2856.00,0.0395
2855.00,0.0394
2854.00,0.0390
2853.00,0.0384
2852.00,0.0376
2851.00,0.0366
2850.00,0.0355
2849.00,0.0343
2848.00,0.0331
2847.00,0.0320
2846.00,0.0308
2845.00,0.0297
2844.00,0.0287
2843.00,0.0277
2842.00,0.0268
2841.00,0.0260
2840.00,0.0254
2839.00,0.0249
2838.00,0.0245
2837.00,0.0242
2836.00,0.0241
2835.00,0.0239
2834.00,0.0237
2833.00,0.0236
2832.00,0.0234
2831.00,0.0232
2830.00,0.0230
2829.00,0.0227
2828.00,0.0223
2827.00,0.0219
2826.00,0.0214
2825.00,0.0209
2824.00,0.0204
2823.00,0.0198
2822.00,0.0193
2821.00,0.0188
2820.00,0.0184
2819.00,0.0179
2818.00,0.0176
2817.00,0.0172
2816.00,0.0169
2815.00,0.0167
2814.00,0.0164
2813.00,0.0162
2812.00,0.0160
2811.00,0.0158
2810.00,0.0157
2809.00,0.0155
2808.00,0.0154
2807.00,0.0152
2806.00,0.0151
2805.00,0.0149
2804.00,0.0148
2803.00,0.0146
2802.00,0.0145
2801.00,0.0144
2800.00,0.0143
2799.00,0.0143
2798.00,0.0142
2797.00,0.0141
2796.00,0.0141
2795.00,0.0140
2794.00,0.0139
2793.00,0.0138
2792.00,0.0138
2791.00,0.0137
2790.00,0.0137
2789.00,0.0136
2788.00,0.0136
2787.00,0.0136
2786.00,0.0135
2785.00,0.0134
2784.00,0.0134
2783.00,0.0133
2782.00,0.0133
2781.00,0.0132
2780.00,0.0132
2779.00,0.0131
2778.00,0.0131
2777.00,0.0130
2776.00,0.0130
2775.00,0.0129
2774.00,0.0129
2773.00,0.0129
2772.00,0.0128
2771.00,0.0128
2770.00,0.0127
2769.00,0.0127
2768.00,0.0127
2767.00,0.0126
2766.00,0.0126
2765.00,0.0126
2764.00,0.0126
2763.00,0.0126
2762.00,0.0126
2761.00,0.0126
2760.00,0.0126
2759.00,0.0126
2758.00,0.0126
2757.00,0.0125
