Created as New Dataset,Sample 340 By YargerLab Date Tuesday, November 11 2025
cm-1,A
4000.00,0.0236
3999.00,0.0236
3998.00,0.0236
3997.00,0.0236
3996.00,0.0236
3995.00,0.0236
3994.00,0.0236
3993.00,0.0235
3992.00,0.0235
3991.00,0.0235
3990.00,0.0235
3989.00,0.0235
3988.00,0.0235
3987.00,0.0235
3986.00,0.0235
3985.00,0.0235
3984.00,0.0235
3983.00,0.0235
3982.00,0.0235
3981.00,0.0235
3980.00,0.0235
3979.00,0.0235
3978.00,0.0235
3977.00,0.0234
3976.00,0.0234
3975.00,0.0233
3974.00,0.0233
3973.00,0.0233
3972.00,0.0233
3971.00,0.0233
3970.00,0.0233
3969.00,0.0233
3968.00,0.0233
3967.00,0.0233
3966.00,0.0233
3965.00,0.0232
3964.00,0.0232
3963.00,0.0232
3962.00,0.0232
3961.00,0.0233
3960.00,0.0233
3959.00,0.0233
3958.00,0.0233
3957.00,0.0232
3956.00,0.0232
3955.00,0.0232
3954.00,0.0232
3953.00,0.0232
3952.00,0.0232
3951.00,0.0231
3950.00,0.0231
3949.00,0.0230
3948.00,0.0230
3947.00,0.0230
3946.00,0.0230
3945.00,0.0230
3944.00,0.0230
3943.00,0.0230
3942.00,0.0230
3941.00,0.0230
3940.00,0.0230
3939.00,0.0230
3938.00,0.0230
3937.00,0.0229
3936.00,0.0230
3935.00,0.0230
3934.00,0.0230
3933.00,0.0231
3932.00,0.0230
3931.00,0.0229
3930.00,0.0228
3929.00,0.0228
3928.00,0.0227
3927.00,0.0227
3926.00,0.0227
3925.00,0.0227
3924.00,0.0227
3923.00,0.0227
3922.00,0.0227
3921.00,0.0228
3920.00,0.0228
3919.00,0.0228
3918.00,0.0228
3917.00,0.0227
3916.00,0.0227
3915.00,0.0227
3914.00,0.0227
3913.00,0.0227
3912.00,0.0227
3911.00,0.0227
3910.00,0.0226
3909.00,0.0226
3908.00,0.0226
3907.00,0.0226
3906.00,0.0226
3905.00,0.0226
3904.00,0.0227
3903.00,0.0227
3902.00,0.0227
3901.00,0.0227
3900.00,0.0226
3899.00,0.0225
3898.00,0.0225
3897.00,0.0224
3896.00,0.0224
3895.00,0.0224
3894.00,0.0224
3893.00,0.0224
3892.00,0.0224
3891.00,0.0224
3890.00,0.0224
3889.00,0.0225
3888.00,0.0225
3887.00,0.0226
3886.00,0.0226
3885.00,0.0225
3884.00,0.0225
3883.00,0.0225
3882.00,0.0225
3881.00,0.0225
3880.00,0.0225
3879.00,0.0225
3878.00,0.0225
3877.00,0.0225
3876.00,0.0224
3875.00,0.0223
3874.00,0.0223
3873.00,0.0222
3872.00,0.0223
3871.00,0.0223
3870.00,0.0223
3869.00,0.0222
3868.00,0.0221
3867.00,0.0221
3866.00,0.0222
3865.00,0.0222
3864.00,0.0222
3863.00,0.0222
3862.00,0.0222
3861.00,0.0222
3860.00,0.0221
3859.00,0.0221
3858.00,0.0220
3857.00,0.0219
3856.00,0.0219
3855.00,0.0220
3854.00,0.0220
3853.00,0.0221
3852.00,0.0221
3851.00,0.0222
3850.00,0.0222
3849.00,0.0222
3848.00,0.0221
3847.00,0.0220
3846.00,0.0220
3845.00,0.0219
3844.00,0.0219
3843.00,0.0218
3842.00,0.0218
3841.00,0.0218
3840.00,0.0218
3839.00,0.0218
3838.00,0.0218
3837.00,0.0218
3836.00,0.0218
3835.00,0.0219
3834.00,0.0219
3833.00,0.0219
3832.00,0.0218
3831.00,0.0218
3830.00,0.0217
3829.00,0.0217
3828.00,0.0216
3827.00,0.0216
3826.00,0.0216
3825.00,0.0216
3824.00,0.0216
3823.00,0.0216
3822.00,0.0216
3821.00,0.0215
3820.00,0.0215
3819.00,0.0215
3818.00,0.0216
3817.00,0.0217
3816.00,0.0217
3815.00,0.0216
3814.00,0.0215
3813.00,0.0215
3812.00,0.0215
3811.00,0.0215
3810.00,0.0215
3809.00,0.0215
3808.00,0.0215
3807.00,0.0215
3806.00,0.0215
3805.00,0.0215
3804.00,0.0216
3803.00,0.0217
3802.00,0.0216
3801.00,0.0215
3800.00,0.0215
3799.00,0.0214
3798.00,0.0215
3797.00,0.0214
3796.00,0.0214
3795.00,0.0213
3794.00,0.0213
3793.00,0.0213
3792.00,0.0213
3791.00,0.0213
3790.00,0.0213
3789.00,0.0212
3788.00,0.0212
3787.00,0.0212
3786.00,0.0212
3785.00,0.0211
3784.00,0.0211
3783.00,0.0211
3782.00,0.0211
3781.00,0.0212
3780.00,0.0212
3779.00,0.0211
3778.00,0.0211
3777.00,0.0211
3776.00,0.0211
3775.00,0.0211
3774.00,0.0211
3773.00,0.0211
3772.00,0.0211
3771.00,0.0210
3770.00,0.0210
3769.00,0.0210
3768.00,0.0211
3767.00,0.0211
3766.00,0.0211
3765.00,0.0210
3764.00,0.0210
3763.00,0.0210
3762.00,0.0211
3761.00,0.0211
3760.00,0.0211
3759.00,0.0210
3758.00,0.0210
3757.00,0.0210
3756.00,0.0210
3755.00,0.0210
3754.00,0.0210
3753.00,0.0210
3752.00,0.0210
3751.00,0.0210
3750.00,0.0211
3749.00,0.0211
3748.00,0.0211
3747.00,0.0212
3746.00,0.0212
3745.00,0.0212
3744.00,0.0212
3743.00,0.0212
3742.00,0.0212
3741.00,0.0212
3740.00,0.0211
3739.00,0.0211
3738.00,0.0210
3737.00,0.0210
3736.00,0.0210
3735.00,0.0209
3734.00,0.0209
3733.00,0.0209
3732.00,0.0209
3731.00,0.0209
3730.00,0.0208
3729.00,0.0208
3728.00,0.0208
3727.00,0.0208
3726.00,0.0208
3725.00,0.0207
3724.00,0.0207
3723.00,0.0206
3722.00,0.0206
3721.00,0.0206
3720.00,0.0206
3719.00,0.0205
3718.00,0.0205
3717.00,0.0204
3716.00,0.0204
3715.00,0.0204
3714.00,0.0205
3713.00,0.0206
3712.00,0.0206
3711.00,0.0206
3710.00,0.0206
3709.00,0.0205
3708.00,0.0205
3707.00,0.0205
3706.00,0.0204
3705.00,0.0204
3704.00,0.0203
3703.00,0.0203
3702.00,0.0202
3701.00,0.0202
3700.00,0.0202
3699.00,0.0202
3698.00,0.0203
3697.00,0.0203
3696.00,0.0203
3695.00,0.0203
3694.00,0.0203
3693.00,0.0202
3692.00,0.0202
3691.00,0.0201
3690.00,0.0201
3689.00,0.0202
3688.00,0.0203
3687.00,0.0204
3686.00,0.0204
3685.00,0.0204
3684.00,0.0204
3683.00,0.0205
3682.00,0.0206
3681.00,0.0206
3680.00,0.0207
3679.00,0.0206
3678.00,0.0206
3677.00,0.0206
3676.00,0.0206
3675.00,0.0205
3674.00,0.0206
3673.00,0.0207
3672.00,0.0207
3671.00,0.0207
3670.00,0.0206
3669.00,0.0205
3668.00,0.0205
3667.00,0.0205
3666.00,0.0206
3665.00,0.0206
3664.00,0.0205
3663.00,0.0205
3662.00,0.0205
3661.00,0.0204
3660.00,0.0204
3659.00,0.0204
3658.00,0.0205
3657.00,0.0205
3656.00,0.0205
3655.00,0.0206
3654.00,0.0206
3653.00,0.0207
3652.00,0.0208
3651.00,0.0208
3650.00,0.0208
3649.00,0.0209
3648.00,0.0210
3647.00,0.0210
3646.00,0.0210
3645.00,0.0210
3644.00,0.0210
3643.00,0.0209
3642.00,0.0208
3641.00,0.0207
3640.00,0.0206
3639.00,0.0206
3638.00,0.0206
3637.00,0.0206
3636.00,0.0207
3635.00,0.0207
3634.00,0.0207
3633.00,0.0207
3632.00,0.0207
3631.00,0.0208
3630.00,0.0209
3629.00,0.0209
3628.00,0.0209
3627.00,0.0210
3626.00,0.0211
3625.00,0.0211
3624.00,0.0212
3623.00,0.0212
3622.00,0.0212
3621.00,0.0211
3620.00,0.0211
3619.00,0.0210
3618.00,0.0209
3617.00,0.0208
3616.00,0.0209
3615.00,0.0210
3614.00,0.0212
3613.00,0.0213
3612.00,0.0215
3611.00,0.0216
3610.00,0.0218
3609.00,0.0218
3608.00,0.0218
3607.00,0.0218
3606.00,0.0218
3605.00,0.0218
3604.00,0.0217
3603.00,0.0217
3602.00,0.0217
3601.00,0.0216
3600.00,0.0217
3599.00,0.0217
3598.00,0.0218
3597.00,0.0219
3596.00,0.0220
3595.00,0.0220
3594.00,0.0220
3593.00,0.0221
3592.00,0.0221
3591.00,0.0223
3590.00,0.0224
3589.00,0.0225
3588.00,0.0224
3587.00,0.0224
3586.00,0.0224
3585.00,0.0225
3584.00,0.0226
3583.00,0.0226
3582.00,0.0226
3581.00,0.0226
3580.00,0.0227
3579.00,0.0227
3578.00,0.0227
3577.00,0.0228
3576.00,0.0228
3575.00,0.0229
3574.00,0.0230
3573.00,0.0231
3572.00,0.0232
3571.00,0.0233
3570.00,0.0234
3569.00,0.0236
3568.00,0.0237
3567.00,0.0237
3566.00,0.0236
3565.00,0.0236
3564.00,0.0237
3563.00,0.0237
3562.00,0.0238
3561.00,0.0238
3560.00,0.0239
3559.00,0.0240
3558.00,0.0240
3557.00,0.0241
3556.00,0.0242
3555.00,0.0242
3554.00,0.0242
3553.00,0.0242
3552.00,0.0242
3551.00,0.0243
3550.00,0.0245
3549.00,0.0247
3548.00,0.0248
3547.00,0.0248
3546.00,0.0249
3545.00,0.0249
3544.00,0.0250
3543.00,0.0250
3542.00,0.0251
3541.00,0.0251
3540.00,0.0252
3539.00,0.0253
3538.00,0.0253
3537.00,0.0254
3536.00,0.0255
3535.00,0.0256
3534.00,0.0256
3533.00,0.0257
3532.00,0.0258
3531.00,0.0259
3530.00,0.0260
3529.00,0.0260
3528.00,0.0261
3527.00,0.0261
3526.00,0.0262
3525.00,0.0263
3524.00,0.0264
3523.00,0.0264
3522.00,0.0266
3521.00,0.0267
3520.00,0.0268
3519.00,0.0269
3518.00,0.0269
3517.00,0.0270
3516.00,0.0270
3515.00,0.0271
3514.00,0.0272
3513.00,0.0274
3512.00,0.0275
3511.00,0.0277
3510.00,0.0278
3509.00,0.0278
3508.00,0.0279
3507.00,0.0280
3506.00,0.0281
3505.00,0.0282
3504.00,0.0283
3503.00,0.0285
3502.00,0.0286
3501.00,0.0287
3500.00,0.0289
3499.00,0.0290
3498.00,0.0292
3497.00,0.0293
3496.00,0.0294
3495.00,0.0295
3494.00,0.0296
3493.00,0.0296
3492.00,0.0296
3491.00,0.0297
3490.00,0.0298
3489.00,0.0300
3488.00,0.0302
3487.00,0.0305
3486.00,0.0308
3485.00,0.0310
3484.00,0.0311
3483.00,0.0312
3482.00,0.0313
3481.00,0.0314
3480.00,0.0316
3479.00,0.0317
3478.00,0.0319
3477.00,0.0321
3476.00,0.0323
3475.00,0.0324
3474.00,0.0325
3473.00,0.0327
3472.00,0.0328
3471.00,0.0329
3470.00,0.0331
3469.00,0.0332
3468.00,0.0333
3467.00,0.0335
3466.00,0.0336
3465.00,0.0338
3464.00,0.0339
3463.00,0.0340
3462.00,0.0342
3461.00,0.0343
3460.00,0.0345
3459.00,0.0347
3458.00,0.0348
3457.00,0.0348
3456.00,0.0349
3455.00,0.0350
3454.00,0.0351
3453.00,0.0352
3452.00,0.0354
3451.00,0.0355
3450.00,0.0356
3449.00,0.0357
3448.00,0.0358
3447.00,0.0359
3446.00,0.0360
3445.00,0.0361
3444.00,0.0362
3443.00,0.0362
3442.00,0.0363
3441.00,0.0365
3440.00,0.0366
3439.00,0.0367
3438.00,0.0367
3437.00,0.0368
3436.00,0.0368
3435.00,0.0368
3434.00,0.0369
3433.00,0.0369
3432.00,0.0370
3431.00,0.0370
3430.00,0.0371
3429.00,0.0372
3428.00,0.0373
3427.00,0.0375
3426.00,0.0376
3425.00,0.0377
3424.00,0.0377
3423.00,0.0377
3422.00,0.0377
3421.00,0.0378
3420.00,0.0379
3419.00,0.0380
3418.00,0.0380
3417.00,0.0380
3416.00,0.0380
3415.00,0.0380
3414.00,0.0380
3413.00,0.0381
3412.00,0.0382
3411.00,0.0383
3410.00,0.0384
3409.00,0.0385
3408.00,0.0385
3407.00,0.0385
3406.00,0.0385
3405.00,0.0385
3404.00,0.0386
3403.00,0.0386
3402.00,0.0387
3401.00,0.0388
3400.00,0.0388
3399.00,0.0389
3398.00,0.0389
3397.00,0.0390
3396.00,0.0390
3395.00,0.0391
3394.00,0.0391
3393.00,0.0392
3392.00,0.0392
3391.00,0.0393
3390.00,0.0395
3389.00,0.0395
3388.00,0.0396
3387.00,0.0397
3386.00,0.0397
3385.00,0.0398
3384.00,0.0399
3383.00,0.0399
3382.00,0.0399
3381.00,0.0399
3380.00,0.0399
3379.00,0.0400
3378.00,0.0401
3377.00,0.0402
3376.00,0.0402
3375.00,0.0403
3374.00,0.0403
3373.00,0.0403
3372.00,0.0402
3371.00,0.0402
3370.00,0.0401
3369.00,0.0402
3368.00,0.0403
3367.00,0.0404
3366.00,0.0405
3365.00,0.0406
3364.00,0.0407
3363.00,0.0408
3362.00,0.0409
3361.00,0.0409
3360.00,0.0410
3359.00,0.0411
3358.00,0.0412
3357.00,0.0413
3356.00,0.0413
3355.00,0.0413
3354.00,0.0413
3353.00,0.0412
3352.00,0.0412
3351.00,0.0412
3350.00,0.0413
3349.00,0.0414
3348.00,0.0414
3347.00,0.0415
3346.00,0.0415
3345.00,0.0416
3344.00,0.0416
3343.00,0.0416
3342.00,0.0417
3341.00,0.0417
3340.00,0.0417
3339.00,0.0417
3338.00,0.0417
3337.00,0.0417
3336.00,0.0418
3335.00,0.0419
3334.00,0.0419
3333.00,0.0420
3332.00,0.0420
3331.00,0.0420
3330.00,0.0420
3329.00,0.0420
3328.00,0.0420
3327.00,0.0420
3326.00,0.0420
3325.00,0.0421
3324.00,0.0422
3323.00,0.0423
3322.00,0.0424
3321.00,0.0424
3320.00,0.0425
3319.00,0.0425
3318.00,0.0426
3317.00,0.0427
3316.00,0.0427
3315.00,0.0428
3314.00,0.0428
3313.00,0.0427
3312.00,0.0426
3311.00,0.0425
3310.00,0.0424
3309.00,0.0423
3308.00,0.0422
3307.00,0.0421
3306.00,0.0422
3305.00,0.0423
3304.00,0.0425
3303.00,0.0427
3302.00,0.0428
3301.00,0.0428
3300.00,0.0428
3299.00,0.0428
3298.00,0.0428
3297.00,0.0428
3296.00,0.0428
3295.00,0.0427
3294.00,0.0427
3293.00,0.0427
3292.00,0.0427
3291.00,0.0428
3290.00,0.0429
3289.00,0.0430
3288.00,0.0430
3287.00,0.0430
3286.00,0.0430
3285.00,0.0431
3284.00,0.0431
3283.00,0.0431
3282.00,0.0431
3281.00,0.0431
3280.00,0.0431
3279.00,0.0430
3278.00,0.0429
3277.00,0.0428
3276.00,0.0428
3275.00,0.0427
3274.00,0.0426
3273.00,0.0426
3272.00,0.0425
3271.00,0.0425
3270.00,0.0426
3269.00,0.0427
3268.00,0.0427
3267.00,0.0428
3266.00,0.0428
3265.00,0.0428
3264.00,0.0428
3263.00,0.0427
3262.00,0.0427
3261.00,0.0427
3260.00,0.0427
3259.00,0.0426
3258.00,0.0425
3257.00,0.0425
3256.00,0.0424
3255.00,0.0424
3254.00,0.0424
3253.00,0.0424
3252.00,0.0424
3251.00,0.0423
3250.00,0.0422
3249.00,0.0421
3248.00,0.0421
3247.00,0.0421
3246.00,0.0421
3245.00,0.0421
3244.00,0.0421
3243.00,0.0422
3242.00,0.0422
3241.00,0.0423
3240.00,0.0423
3239.00,0.0423
3238.00,0.0422
3237.00,0.0421
3236.00,0.0419
3235.00,0.0417
3234.00,0.0416
3233.00,0.0415
3232.00,0.0415
3231.00,0.0415
3230.00,0.0415
3229.00,0.0415
3228.00,0.0415
3227.00,0.0415
3226.00,0.0414
3225.00,0.0413
3224.00,0.0413
3223.00,0.0412
3222.00,0.0411
3221.00,0.0410
3220.00,0.0410
3219.00,0.0409
3218.00,0.0409
3217.00,0.0409
3216.00,0.0409
3215.00,0.0409
3214.00,0.0408
3213.00,0.0407
3212.00,0.0407
3211.00,0.0406
3210.00,0.0405
3209.00,0.0405
3208.00,0.0406
3207.00,0.0405
3206.00,0.0405
3205.00,0.0404
3204.00,0.0404
3203.00,0.0404
3202.00,0.0404
3201.00,0.0403
3200.00,0.0403
3199.00,0.0402
3198.00,0.0401
3197.00,0.0400
3196.00,0.0400
3195.00,0.0399
3194.00,0.0399
3193.00,0.0398
3192.00,0.0397
3191.00,0.0396
3190.00,0.0395
3189.00,0.0395
3188.00,0.0394
3187.00,0.0394
3186.00,0.0393
3185.00,0.0392
3184.00,0.0392
3183.00,0.0391
3182.00,0.0391
3181.00,0.0390
3180.00,0.0389
3179.00,0.0388
3178.00,0.0387
3177.00,0.0386
3176.00,0.0385
3175.00,0.0385
3174.00,0.0384
3173.00,0.0384
3172.00,0.0383
3171.00,0.0383
3170.00,0.0382
3169.00,0.0381
3168.00,0.0380
3167.00,0.0379
3166.00,0.0378
3165.00,0.0376
3164.00,0.0375
3163.00,0.0374
3162.00,0.0373
3161.00,0.0372
3160.00,0.0371
3159.00,0.0370
3158.00,0.0369
3157.00,0.0368
3156.00,0.0367
3155.00,0.0365
3154.00,0.0364
3153.00,0.0363
3152.00,0.0362
3151.00,0.0361
3150.00,0.0361
3149.00,0.0360
3148.00,0.0359
3147.00,0.0357
3146.00,0.0355
3145.00,0.0353
3144.00,0.0351
3143.00,0.0351
3142.00,0.0351
3141.00,0.0351
3140.00,0.0350
3139.00,0.0349
3138.00,0.0349
3137.00,0.0348
3136.00,0.0348
3135.00,0.0347
3134.00,0.0346
3133.00,0.0346
3132.00,0.0345
3131.00,0.0344
3130.00,0.0344
3129.00,0.0343
3128.00,0.0343
3127.00,0.0342
3126.00,0.0341
3125.00,0.0341
3124.00,0.0340
3123.00,0.0338
3122.00,0.0336
3121.00,0.0335
3120.00,0.0334
3119.00,0.0333
3118.00,0.0333
3117.00,0.0333
3116.00,0.0333
3115.00,0.0332
3114.00,0.0332
3113.00,0.0332
3112.00,0.0330
3111.00,0.0328
3110.00,0.0326
3109.00,0.0325
3108.00,0.0324
3107.00,0.0323
3106.00,0.0323
3105.00,0.0322
3104.00,0.0321
3103.00,0.0319
3102.00,0.0318
3101.00,0.0318
3100.00,0.0317
3099.00,0.0317
3098.00,0.0317
3097.00,0.0316
3096.00,0.0315
3095.00,0.0315
3094.00,0.0314
3093.00,0.0313
3092.00,0.0312
3091.00,0.0311
3090.00,0.0311
3089.00,0.0311
3088.00,0.0311
3087.00,0.0311
3086.00,0.0311
3085.00,0.0311
3084.00,0.0311
3083.00,0.0311
3082.00,0.0312
3081.00,0.0311
3080.00,0.0311
3079.00,0.0311
3078.00,0.0311
3077.00,0.0312
3076.00,0.0312
3075.00,0.0313
3074.00,0.0313
3073.00,0.0312
3072.00,0.0311
3071.00,0.0310
3070.00,0.0308
3069.00,0.0306
3068.00,0.0305
3067.00,0.0303
3066.00,0.0302
3065.00,0.0301
3064.00,0.0300
3063.00,0.0299
3062.00,0.0297
3061.00,0.0295
3060.00,0.0293
3059.00,0.0292
3058.00,0.0290
3057.00,0.0289
3056.00,0.0288
3055.00,0.0287
3054.00,0.0286
3053.00,0.0285
3052.00,0.0284
3051.00,0.0284
3050.00,0.0283
3049.00,0.0283
3048.00,0.0283
3047.00,0.0282
3046.00,0.0280
3045.00,0.0280
3044.00,0.0279
3043.00,0.0279
3042.00,0.0278
3041.00,0.0277
3040.00,0.0277
3039.00,0.0277
3038.00,0.0276
3037.00,0.0275
3036.00,0.0275
3035.00,0.0275
3034.00,0.0275
3033.00,0.0274
3032.00,0.0274
3031.00,0.0273
3030.00,0.0273
3029.00,0.0273
3028.00,0.0272
3027.00,0.0272
3026.00,0.0271
3025.00,0.0271
3024.00,0.0271
3023.00,0.0271
3022.00,0.0270
3021.00,0.0269
3020.00,0.0268
3019.00,0.0267
3018.00,0.0267
3017.00,0.0268
3016.00,0.0271
3015.00,0.0273
3014.00,0.0276
3013.00,0.0278
3012.00,0.0279
3011.00,0.0281
3010.00,0.0283
3009.00,0.0285
3008.00,0.0288
3007.00,0.0290
3006.00,0.0293
3005.00,0.0296
3004.00,0.0300
3003.00,0.0304
3002.00,0.0308
3001.00,0.0313
3000.00,0.0317
2999.00,0.0322
2998.00,0.0327
2997.00,0.0332
2996.00,0.0338
2995.00,0.0345
2994.00,0.0351
2993.00,0.0358
2992.00,0.0366
2991.00,0.0375
2990.00,0.0383
2989.00,0.0392
2988.00,0.0401
2987.00,0.0410
2986.00,0.0419
2985.00,0.0429
2984.00,0.0438
2983.00,0.0448
2982.00,0.0457
2981.00,0.0466
2980.00,0.0475
2979.00,0.0485
2978.00,0.0494
2977.00,0.0503
2976.00,0.0513
2975.00,0.0523
2974.00,0.0534
2973.00,0.0544
2972.00,0.0555
2971.00,0.0565
2970.00,0.0575
2969.00,0.0585
2968.00,0.0594
2967.00,0.0603
2966.00,0.0611
2965.00,0.0618
2964.00,0.0625
2963.00,0.0630
2962.00,0.0635
2961.00,0.0638
2960.00,0.0641
2959.00,0.0642
2958.00,0.0641
2957.00,0.0641
2956.00,0.0641
2955.00,0.0640
2954.00,0.0637
2953.00,0.0631
2952.00,0.0625
2951.00,0.0618
2950.00,0.0612
2949.00,0.0607
2948.00,0.0603
2947.00,0.0599
2946.00,0.0597
2945.00,0.0596
2944.00,0.0598
2943.00,0.0601
2942.00,0.0606
2941.00,0.0612
2940.00,0.0620
2939.00,0.0628
2938.00,0.0638
2937.00,0.0648
2936.00,0.0659
2935.00,0.0670
2934.00,0.0681
2933.00,0.0691
2932.00,0.0700
2931.00,0.0710
2930.00,0.0718
2929.00,0.0726
2928.00,0.0733
2927.00,0.0738
2926.00,0.0741
2925.00,0.0743
2924.00,0.0743
2923.00,0.0741
2922.00,0.0738
2921.00,0.0733
2920.00,0.0727
2919.00,0.0719
2918.00,0.0711
2917.00,0.0702
2916.00,0.0692
2915.00,0.0682
2914.00,0.0671
2913.00,0.0660
2912.00,0.0650
2911.00,0.0640
2910.00,0.0629
2909.00,0.0620
2908.00,0.0610
2907.00,0.0601
2906.00,0.0593
2905.00,0.0585
2904.00,0.0578
2903.00,0.0572
2902.00,0.0566
2901.00,0.0562
2900.00,0.0557
2899.00,0.0553
2898.00,0.0549
2897.00,0.0545
2896.00,0.0542
2895.00,0.0539
2894.00,0.0537
2893.00,0.0534
2892.00,0.0532
2891.00,0.0529
2890.00,0.0527
2889.00,0.0525
2888.00,0.0523
2887.00,0.0521
2886.00,0.0519
2885.00,0.0519
2884.00,0.0518
2883.00,0.0517
2882.00,0.0516
2881.00,0.0516
2880.00,0.0516
2879.00,0.0517
2878.00,0.0518
2877.00,0.0519
2876.00,0.0521
2875.00,0.0523
2874.00,0.0525
2873.00,0.0527
2872.00,0.0529
2871.00,0.0530
2870.00,0.0530
2869.00,0.0528
2868.00,0.0526
2867.00,0.0524
2866.00,0.0523
2865.00,0.0522
2864.00,0.0523
2863.00,0.0525
2862.00,0.0528
2861.00,0.0531
2860.00,0.0535
2859.00,0.0539
2858.00,0.0541
2857.00,0.0542
2856.00,0.0540
2855.00,0.0536
2854.00,0.0529
2853.00,0.0520
2852.00,0.0509
2851.00,0.0496
2850.00,0.0483
2849.00,0.0469
2848.00,0.0454
2847.00,0.0440
2846.00,0.0426
2845.00,0.0413
2844.00,0.0401
2843.00,0.0389
2842.00,0.0378
2841.00,0.0368
2840.00,0.0360
2839.00,0.0353
2838.00,0.0349
2837.00,0.0345
2836.00,0.0343
2835.00,0.0341
2834.00,0.0339
2833.00,0.0337
2832.00,0.0335
2831.00,0.0332
2830.00,0.0329
2829.00,0.0325
2828.00,0.0320
2827.00,0.0315
2826.00,0.0309
2825.00,0.0303
2824.00,0.0296
2823.00,0.0290
2822.00,0.0285
2821.00,0.0279
2820.00,0.0274
2819.00,0.0270
2818.00,0.0266
2817.00,0.0262
2816.00,0.0259
2815.00,0.0255
2814.00,0.0252
2813.00,0.0249
2812.00,0.0247
2811.00,0.0244
2810.00,0.0242
2809.00,0.0240
2808.00,0.0239
2807.00,0.0237
2806.00,0.0235
2805.00,0.0234
2804.00,0.0233
2803.00,0.0231
2802.00,0.0229
2801.00,0.0228
2800.00,0.0226
2799.00,0.0225
2798.00,0.0224
2797.00,0.0222
2796.00,0.0221
2795.00,0.0220
2794.00,0.0219
2793.00,0.0218
2792.00,0.0217
2791.00,0.0216
2790.00,0.0215
2789.00,0.0215
2788.00,0.0215
2787.00,0.0214
2786.00,0.0214
2785.00,0.0213
2784.00,0.0212
2783.00,0.0212
2782.00,0.0211
2781.00,0.0210
2780.00,0.0210
2779.00,0.0209
2778.00,0.0208
2777.00,0.0207
2776.00,0.0207
2775.00,0.0206
2774.00,0.0205
2773.00,0.0205
2772.00,0.0204
2771.00,0.0204
2770.00,0.0203
2769.00,0.0203
2768.00,0.0203
2767.00,0.0202
2766.00,0.0201
2765.00,0.0201
2764.00,0.0201
2763.00,0.0201
2762.00,0.0201
2761.00,0.0200
2760.00,0.0200
2759.00,0.0200
2758.00,0.0200
2757.00,0.0200
