Created as New Dataset,Sample 346 By YargerLab Date Tuesday, November 11 2025
cm-1,A
4000.00,0.0075
3999.00,0.0074
3998.00,0.0075
3997.00,0.0075
3996.00,0.0075
3995.00,0.0075
3994.00,0.0075
3993.00,0.0075
3992.00,0.0074
3991.00,0.0074
3990.00,0.0074
3989.00,0.0074
3988.00,0.0074
3987.00,0.0074
3986.00,0.0074
3985.00,0.0074
3984.00,0.0074
3983.00,0.0074
3982.00,0.0074
3981.00,0.0074
3980.00,0.0074
3979.00,0.0074
3978.00,0.0074
3977.00,0.0074
3976.00,0.0074
3975.00,0.0074
3974.00,0.0075
3973.00,0.0074
3972.00,0.0074
3971.00,0.0074
3970.00,0.0074
3969.00,0.0074
3968.00,0.0074
3967.00,0.0074
3966.00,0.0074
3965.00,0.0074
3964.00,0.0074
3963.00,0.0074
3962.00,0.0074
3961.00,0.0074
3960.00,0.0074
3959.00,0.0074
3958.00,0.0074
3957.00,0.0074
3956.00,0.0074
3955.00,0.0074
3954.00,0.0074
3953.00,0.0074
3952.00,0.0074
3951.00,0.0074
3950.00,0.0074
3949.00,0.0074
3948.00,0.0074
3947.00,0.0074
3946.00,0.0075
3945.00,0.0075
3944.00,0.0075
3943.00,0.0074
3942.00,0.0074
3941.00,0.0075
3940.00,0.0075
3939.00,0.0075
3938.00,0.0075
3937.00,0.0075
3936.00,0.0075
3935.00,0.0075
3934.00,0.0075
3933.00,0.0075
3932.00,0.0075
3931.00,0.0075
3930.00,0.0075
3929.00,0.0075
3928.00,0.0075
3927.00,0.0075
3926.00,0.0074
3925.00,0.0074
3924.00,0.0074
3923.00,0.0074
3922.00,0.0074
3921.00,0.0075
3920.00,0.0075
3919.00,0.0075
3918.00,0.0076
3917.00,0.0076
3916.00,0.0075
3915.00,0.0075
3914.00,0.0075
3913.00,0.0074
3912.00,0.0074
3911.00,0.0074
3910.00,0.0074
3909.00,0.0074
3908.00,0.0074
3907.00,0.0074
3906.00,0.0074
3905.00,0.0075
3904.00,0.0076
3903.00,0.0078
3902.00,0.0079
3901.00,0.0079
3900.00,0.0079
3899.00,0.0078
3898.00,0.0077
3897.00,0.0076
3896.00,0.0076
3895.00,0.0076
3894.00,0.0076
3893.00,0.0075
3892.00,0.0075
3891.00,0.0074
3890.00,0.0075
3889.00,0.0075
3888.00,0.0076
3887.00,0.0077
3886.00,0.0077
3885.00,0.0076
3884.00,0.0076
3883.00,0.0077
3882.00,0.0078
3881.00,0.0078
3880.00,0.0077
3879.00,0.0076
3878.00,0.0076
3877.00,0.0077
3876.00,0.0077
3875.00,0.0076
3874.00,0.0076
3873.00,0.0076
3872.00,0.0077
3871.00,0.0078
3870.00,0.0078
3869.00,0.0077
3868.00,0.0077
3867.00,0.0078
3866.00,0.0078
3865.00,0.0078
3864.00,0.0077
3863.00,0.0077
3862.00,0.0077
3861.00,0.0077
3860.00,0.0076
3859.00,0.0076
3858.00,0.0074
3857.00,0.0073
3856.00,0.0073
3855.00,0.0073
3854.00,0.0074
3853.00,0.0075
3852.00,0.0076
3851.00,0.0077
3850.00,0.0077
3849.00,0.0077
3848.00,0.0077
3847.00,0.0077
3846.00,0.0076
3845.00,0.0077
3844.00,0.0077
3843.00,0.0077
3842.00,0.0078
3841.00,0.0078
3840.00,0.0078
3839.00,0.0078
3838.00,0.0077
3837.00,0.0077
3836.00,0.0077
3835.00,0.0077
3834.00,0.0077
3833.00,0.0077
3832.00,0.0077
3831.00,0.0076
3830.00,0.0076
3829.00,0.0076
3828.00,0.0076
3827.00,0.0076
3826.00,0.0076
3825.00,0.0076
3824.00,0.0076
3823.00,0.0077
3822.00,0.0078
3821.00,0.0077
3820.00,0.0077
3819.00,0.0077
3818.00,0.0077
3817.00,0.0078
3816.00,0.0077
3815.00,0.0075
3814.00,0.0074
3813.00,0.0074
3812.00,0.0074
3811.00,0.0073
3810.00,0.0073
3809.00,0.0073
3808.00,0.0074
3807.00,0.0074
3806.00,0.0075
3805.00,0.0076
3804.00,0.0077
3803.00,0.0078
3802.00,0.0078
3801.00,0.0077
3800.00,0.0076
3799.00,0.0076
3798.00,0.0076
3797.00,0.0076
3796.00,0.0075
3795.00,0.0074
3794.00,0.0074
3793.00,0.0073
3792.00,0.0073
3791.00,0.0072
3790.00,0.0072
3789.00,0.0072
3788.00,0.0072
3787.00,0.0072
3786.00,0.0072
3785.00,0.0072
3784.00,0.0072
3783.00,0.0073
3782.00,0.0073
3781.00,0.0073
3780.00,0.0073
3779.00,0.0073
3778.00,0.0072
3777.00,0.0072
3776.00,0.0072
3775.00,0.0072
3774.00,0.0072
3773.00,0.0072
3772.00,0.0072
3771.00,0.0073
3770.00,0.0073
3769.00,0.0074
3768.00,0.0074
3767.00,0.0074
3766.00,0.0074
3765.00,0.0074
3764.00,0.0074
3763.00,0.0074
3762.00,0.0074
3761.00,0.0075
3760.00,0.0075
3759.00,0.0075
3758.00,0.0076
3757.00,0.0076
3756.00,0.0076
3755.00,0.0077
3754.00,0.0077
3753.00,0.0078
3752.00,0.0078
3751.00,0.0079
3750.00,0.0079
3749.00,0.0079
3748.00,0.0079
3747.00,0.0080
3746.00,0.0080
3745.00,0.0080
3744.00,0.0079
3743.00,0.0078
3742.00,0.0078
3741.00,0.0079
3740.00,0.0079
3739.00,0.0080
3738.00,0.0081
3737.00,0.0081
3736.00,0.0081
3735.00,0.0080
3734.00,0.0080
3733.00,0.0080
3732.00,0.0079
3731.00,0.0078
3730.00,0.0077
3729.00,0.0077
3728.00,0.0077
3727.00,0.0076
3726.00,0.0075
3725.00,0.0075
3724.00,0.0075
3723.00,0.0075
3722.00,0.0075
3721.00,0.0074
3720.00,0.0074
3719.00,0.0073
3718.00,0.0073
3717.00,0.0072
3716.00,0.0072
3715.00,0.0073
3714.00,0.0074
3713.00,0.0074
3712.00,0.0074
3711.00,0.0075
3710.00,0.0075
3709.00,0.0075
3708.00,0.0075
3707.00,0.0074
3706.00,0.0074
3705.00,0.0073
3704.00,0.0073
3703.00,0.0072
3702.00,0.0071
3701.00,0.0071
3700.00,0.0071
3699.00,0.0071
3698.00,0.0071
3697.00,0.0071
3696.00,0.0071
3695.00,0.0072
3694.00,0.0072
3693.00,0.0073
3692.00,0.0074
3691.00,0.0074
3690.00,0.0074
3689.00,0.0075
3688.00,0.0075
3687.00,0.0075
3686.00,0.0075
3685.00,0.0075
3684.00,0.0075
3683.00,0.0075
3682.00,0.0076
3681.00,0.0076
3680.00,0.0076
3679.00,0.0077
3678.00,0.0078
3677.00,0.0079
3676.00,0.0080
3675.00,0.0081
3674.00,0.0081
3673.00,0.0082
3672.00,0.0083
3671.00,0.0083
3670.00,0.0082
3669.00,0.0080
3668.00,0.0079
3667.00,0.0078
3666.00,0.0078
3665.00,0.0077
3664.00,0.0077
3663.00,0.0076
3662.00,0.0076
3661.00,0.0076
3660.00,0.0076
3659.00,0.0076
3658.00,0.0077
3657.00,0.0078
3656.00,0.0078
3655.00,0.0078
3654.00,0.0079
3653.00,0.0081
3652.00,0.0083
3651.00,0.0084
3650.00,0.0085
3649.00,0.0086
3648.00,0.0086
3647.00,0.0086
3646.00,0.0085
3645.00,0.0084
3644.00,0.0083
3643.00,0.0082
3642.00,0.0080
3641.00,0.0079
3640.00,0.0079
3639.00,0.0079
3638.00,0.0079
3637.00,0.0079
3636.00,0.0080
3635.00,0.0080
3634.00,0.0081
3633.00,0.0081
3632.00,0.0082
3631.00,0.0083
3630.00,0.0084
3629.00,0.0084
3628.00,0.0084
3627.00,0.0085
3626.00,0.0086
3625.00,0.0086
3624.00,0.0085
3623.00,0.0085
3622.00,0.0084
3621.00,0.0084
3620.00,0.0084
3619.00,0.0084
3618.00,0.0085
3617.00,0.0086
3616.00,0.0087
3615.00,0.0088
3614.00,0.0088
3613.00,0.0088
3612.00,0.0088
3611.00,0.0088
3610.00,0.0089
3609.00,0.0089
3608.00,0.0089
3607.00,0.0088
3606.00,0.0088
3605.00,0.0088
3604.00,0.0088
3603.00,0.0087
3602.00,0.0087
3601.00,0.0087
3600.00,0.0087
3599.00,0.0087
3598.00,0.0088
3597.00,0.0089
3596.00,0.0089
3595.00,0.0089
3594.00,0.0090
3593.00,0.0090
3592.00,0.0091
3591.00,0.0092
3590.00,0.0093
3589.00,0.0094
3588.00,0.0094
3587.00,0.0093
3586.00,0.0093
3585.00,0.0093
3584.00,0.0093
3583.00,0.0093
3582.00,0.0093
3581.00,0.0093
3580.00,0.0093
3579.00,0.0093
3578.00,0.0094
3577.00,0.0094
3576.00,0.0095
3575.00,0.0095
3574.00,0.0095
3573.00,0.0096
3572.00,0.0096
3571.00,0.0097
3570.00,0.0099
3569.00,0.0100
3568.00,0.0102
3567.00,0.0102
3566.00,0.0103
3565.00,0.0103
3564.00,0.0103
3563.00,0.0103
3562.00,0.0103
3561.00,0.0102
3560.00,0.0102
3559.00,0.0102
3558.00,0.0102
3557.00,0.0103
3556.00,0.0103
3555.00,0.0104
3554.00,0.0104
3553.00,0.0105
3552.00,0.0105
3551.00,0.0106
3550.00,0.0107
3549.00,0.0109
3548.00,0.0109
3547.00,0.0110
3546.00,0.0110
3545.00,0.0110
3544.00,0.0111
3543.00,0.0111
3542.00,0.0111
3541.00,0.0111
3540.00,0.0111
3539.00,0.0112
3538.00,0.0112
3537.00,0.0112
3536.00,0.0113
3535.00,0.0113
3534.00,0.0114
3533.00,0.0115
3532.00,0.0115
3531.00,0.0116
3530.00,0.0117
3529.00,0.0118
3528.00,0.0119
3527.00,0.0120
3526.00,0.0120
3525.00,0.0121
3524.00,0.0121
3523.00,0.0122
3522.00,0.0122
3521.00,0.0122
3520.00,0.0123
3519.00,0.0123
3518.00,0.0124
3517.00,0.0124
3516.00,0.0125
3515.00,0.0126
3514.00,0.0127
3513.00,0.0128
3512.00,0.0129
3511.00,0.0129
3510.00,0.0130
3509.00,0.0131
3508.00,0.0132
3507.00,0.0133
3506.00,0.0135
3505.00,0.0136
3504.00,0.0136
3503.00,0.0137
3502.00,0.0138
3501.00,0.0139
3500.00,0.0140
3499.00,0.0141
3498.00,0.0142
3497.00,0.0142
3496.00,0.0143
3495.00,0.0144
3494.00,0.0145
3493.00,0.0145
3492.00,0.0146
3491.00,0.0148
3490.00,0.0149
3489.00,0.0150
3488.00,0.0151
3487.00,0.0152
3486.00,0.0153
3485.00,0.0155
3484.00,0.0156
3483.00,0.0157
3482.00,0.0158
3481.00,0.0159
3480.00,0.0160
3479.00,0.0162
3478.00,0.0163
3477.00,0.0164
3476.00,0.0165
3475.00,0.0166
3474.00,0.0167
3473.00,0.0168
3472.00,0.0169
3471.00,0.0170
3470.00,0.0171
3469.00,0.0173
3468.00,0.0174
3467.00,0.0175
3466.00,0.0176
3465.00,0.0177
3464.00,0.0179
3463.00,0.0180
3462.00,0.0180
3461.00,0.0181
3460.00,0.0182
3459.00,0.0184
3458.00,0.0185
3457.00,0.0186
3456.00,0.0187
3455.00,0.0188
3454.00,0.0189
3453.00,0.0189
3452.00,0.0190
3451.00,0.0191
3450.00,0.0192
3449.00,0.0193
3448.00,0.0194
3447.00,0.0195
3446.00,0.0196
3445.00,0.0197
3444.00,0.0197
3443.00,0.0198
3442.00,0.0199
3441.00,0.0200
3440.00,0.0200
3439.00,0.0201
3438.00,0.0201
3437.00,0.0202
3436.00,0.0202
3435.00,0.0203
3434.00,0.0204
3433.00,0.0205
3432.00,0.0206
3431.00,0.0206
3430.00,0.0207
3429.00,0.0208
3428.00,0.0209
3427.00,0.0209
3426.00,0.0210
3425.00,0.0210
3424.00,0.0211
3423.00,0.0211
3422.00,0.0212
3421.00,0.0213
3420.00,0.0213
3419.00,0.0214
3418.00,0.0215
3417.00,0.0215
3416.00,0.0216
3415.00,0.0216
3414.00,0.0217
3413.00,0.0217
3412.00,0.0218
3411.00,0.0218
3410.00,0.0219
3409.00,0.0220
3408.00,0.0220
3407.00,0.0221
3406.00,0.0221
3405.00,0.0222
3404.00,0.0222
3403.00,0.0222
3402.00,0.0223
3401.00,0.0224
3400.00,0.0224
3399.00,0.0225
3398.00,0.0226
3397.00,0.0227
3396.00,0.0227
3395.00,0.0228
3394.00,0.0229
3393.00,0.0229
3392.00,0.0230
3391.00,0.0231
3390.00,0.0232
3389.00,0.0233
3388.00,0.0234
3387.00,0.0235
3386.00,0.0236
3385.00,0.0236
3384.00,0.0237
3383.00,0.0238
3382.00,0.0239
3381.00,0.0239
3380.00,0.0240
3379.00,0.0240
3378.00,0.0241
3377.00,0.0242
3376.00,0.0242
3375.00,0.0243
3374.00,0.0244
3373.00,0.0244
3372.00,0.0244
3371.00,0.0244
3370.00,0.0244
3369.00,0.0245
3368.00,0.0246
3367.00,0.0248
3366.00,0.0249
3365.00,0.0251
3364.00,0.0252
3363.00,0.0253
3362.00,0.0253
3361.00,0.0253
3360.00,0.0254
3359.00,0.0255
3358.00,0.0255
3357.00,0.0256
3356.00,0.0257
3355.00,0.0258
3354.00,0.0258
3353.00,0.0258
3352.00,0.0258
3351.00,0.0259
3350.00,0.0259
3349.00,0.0260
3348.00,0.0261
3347.00,0.0262
3346.00,0.0262
3345.00,0.0263
3344.00,0.0263
3343.00,0.0264
3342.00,0.0264
3341.00,0.0264
3340.00,0.0265
3339.00,0.0265
3338.00,0.0266
3337.00,0.0267
3336.00,0.0268
3335.00,0.0270
3334.00,0.0271
3333.00,0.0271
3332.00,0.0272
3331.00,0.0272
3330.00,0.0272
3329.00,0.0272
3328.00,0.0273
3327.00,0.0273
3326.00,0.0273
3325.00,0.0274
3324.00,0.0275
3323.00,0.0276
3322.00,0.0277
3321.00,0.0278
3320.00,0.0278
3319.00,0.0279
3318.00,0.0279
3317.00,0.0280
3316.00,0.0280
3315.00,0.0281
3314.00,0.0281
3313.00,0.0281
3312.00,0.0281
3311.00,0.0280
3310.00,0.0279
3309.00,0.0278
3308.00,0.0278
3307.00,0.0278
3306.00,0.0278
3305.00,0.0280
3304.00,0.0281
3303.00,0.0283
3302.00,0.0284
3301.00,0.0285
3300.00,0.0285
3299.00,0.0285
3298.00,0.0285
3297.00,0.0285
3296.00,0.0284
3295.00,0.0285
3294.00,0.0285
3293.00,0.0285
3292.00,0.0285
3291.00,0.0286
3290.00,0.0287
3289.00,0.0288
3288.00,0.0288
3287.00,0.0288
3286.00,0.0288
3285.00,0.0289
3284.00,0.0289
3283.00,0.0289
3282.00,0.0289
3281.00,0.0289
3280.00,0.0289
3279.00,0.0289
3278.00,0.0289
3277.00,0.0289
3276.00,0.0289
3275.00,0.0289
3274.00,0.0289
3273.00,0.0288
3272.00,0.0288
3271.00,0.0288
3270.00,0.0289
3269.00,0.0289
3268.00,0.0289
3267.00,0.0289
3266.00,0.0289
3265.00,0.0290
3264.00,0.0290
3263.00,0.0290
3262.00,0.0290
3261.00,0.0290
3260.00,0.0290
3259.00,0.0290
3258.00,0.0289
3257.00,0.0289
3256.00,0.0289
3255.00,0.0289
3254.00,0.0289
3253.00,0.0289
3252.00,0.0289
3251.00,0.0289
3250.00,0.0289
3249.00,0.0288
3248.00,0.0288
3247.00,0.0288
3246.00,0.0288
3245.00,0.0288
3244.00,0.0289
3243.00,0.0289
3242.00,0.0289
3241.00,0.0289
3240.00,0.0289
3239.00,0.0289
3238.00,0.0289
3237.00,0.0288
3236.00,0.0287
3235.00,0.0287
3234.00,0.0287
3233.00,0.0287
3232.00,0.0287
3231.00,0.0287
3230.00,0.0287
3229.00,0.0287
3228.00,0.0287
3227.00,0.0286
3226.00,0.0286
3225.00,0.0285
3224.00,0.0285
3223.00,0.0284
3222.00,0.0284
3221.00,0.0284
3220.00,0.0284
3219.00,0.0283
3218.00,0.0283
3217.00,0.0283
3216.00,0.0283
3215.00,0.0283
3214.00,0.0282
3213.00,0.0282
3212.00,0.0281
3211.00,0.0281
3210.00,0.0281
3209.00,0.0281
3208.00,0.0281
3207.00,0.0281
3206.00,0.0281
3205.00,0.0280
3204.00,0.0280
3203.00,0.0280
3202.00,0.0280
3201.00,0.0280
3200.00,0.0279
3199.00,0.0279
3198.00,0.0279
3197.00,0.0279
3196.00,0.0278
3195.00,0.0278
3194.00,0.0277
3193.00,0.0277
3192.00,0.0276
3191.00,0.0276
3190.00,0.0275
3189.00,0.0275
3188.00,0.0274
3187.00,0.0274
3186.00,0.0273
3185.00,0.0273
3184.00,0.0272
3183.00,0.0272
3182.00,0.0271
3181.00,0.0271
3180.00,0.0270
3179.00,0.0269
3178.00,0.0269
3177.00,0.0268
3176.00,0.0268
3175.00,0.0267
3174.00,0.0266
3173.00,0.0265
3172.00,0.0264
3171.00,0.0264
3170.00,0.0263
3169.00,0.0262
3168.00,0.0262
3167.00,0.0261
3166.00,0.0260
3165.00,0.0259
3164.00,0.0258
3163.00,0.0257
3162.00,0.0256
3161.00,0.0255
3160.00,0.0254
3159.00,0.0254
3158.00,0.0253
3157.00,0.0252
3156.00,0.0251
3155.00,0.0250
3154.00,0.0249
3153.00,0.0248
3152.00,0.0247
3151.00,0.0246
3150.00,0.0246
3149.00,0.0245
3148.00,0.0245
3147.00,0.0244
3146.00,0.0243
3145.00,0.0243
3144.00,0.0242
3143.00,0.0241
3142.00,0.0240
3141.00,0.0239
3140.00,0.0238
3139.00,0.0237
3138.00,0.0237
3137.00,0.0236
3136.00,0.0236
3135.00,0.0235
3134.00,0.0235
3133.00,0.0234
3132.00,0.0233
3131.00,0.0232
3130.00,0.0232
3129.00,0.0231
3128.00,0.0230
3127.00,0.0230
3126.00,0.0229
3125.00,0.0228
3124.00,0.0227
3123.00,0.0227
3122.00,0.0226
3121.00,0.0225
3120.00,0.0224
3119.00,0.0223
3118.00,0.0222
3117.00,0.0222
3116.00,0.0221
3115.00,0.0220
3114.00,0.0220
3113.00,0.0219
3112.00,0.0218
3111.00,0.0218
3110.00,0.0217
3109.00,0.0216
3108.00,0.0215
3107.00,0.0214
3106.00,0.0213
3105.00,0.0212
3104.00,0.0212
3103.00,0.0211
3102.00,0.0210
3101.00,0.0209
3100.00,0.0209
3099.00,0.0208
3098.00,0.0207
3097.00,0.0207
3096.00,0.0206
3095.00,0.0206
3094.00,0.0205
3093.00,0.0204
3092.00,0.0203
3091.00,0.0203
3090.00,0.0202
3089.00,0.0202
3088.00,0.0202
3087.00,0.0202
3086.00,0.0201
3085.00,0.0201
3084.00,0.0201
3083.00,0.0201
3082.00,0.0202
3081.00,0.0202
3080.00,0.0202
3079.00,0.0202
3078.00,0.0203
3077.00,0.0203
3076.00,0.0203
3075.00,0.0203
3074.00,0.0203
3073.00,0.0203
3072.00,0.0202
3071.00,0.0201
3070.00,0.0201
3069.00,0.0200
3068.00,0.0199
3067.00,0.0198
3066.00,0.0197
3065.00,0.0195
3064.00,0.0194
3063.00,0.0192
3062.00,0.0190
3061.00,0.0188
3060.00,0.0187
3059.00,0.0185
3058.00,0.0184
3057.00,0.0183
3056.00,0.0182
3055.00,0.0181
3054.00,0.0180
3053.00,0.0179
3052.00,0.0179
3051.00,0.0178
3050.00,0.0177
3049.00,0.0177
3048.00,0.0176
3047.00,0.0176
3046.00,0.0175
3045.00,0.0174
3044.00,0.0173
3043.00,0.0173
3042.00,0.0173
3041.00,0.0173
3040.00,0.0173
3039.00,0.0173
3038.00,0.0172
3037.00,0.0171
3036.00,0.0171
3035.00,0.0170
3034.00,0.0170
3033.00,0.0170
3032.00,0.0169
3031.00,0.0169
3030.00,0.0169
3029.00,0.0169
3028.00,0.0168
3027.00,0.0168
3026.00,0.0168
3025.00,0.0168
3024.00,0.0168
3023.00,0.0168
3022.00,0.0168
3021.00,0.0168
3020.00,0.0169
3019.00,0.0169
3018.00,0.0169
3017.00,0.0170
3016.00,0.0171
3015.00,0.0172
3014.00,0.0173
3013.00,0.0174
3012.00,0.0176
3011.00,0.0178
3010.00,0.0180
3009.00,0.0182
3008.00,0.0185
3007.00,0.0187
3006.00,0.0189
3005.00,0.0192
3004.00,0.0195
3003.00,0.0198
3002.00,0.0201
3001.00,0.0204
3000.00,0.0208
2999.00,0.0211
2998.00,0.0215
2997.00,0.0219
2996.00,0.0223
2995.00,0.0227
2994.00,0.0232
2993.00,0.0237
2992.00,0.0242
2991.00,0.0248
2990.00,0.0254
2989.00,0.0259
2988.00,0.0265
2987.00,0.0271
2986.00,0.0278
2985.00,0.0285
2984.00,0.0293
2983.00,0.0301
2982.00,0.0308
2981.00,0.0315
2980.00,0.0321
2979.00,0.0326
2978.00,0.0331
2977.00,0.0337
2976.00,0.0343
2975.00,0.0350
2974.00,0.0357
2973.00,0.0365
2972.00,0.0372
2971.00,0.0380
2970.00,0.0388
2969.00,0.0395
2968.00,0.0402
2967.00,0.0410
2966.00,0.0417
2965.00,0.0424
2964.00,0.0431
2963.00,0.0437
2962.00,0.0443
2961.00,0.0448
2960.00,0.0452
2959.00,0.0456
2958.00,0.0459
2957.00,0.0460
2956.00,0.0461
2955.00,0.0460
2954.00,0.0459
2953.00,0.0456
2952.00,0.0453
2951.00,0.0450
2950.00,0.0446
2949.00,0.0442
2948.00,0.0439
2947.00,0.0436
2946.00,0.0435
2945.00,0.0435
2944.00,0.0436
2943.00,0.0438
2942.00,0.0442
2941.00,0.0447
2940.00,0.0454
2939.00,0.0461
2938.00,0.0469
2937.00,0.0478
2936.00,0.0488
2935.00,0.0498
2934.00,0.0509
2933.00,0.0519
2932.00,0.0529
2931.00,0.0538
2930.00,0.0547
2929.00,0.0555
2928.00,0.0562
2927.00,0.0567
2926.00,0.0571
2925.00,0.0574
2924.00,0.0576
2923.00,0.0576
2922.00,0.0575
2921.00,0.0573
2920.00,0.0569
2919.00,0.0564
2918.00,0.0558
2917.00,0.0551
2916.00,0.0544
2915.00,0.0536
2914.00,0.0528
2913.00,0.0521
2912.00,0.0512
2911.00,0.0504
2910.00,0.0496
2909.00,0.0488
2908.00,0.0479
2907.00,0.0472
2906.00,0.0464
2905.00,0.0457
2904.00,0.0451
2903.00,0.0445
2902.00,0.0440
2901.00,0.0436
2900.00,0.0432
2899.00,0.0428
2898.00,0.0425
2897.00,0.0422
2896.00,0.0419
2895.00,0.0417
2894.00,0.0415
2893.00,0.0412
2892.00,0.0410
2891.00,0.0407
2890.00,0.0405
2889.00,0.0402
2888.00,0.0400
2887.00,0.0398
2886.00,0.0396
2885.00,0.0395
2884.00,0.0394
2883.00,0.0393
2882.00,0.0392
2881.00,0.0391
2880.00,0.0390
2879.00,0.0390
2878.00,0.0389
2877.00,0.0390
2876.00,0.0390
2875.00,0.0392
2874.00,0.0393
2873.00,0.0395
2872.00,0.0397
2871.00,0.0397
2870.00,0.0397
2869.00,0.0395
2868.00,0.0394
2867.00,0.0392
2866.00,0.0392
2865.00,0.0392
2864.00,0.0393
2863.00,0.0395
2862.00,0.0398
2861.00,0.0402
2860.00,0.0406
2859.00,0.0410
2858.00,0.0414
2857.00,0.0416
2856.00,0.0416
2855.00,0.0414
2854.00,0.0410
2853.00,0.0404
2852.00,0.0396
2851.00,0.0386
2850.00,0.0375
2849.00,0.0363
2848.00,0.0351
2847.00,0.0338
2846.00,0.0327
2845.00,0.0315
2844.00,0.0304
2843.00,0.0294
2842.00,0.0285
2841.00,0.0276
2840.00,0.0269
2839.00,0.0264
2838.00,0.0260
2837.00,0.0258
2836.00,0.0256
2835.00,0.0254
2834.00,0.0253
2833.00,0.0252
2832.00,0.0250
2831.00,0.0249
2830.00,0.0246
2829.00,0.0243
2828.00,0.0239
2827.00,0.0234
2826.00,0.0229
2825.00,0.0224
2824.00,0.0218
2823.00,0.0212
2822.00,0.0207
2821.00,0.0202
2820.00,0.0197
2819.00,0.0193
2818.00,0.0189
2817.00,0.0185
2816.00,0.0182
2815.00,0.0179
2814.00,0.0177
2813.00,0.0175
2812.00,0.0172
2811.00,0.0170
2810.00,0.0169
2809.00,0.0167
2808.00,0.0166
2807.00,0.0164
2806.00,0.0163
2805.00,0.0162
2804.00,0.0160
2803.00,0.0159
2802.00,0.0158
2801.00,0.0157
2800.00,0.0155
2799.00,0.0154
2798.00,0.0154
2797.00,0.0153
2796.00,0.0152
2795.00,0.0151
2794.00,0.0151
2793.00,0.0150
2792.00,0.0149
2791.00,0.0148
2790.00,0.0148
2789.00,0.0147
2788.00,0.0147
2787.00,0.0147
2786.00,0.0146
2785.00,0.0146
2784.00,0.0145
2783.00,0.0145
2782.00,0.0144
2781.00,0.0144
2780.00,0.0143
2779.00,0.0143
2778.00,0.0143
2777.00,0.0142
2776.00,0.0141
2775.00,0.0141
2774.00,0.0140
2773.00,0.0140
2772.00,0.0140
2771.00,0.0140
2770.00,0.0139
2769.00,0.0139
2768.00,0.0139
2767.00,0.0138
2766.00,0.0138
2765.00,0.0138
2764.00,0.0138
2763.00,0.0137
2762.00,0.0137
2761.00,0.0137
2760.00,0.0137
2759.00,0.0137
2758.00,0.0137
2757.00,0.0137
