Created as New Dataset,Sample 339 By YargerLab Date Tuesday, November 11 2025
cm-1,A
4000.00,0.0175
3999.00,0.0175
3998.00,0.0175
3997.00,0.0175
3996.00,0.0175
3995.00,0.0175
3994.00,0.0175
3993.00,0.0175
3992.00,0.0176
3991.00,0.0177
3990.00,0.0177
3989.00,0.0177
3988.00,0.0177
3987.00,0.0177
3986.00,0.0177
3985.00,0.0177
3984.00,0.0176
3983.00,0.0176
3982.00,0.0175
3981.00,0.0175
3980.00,0.0175
3979.00,0.0175
3978.00,0.0175
3977.00,0.0175
3976.00,0.0174
3975.00,0.0174
3974.00,0.0174
3973.00,0.0174
3972.00,0.0174
3971.00,0.0174
3970.00,0.0174
3969.00,0.0173
3968.00,0.0173
3967.00,0.0173
3966.00,0.0174
3965.00,0.0174
3964.00,0.0175
3963.00,0.0174
3962.00,0.0174
3961.00,0.0173
3960.00,0.0172
3959.00,0.0172
3958.00,0.0173
3957.00,0.0173
3956.00,0.0173
3955.00,0.0172
3954.00,0.0172
3953.00,0.0172
3952.00,0.0172
3951.00,0.0172
3950.00,0.0172
3949.00,0.0171
3948.00,0.0171
3947.00,0.0171
3946.00,0.0171
3945.00,0.0171
3944.00,0.0171
3943.00,0.0171
3942.00,0.0170
3941.00,0.0170
3940.00,0.0170
3939.00,0.0170
3938.00,0.0170
3937.00,0.0170
3936.00,0.0170
3935.00,0.0171
3934.00,0.0171
3933.00,0.0171
3932.00,0.0172
3931.00,0.0172
3930.00,0.0172
3929.00,0.0172
3928.00,0.0172
3927.00,0.0171
3926.00,0.0170
3925.00,0.0169
3924.00,0.0168
3923.00,0.0167
3922.00,0.0168
3921.00,0.0168
3920.00,0.0169
3919.00,0.0169
3918.00,0.0168
3917.00,0.0168
3916.00,0.0167
3915.00,0.0166
3914.00,0.0166
3913.00,0.0166
3912.00,0.0167
3911.00,0.0167
3910.00,0.0167
3909.00,0.0167
3908.00,0.0166
3907.00,0.0166
3906.00,0.0166
3905.00,0.0166
3904.00,0.0167
3903.00,0.0168
3902.00,0.0170
3901.00,0.0171
3900.00,0.0171
3899.00,0.0170
3898.00,0.0170
3897.00,0.0169
3896.00,0.0169
3895.00,0.0169
3894.00,0.0169
3893.00,0.0169
3892.00,0.0168
3891.00,0.0168
3890.00,0.0169
3889.00,0.0170
3888.00,0.0170
3887.00,0.0171
3886.00,0.0170
3885.00,0.0169
3884.00,0.0169
3883.00,0.0169
3882.00,0.0169
3881.00,0.0168
3880.00,0.0167
3879.00,0.0167
3878.00,0.0167
3877.00,0.0168
3876.00,0.0168
3875.00,0.0168
3874.00,0.0168
3873.00,0.0167
3872.00,0.0167
3871.00,0.0166
3870.00,0.0165
3869.00,0.0165
3868.00,0.0165
3867.00,0.0166
3866.00,0.0166
3865.00,0.0166
3864.00,0.0166
3863.00,0.0165
3862.00,0.0165
3861.00,0.0165
3860.00,0.0165
3859.00,0.0165
3858.00,0.0165
3857.00,0.0165
3856.00,0.0165
3855.00,0.0166
3854.00,0.0166
3853.00,0.0166
3852.00,0.0166
3851.00,0.0165
3850.00,0.0165
3849.00,0.0164
3848.00,0.0164
3847.00,0.0164
3846.00,0.0164
3845.00,0.0164
3844.00,0.0164
3843.00,0.0164
3842.00,0.0163
3841.00,0.0163
3840.00,0.0162
3839.00,0.0162
3838.00,0.0162
3837.00,0.0162
3836.00,0.0163
3835.00,0.0163
3834.00,0.0163
3833.00,0.0163
3832.00,0.0163
3831.00,0.0162
3830.00,0.0162
3829.00,0.0162
3828.00,0.0162
3827.00,0.0162
3826.00,0.0162
3825.00,0.0163
3824.00,0.0163
3823.00,0.0164
3822.00,0.0163
3821.00,0.0162
3820.00,0.0162
3819.00,0.0163
3818.00,0.0164
3817.00,0.0165
3816.00,0.0164
3815.00,0.0163
3814.00,0.0162
3813.00,0.0162
3812.00,0.0162
3811.00,0.0162
3810.00,0.0162
3809.00,0.0162
3808.00,0.0162
3807.00,0.0162
3806.00,0.0162
3805.00,0.0163
3804.00,0.0164
3803.00,0.0165
3802.00,0.0165
3801.00,0.0165
3800.00,0.0165
3799.00,0.0165
3798.00,0.0164
3797.00,0.0164
3796.00,0.0163
3795.00,0.0161
3794.00,0.0160
3793.00,0.0160
3792.00,0.0159
3791.00,0.0159
3790.00,0.0159
3789.00,0.0159
3788.00,0.0159
3787.00,0.0159
3786.00,0.0159
3785.00,0.0159
3784.00,0.0158
3783.00,0.0158
3782.00,0.0157
3781.00,0.0157
3780.00,0.0157
3779.00,0.0157
3778.00,0.0157
3777.00,0.0157
3776.00,0.0157
3775.00,0.0157
3774.00,0.0157
3773.00,0.0158
3772.00,0.0158
3771.00,0.0159
3770.00,0.0159
3769.00,0.0159
3768.00,0.0158
3767.00,0.0158
3766.00,0.0158
3765.00,0.0158
3764.00,0.0158
3763.00,0.0158
3762.00,0.0158
3761.00,0.0158
3760.00,0.0158
3759.00,0.0158
3758.00,0.0158
3757.00,0.0158
3756.00,0.0159
3755.00,0.0159
3754.00,0.0159
3753.00,0.0159
3752.00,0.0160
3751.00,0.0160
3750.00,0.0160
3749.00,0.0160
3748.00,0.0159
3747.00,0.0158
3746.00,0.0158
3745.00,0.0157
3744.00,0.0156
3743.00,0.0156
3742.00,0.0157
3741.00,0.0157
3740.00,0.0157
3739.00,0.0158
3738.00,0.0159
3737.00,0.0159
3736.00,0.0158
3735.00,0.0156
3734.00,0.0155
3733.00,0.0155
3732.00,0.0156
3731.00,0.0157
3730.00,0.0157
3729.00,0.0157
3728.00,0.0157
3727.00,0.0156
3726.00,0.0155
3725.00,0.0153
3724.00,0.0152
3723.00,0.0152
3722.00,0.0152
3721.00,0.0153
3720.00,0.0154
3719.00,0.0155
3718.00,0.0155
3717.00,0.0155
3716.00,0.0154
3715.00,0.0154
3714.00,0.0154
3713.00,0.0154
3712.00,0.0154
3711.00,0.0153
3710.00,0.0154
3709.00,0.0154
3708.00,0.0154
3707.00,0.0154
3706.00,0.0153
3705.00,0.0152
3704.00,0.0152
3703.00,0.0151
3702.00,0.0151
3701.00,0.0151
3700.00,0.0151
3699.00,0.0152
3698.00,0.0153
3697.00,0.0153
3696.00,0.0153
3695.00,0.0153
3694.00,0.0152
3693.00,0.0152
3692.00,0.0153
3691.00,0.0153
3690.00,0.0153
3689.00,0.0154
3688.00,0.0154
3687.00,0.0154
3686.00,0.0154
3685.00,0.0155
3684.00,0.0155
3683.00,0.0155
3682.00,0.0155
3681.00,0.0155
3680.00,0.0155
3679.00,0.0155
3678.00,0.0155
3677.00,0.0156
3676.00,0.0156
3675.00,0.0156
3674.00,0.0156
3673.00,0.0157
3672.00,0.0158
3671.00,0.0158
3670.00,0.0158
3669.00,0.0158
3668.00,0.0158
3667.00,0.0157
3666.00,0.0156
3665.00,0.0155
3664.00,0.0155
3663.00,0.0154
3662.00,0.0154
3661.00,0.0154
3660.00,0.0154
3659.00,0.0156
3658.00,0.0157
3657.00,0.0158
3656.00,0.0157
3655.00,0.0157
3654.00,0.0157
3653.00,0.0157
3652.00,0.0159
3651.00,0.0160
3650.00,0.0161
3649.00,0.0162
3648.00,0.0162
3647.00,0.0163
3646.00,0.0163
3645.00,0.0162
3644.00,0.0162
3643.00,0.0160
3642.00,0.0159
3641.00,0.0158
3640.00,0.0158
3639.00,0.0158
3638.00,0.0158
3637.00,0.0158
3636.00,0.0158
3635.00,0.0158
3634.00,0.0158
3633.00,0.0158
3632.00,0.0159
3631.00,0.0160
3630.00,0.0161
3629.00,0.0162
3628.00,0.0163
3627.00,0.0163
3626.00,0.0163
3625.00,0.0162
3624.00,0.0161
3623.00,0.0161
3622.00,0.0161
3621.00,0.0161
3620.00,0.0161
3619.00,0.0162
3618.00,0.0162
3617.00,0.0162
3616.00,0.0163
3615.00,0.0164
3614.00,0.0165
3613.00,0.0166
3612.00,0.0167
3611.00,0.0168
3610.00,0.0168
3609.00,0.0168
3608.00,0.0167
3607.00,0.0167
3606.00,0.0167
3605.00,0.0167
3604.00,0.0167
3603.00,0.0167
3602.00,0.0168
3601.00,0.0168
3600.00,0.0168
3599.00,0.0168
3598.00,0.0169
3597.00,0.0170
3596.00,0.0171
3595.00,0.0171
3594.00,0.0171
3593.00,0.0171
3592.00,0.0172
3591.00,0.0174
3590.00,0.0175
3589.00,0.0176
3588.00,0.0176
3587.00,0.0176
3586.00,0.0176
3585.00,0.0177
3584.00,0.0178
3583.00,0.0178
3582.00,0.0178
3581.00,0.0178
3580.00,0.0178
3579.00,0.0179
3578.00,0.0180
3577.00,0.0180
3576.00,0.0181
3575.00,0.0181
3574.00,0.0182
3573.00,0.0182
3572.00,0.0182
3571.00,0.0183
3570.00,0.0184
3569.00,0.0185
3568.00,0.0187
3567.00,0.0188
3566.00,0.0188
3565.00,0.0188
3564.00,0.0188
3563.00,0.0188
3562.00,0.0188
3561.00,0.0188
3560.00,0.0189
3559.00,0.0190
3558.00,0.0191
3557.00,0.0191
3556.00,0.0192
3555.00,0.0193
3554.00,0.0195
3553.00,0.0196
3552.00,0.0197
3551.00,0.0198
3550.00,0.0198
3549.00,0.0198
3548.00,0.0198
3547.00,0.0199
3546.00,0.0200
3545.00,0.0202
3544.00,0.0204
3543.00,0.0205
3542.00,0.0206
3541.00,0.0206
3540.00,0.0206
3539.00,0.0206
3538.00,0.0206
3537.00,0.0207
3536.00,0.0208
3535.00,0.0209
3534.00,0.0210
3533.00,0.0211
3532.00,0.0212
3531.00,0.0213
3530.00,0.0214
3529.00,0.0215
3528.00,0.0216
3527.00,0.0217
3526.00,0.0217
3525.00,0.0218
3524.00,0.0219
3523.00,0.0220
3522.00,0.0221
3521.00,0.0220
3520.00,0.0220
3519.00,0.0221
3518.00,0.0222
3517.00,0.0224
3516.00,0.0225
3515.00,0.0226
3514.00,0.0227
3513.00,0.0227
3512.00,0.0229
3511.00,0.0230
3510.00,0.0231
3509.00,0.0232
3508.00,0.0234
3507.00,0.0236
3506.00,0.0238
3505.00,0.0240
3504.00,0.0241
3503.00,0.0242
3502.00,0.0243
3501.00,0.0244
3500.00,0.0244
3499.00,0.0245
3498.00,0.0246
3497.00,0.0248
3496.00,0.0249
3495.00,0.0250
3494.00,0.0251
3493.00,0.0253
3492.00,0.0255
3491.00,0.0256
3490.00,0.0257
3489.00,0.0257
3488.00,0.0257
3487.00,0.0258
3486.00,0.0260
3485.00,0.0262
3484.00,0.0264
3483.00,0.0266
3482.00,0.0268
3481.00,0.0269
3480.00,0.0270
3479.00,0.0271
3478.00,0.0272
3477.00,0.0274
3476.00,0.0275
3475.00,0.0277
3474.00,0.0279
3473.00,0.0281
3472.00,0.0282
3471.00,0.0284
3470.00,0.0286
3469.00,0.0287
3468.00,0.0288
3467.00,0.0290
3466.00,0.0291
3465.00,0.0293
3464.00,0.0294
3463.00,0.0296
3462.00,0.0298
3461.00,0.0299
3460.00,0.0301
3459.00,0.0302
3458.00,0.0303
3457.00,0.0303
3456.00,0.0304
3455.00,0.0305
3454.00,0.0306
3453.00,0.0308
3452.00,0.0311
3451.00,0.0312
3450.00,0.0313
3449.00,0.0314
3448.00,0.0313
3447.00,0.0313
3446.00,0.0314
3445.00,0.0315
3444.00,0.0316
3443.00,0.0318
3442.00,0.0319
3441.00,0.0320
3440.00,0.0320
3439.00,0.0321
3438.00,0.0322
3437.00,0.0323
3436.00,0.0324
3435.00,0.0325
3434.00,0.0326
3433.00,0.0327
3432.00,0.0328
3431.00,0.0329
3430.00,0.0329
3429.00,0.0330
3428.00,0.0331
3427.00,0.0331
3426.00,0.0332
3425.00,0.0332
3424.00,0.0333
3423.00,0.0333
3422.00,0.0333
3421.00,0.0334
3420.00,0.0335
3419.00,0.0335
3418.00,0.0336
3417.00,0.0337
3416.00,0.0337
3415.00,0.0338
3414.00,0.0339
3413.00,0.0340
3412.00,0.0340
3411.00,0.0341
3410.00,0.0342
3409.00,0.0342
3408.00,0.0342
3407.00,0.0342
3406.00,0.0342
3405.00,0.0341
3404.00,0.0342
3403.00,0.0342
3402.00,0.0343
3401.00,0.0343
3400.00,0.0345
3399.00,0.0346
3398.00,0.0348
3397.00,0.0349
3396.00,0.0350
3395.00,0.0350
3394.00,0.0350
3393.00,0.0350
3392.00,0.0350
3391.00,0.0351
3390.00,0.0352
3389.00,0.0354
3388.00,0.0355
3387.00,0.0356
3386.00,0.0357
3385.00,0.0357
3384.00,0.0358
3383.00,0.0358
3382.00,0.0358
3381.00,0.0358
3380.00,0.0359
3379.00,0.0359
3378.00,0.0359
3377.00,0.0359
3376.00,0.0359
3375.00,0.0359
3374.00,0.0359
3373.00,0.0358
3372.00,0.0358
3371.00,0.0358
3370.00,0.0359
3369.00,0.0360
3368.00,0.0361
3367.00,0.0362
3366.00,0.0363
3365.00,0.0365
3364.00,0.0366
3363.00,0.0367
3362.00,0.0368
3361.00,0.0368
3360.00,0.0369
3359.00,0.0369
3358.00,0.0370
3357.00,0.0370
3356.00,0.0370
3355.00,0.0370
3354.00,0.0370
3353.00,0.0370
3352.00,0.0370
3351.00,0.0371
3350.00,0.0371
3349.00,0.0372
3348.00,0.0373
3347.00,0.0373
3346.00,0.0373
3345.00,0.0373
3344.00,0.0373
3343.00,0.0373
3342.00,0.0373
3341.00,0.0373
3340.00,0.0373
3339.00,0.0374
3338.00,0.0374
3337.00,0.0376
3336.00,0.0377
3335.00,0.0378
3334.00,0.0378
3333.00,0.0378
3332.00,0.0378
3331.00,0.0378
3330.00,0.0378
3329.00,0.0378
3328.00,0.0378
3327.00,0.0378
3326.00,0.0379
3325.00,0.0379
3324.00,0.0380
3323.00,0.0380
3322.00,0.0380
3321.00,0.0381
3320.00,0.0381
3319.00,0.0382
3318.00,0.0382
3317.00,0.0383
3316.00,0.0383
3315.00,0.0384
3314.00,0.0384
3313.00,0.0384
3312.00,0.0384
3311.00,0.0383
3310.00,0.0381
3309.00,0.0379
3308.00,0.0378
3307.00,0.0379
3306.00,0.0380
3305.00,0.0382
3304.00,0.0383
3303.00,0.0384
3302.00,0.0385
3301.00,0.0386
3300.00,0.0386
3299.00,0.0387
3298.00,0.0387
3297.00,0.0387
3296.00,0.0387
3295.00,0.0386
3294.00,0.0386
3293.00,0.0386
3292.00,0.0386
3291.00,0.0386
3290.00,0.0386
3289.00,0.0387
3288.00,0.0388
3287.00,0.0389
3286.00,0.0388
3285.00,0.0387
3284.00,0.0387
3283.00,0.0387
3282.00,0.0388
3281.00,0.0389
3280.00,0.0389
3279.00,0.0389
3278.00,0.0388
3277.00,0.0387
3276.00,0.0387
3275.00,0.0386
3274.00,0.0386
3273.00,0.0386
3272.00,0.0386
3271.00,0.0385
3270.00,0.0385
3269.00,0.0386
3268.00,0.0386
3267.00,0.0386
3266.00,0.0387
3265.00,0.0387
3264.00,0.0386
3263.00,0.0386
3262.00,0.0385
3261.00,0.0384
3260.00,0.0385
3259.00,0.0385
3258.00,0.0385
3257.00,0.0384
3256.00,0.0384
3255.00,0.0383
3254.00,0.0383
3253.00,0.0382
3252.00,0.0382
3251.00,0.0381
3250.00,0.0381
3249.00,0.0380
3248.00,0.0379
3247.00,0.0378
3246.00,0.0378
3245.00,0.0380
3244.00,0.0381
3243.00,0.0382
3242.00,0.0382
3241.00,0.0382
3240.00,0.0382
3239.00,0.0381
3238.00,0.0380
3237.00,0.0378
3236.00,0.0376
3235.00,0.0375
3234.00,0.0374
3233.00,0.0374
3232.00,0.0374
3231.00,0.0374
3230.00,0.0374
3229.00,0.0374
3228.00,0.0373
3227.00,0.0373
3226.00,0.0373
3225.00,0.0372
3224.00,0.0371
3223.00,0.0370
3222.00,0.0369
3221.00,0.0369
3220.00,0.0368
3219.00,0.0368
3218.00,0.0368
3217.00,0.0368
3216.00,0.0368
3215.00,0.0368
3214.00,0.0367
3213.00,0.0367
3212.00,0.0366
3211.00,0.0365
3210.00,0.0365
3209.00,0.0364
3208.00,0.0364
3207.00,0.0364
3206.00,0.0364
3205.00,0.0364
3204.00,0.0363
3203.00,0.0362
3202.00,0.0362
3201.00,0.0361
3200.00,0.0362
3199.00,0.0362
3198.00,0.0362
3197.00,0.0361
3196.00,0.0360
3195.00,0.0359
3194.00,0.0359
3193.00,0.0358
3192.00,0.0357
3191.00,0.0357
3190.00,0.0356
3189.00,0.0355
3188.00,0.0354
3187.00,0.0353
3186.00,0.0352
3185.00,0.0351
3184.00,0.0349
3183.00,0.0349
3182.00,0.0348
3181.00,0.0348
3180.00,0.0348
3179.00,0.0348
3178.00,0.0347
3177.00,0.0346
3176.00,0.0345
3175.00,0.0344
3174.00,0.0344
3173.00,0.0343
3172.00,0.0342
3171.00,0.0340
3170.00,0.0339
3169.00,0.0338
3168.00,0.0339
3167.00,0.0339
3166.00,0.0340
3165.00,0.0340
3164.00,0.0339
3163.00,0.0337
3162.00,0.0335
3161.00,0.0333
3160.00,0.0331
3159.00,0.0330
3158.00,0.0329
3157.00,0.0328
3156.00,0.0326
3155.00,0.0325
3154.00,0.0323
3153.00,0.0322
3152.00,0.0322
3151.00,0.0322
3150.00,0.0322
3149.00,0.0322
3148.00,0.0321
3147.00,0.0320
3146.00,0.0319
3145.00,0.0319
3144.00,0.0317
3143.00,0.0316
3142.00,0.0314
3141.00,0.0312
3140.00,0.0311
3139.00,0.0311
3138.00,0.0310
3137.00,0.0310
3136.00,0.0309
3135.00,0.0309
3134.00,0.0308
3133.00,0.0307
3132.00,0.0306
3131.00,0.0305
3130.00,0.0305
3129.00,0.0304
3128.00,0.0304
3127.00,0.0304
3126.00,0.0303
3125.00,0.0302
3124.00,0.0301
3123.00,0.0299
3122.00,0.0297
3121.00,0.0296
3120.00,0.0294
3119.00,0.0294
3118.00,0.0293
3117.00,0.0293
3116.00,0.0292
3115.00,0.0291
3114.00,0.0291
3113.00,0.0290
3112.00,0.0290
3111.00,0.0289
3110.00,0.0288
3109.00,0.0287
3108.00,0.0287
3107.00,0.0287
3106.00,0.0286
3105.00,0.0285
3104.00,0.0284
3103.00,0.0282
3102.00,0.0281
3101.00,0.0280
3100.00,0.0280
3099.00,0.0280
3098.00,0.0280
3097.00,0.0280
3096.00,0.0279
3095.00,0.0278
3094.00,0.0278
3093.00,0.0277
3092.00,0.0277
3091.00,0.0277
3090.00,0.0276
3089.00,0.0276
3088.00,0.0275
3087.00,0.0275
3086.00,0.0274
3085.00,0.0273
3084.00,0.0273
3083.00,0.0272
3082.00,0.0272
3081.00,0.0273
3080.00,0.0274
3079.00,0.0275
3078.00,0.0276
3077.00,0.0276
3076.00,0.0276
3075.00,0.0275
3074.00,0.0275
3073.00,0.0274
3072.00,0.0273
3071.00,0.0272
3070.00,0.0271
3069.00,0.0269
3068.00,0.0268
3067.00,0.0268
3066.00,0.0267
3065.00,0.0267
3064.00,0.0266
3063.00,0.0264
3062.00,0.0262
3061.00,0.0260
3060.00,0.0258
3059.00,0.0256
3058.00,0.0254
3057.00,0.0252
3056.00,0.0252
3055.00,0.0251
3054.00,0.0251
3053.00,0.0251
3052.00,0.0250
3051.00,0.0249
3050.00,0.0247
3049.00,0.0245
3048.00,0.0243
3047.00,0.0241
3046.00,0.0240
3045.00,0.0239
3044.00,0.0239
3043.00,0.0240
3042.00,0.0241
3041.00,0.0242
3040.00,0.0242
3039.00,0.0242
3038.00,0.0241
3037.00,0.0240
3036.00,0.0239
3035.00,0.0239
3034.00,0.0239
3033.00,0.0239
3032.00,0.0239
3031.00,0.0239
3030.00,0.0239
3029.00,0.0239
3028.00,0.0238
3027.00,0.0237
3026.00,0.0235
3025.00,0.0235
3024.00,0.0236
3023.00,0.0239
3022.00,0.0244
3021.00,0.0253
3020.00,0.0264
3019.00,0.0271
3018.00,0.0268
3017.00,0.0257
3016.00,0.0246
3015.00,0.0239
3014.00,0.0238
3013.00,0.0240
3012.00,0.0242
3011.00,0.0244
3010.00,0.0246
3009.00,0.0249
3008.00,0.0251
3007.00,0.0255
3006.00,0.0259
3005.00,0.0263
3004.00,0.0266
3003.00,0.0270
3002.00,0.0273
3001.00,0.0277
3000.00,0.0281
2999.00,0.0286
2998.00,0.0291
2997.00,0.0297
2996.00,0.0304
2995.00,0.0310
2994.00,0.0316
2993.00,0.0323
2992.00,0.0330
2991.00,0.0338
2990.00,0.0347
2989.00,0.0355
2988.00,0.0363
2987.00,0.0372
2986.00,0.0381
2985.00,0.0391
2984.00,0.0401
2983.00,0.0411
2982.00,0.0421
2981.00,0.0431
2980.00,0.0440
2979.00,0.0450
2978.00,0.0460
2977.00,0.0469
2976.00,0.0478
2975.00,0.0488
2974.00,0.0498
2973.00,0.0509
2972.00,0.0520
2971.00,0.0531
2970.00,0.0541
2969.00,0.0550
2968.00,0.0559
2967.00,0.0567
2966.00,0.0576
2965.00,0.0583
2964.00,0.0590
2963.00,0.0595
2962.00,0.0599
2961.00,0.0603
2960.00,0.0605
2959.00,0.0606
2958.00,0.0607
2957.00,0.0606
2956.00,0.0605
2955.00,0.0601
2954.00,0.0597
2953.00,0.0593
2952.00,0.0587
2951.00,0.0582
2950.00,0.0576
2949.00,0.0570
2948.00,0.0565
2947.00,0.0560
2946.00,0.0558
2945.00,0.0558
2944.00,0.0560
2943.00,0.0563
2942.00,0.0568
2941.00,0.0574
2940.00,0.0581
2939.00,0.0591
2938.00,0.0601
2937.00,0.0612
2936.00,0.0622
2935.00,0.0632
2934.00,0.0642
2933.00,0.0653
2932.00,0.0663
2931.00,0.0672
2930.00,0.0681
2929.00,0.0689
2928.00,0.0696
2927.00,0.0701
2926.00,0.0704
2925.00,0.0706
2924.00,0.0706
2923.00,0.0704
2922.00,0.0701
2921.00,0.0697
2920.00,0.0691
2919.00,0.0683
2918.00,0.0675
2917.00,0.0665
2916.00,0.0655
2915.00,0.0645
2914.00,0.0635
2913.00,0.0625
2912.00,0.0614
2911.00,0.0603
2910.00,0.0593
2909.00,0.0583
2908.00,0.0574
2907.00,0.0565
2906.00,0.0556
2905.00,0.0549
2904.00,0.0542
2903.00,0.0536
2902.00,0.0531
2901.00,0.0526
2900.00,0.0521
2899.00,0.0518
2898.00,0.0514
2897.00,0.0511
2896.00,0.0508
2895.00,0.0505
2894.00,0.0502
2893.00,0.0499
2892.00,0.0497
2891.00,0.0494
2890.00,0.0492
2889.00,0.0489
2888.00,0.0487
2887.00,0.0486
2886.00,0.0484
2885.00,0.0483
2884.00,0.0482
2883.00,0.0481
2882.00,0.0481
2881.00,0.0481
2880.00,0.0481
2879.00,0.0482
2878.00,0.0483
2877.00,0.0484
2876.00,0.0485
2875.00,0.0487
2874.00,0.0489
2873.00,0.0491
2872.00,0.0493
2871.00,0.0494
2870.00,0.0494
2869.00,0.0492
2868.00,0.0491
2867.00,0.0489
2866.00,0.0487
2865.00,0.0487
2864.00,0.0489
2863.00,0.0491
2862.00,0.0494
2861.00,0.0498
2860.00,0.0501
2859.00,0.0505
2858.00,0.0507
2857.00,0.0507
2856.00,0.0506
2855.00,0.0501
2854.00,0.0494
2853.00,0.0485
2852.00,0.0474
2851.00,0.0461
2850.00,0.0448
2849.00,0.0434
2848.00,0.0421
2847.00,0.0407
2846.00,0.0393
2845.00,0.0380
2844.00,0.0367
2843.00,0.0355
2842.00,0.0345
2841.00,0.0335
2840.00,0.0327
2839.00,0.0321
2838.00,0.0316
2837.00,0.0313
2836.00,0.0310
2835.00,0.0308
2834.00,0.0306
2833.00,0.0304
2832.00,0.0302
2831.00,0.0300
2830.00,0.0297
2829.00,0.0293
2828.00,0.0289
2827.00,0.0284
2826.00,0.0278
2825.00,0.0272
2824.00,0.0266
2823.00,0.0260
2822.00,0.0254
2821.00,0.0248
2820.00,0.0244
2819.00,0.0239
2818.00,0.0235
2817.00,0.0232
2816.00,0.0228
2815.00,0.0225
2814.00,0.0222
2813.00,0.0218
2812.00,0.0216
2811.00,0.0214
2810.00,0.0212
2809.00,0.0210
2808.00,0.0209
2807.00,0.0207
2806.00,0.0205
2805.00,0.0203
2804.00,0.0202
2803.00,0.0200
2802.00,0.0199
2801.00,0.0197
2800.00,0.0196
2799.00,0.0194
2798.00,0.0193
2797.00,0.0192
2796.00,0.0191
2795.00,0.0190
2794.00,0.0190
2793.00,0.0189
2792.00,0.0188
2791.00,0.0187
2790.00,0.0186
2789.00,0.0185
2788.00,0.0184
2787.00,0.0184
2786.00,0.0183
2785.00,0.0183
2784.00,0.0182
2783.00,0.0181
2782.00,0.0181
2781.00,0.0180
2780.00,0.0179
2779.00,0.0179
2778.00,0.0178
2777.00,0.0178
2776.00,0.0177
2775.00,0.0176
2774.00,0.0176
2773.00,0.0175
2772.00,0.0174
2771.00,0.0174
2770.00,0.0173
2769.00,0.0173
2768.00,0.0172
2767.00,0.0172
2766.00,0.0172
2765.00,0.0171
2764.00,0.0171
2763.00,0.0170
2762.00,0.0170
2761.00,0.0170
2760.00,0.0170
2759.00,0.0170
2758.00,0.0170
2757.00,0.0170
