Created as New Dataset,Sample 338 By YargerLab Date Tuesday, November 11 2025
cm-1,A
4000.00,0.0121
3999.00,0.0121
3998.00,0.0121
3997.00,0.0121
3996.00,0.0121
3995.00,0.0121
3994.00,0.0121
3993.00,0.0120
3992.00,0.0120
3991.00,0.0120
3990.00,0.0120
3989.00,0.0120
3988.00,0.0120
3987.00,0.0120
3986.00,0.0120
3985.00,0.0120
3984.00,0.0120
3983.00,0.0120
3982.00,0.0120
3981.00,0.0120
3980.00,0.0120
3979.00,0.0120
3978.00,0.0120
3977.00,0.0120
3976.00,0.0120
3975.00,0.0119
3974.00,0.0120
3973.00,0.0120
3972.00,0.0119
3971.00,0.0119
3970.00,0.0119
3969.00,0.0119
3968.00,0.0119
3967.00,0.0119
3966.00,0.0119
3965.00,0.0119
3964.00,0.0119
3963.00,0.0119
3962.00,0.0119
3961.00,0.0119
3960.00,0.0119
3959.00,0.0118
3958.00,0.0118
3957.00,0.0118
3956.00,0.0118
3955.00,0.0118
3954.00,0.0118
3953.00,0.0118
3952.00,0.0118
3951.00,0.0118
3950.00,0.0118
3949.00,0.0117
3948.00,0.0118
3947.00,0.0118
3946.00,0.0118
3945.00,0.0118
3944.00,0.0118
3943.00,0.0118
3942.00,0.0118
3941.00,0.0118
3940.00,0.0118
3939.00,0.0118
3938.00,0.0117
3937.00,0.0117
3936.00,0.0117
3935.00,0.0117
3934.00,0.0117
3933.00,0.0117
3932.00,0.0117
3931.00,0.0117
3930.00,0.0117
3929.00,0.0117
3928.00,0.0117
3927.00,0.0117
3926.00,0.0117
3925.00,0.0116
3924.00,0.0116
3923.00,0.0116
3922.00,0.0116
3921.00,0.0117
3920.00,0.0117
3919.00,0.0117
3918.00,0.0117
3917.00,0.0117
3916.00,0.0117
3915.00,0.0117
3914.00,0.0117
3913.00,0.0117
3912.00,0.0116
3911.00,0.0116
3910.00,0.0115
3909.00,0.0115
3908.00,0.0115
3907.00,0.0115
3906.00,0.0115
3905.00,0.0116
3904.00,0.0116
3903.00,0.0117
3902.00,0.0117
3901.00,0.0118
3900.00,0.0117
3899.00,0.0117
3898.00,0.0116
3897.00,0.0116
3896.00,0.0116
3895.00,0.0116
3894.00,0.0116
3893.00,0.0115
3892.00,0.0115
3891.00,0.0115
3890.00,0.0115
3889.00,0.0116
3888.00,0.0116
3887.00,0.0116
3886.00,0.0116
3885.00,0.0116
3884.00,0.0116
3883.00,0.0116
3882.00,0.0116
3881.00,0.0116
3880.00,0.0116
3879.00,0.0115
3878.00,0.0115
3877.00,0.0116
3876.00,0.0116
3875.00,0.0115
3874.00,0.0115
3873.00,0.0115
3872.00,0.0116
3871.00,0.0116
3870.00,0.0116
3869.00,0.0115
3868.00,0.0115
3867.00,0.0115
3866.00,0.0116
3865.00,0.0116
3864.00,0.0116
3863.00,0.0115
3862.00,0.0115
3861.00,0.0115
3860.00,0.0114
3859.00,0.0114
3858.00,0.0113
3857.00,0.0113
3856.00,0.0112
3855.00,0.0113
3854.00,0.0113
3853.00,0.0114
3852.00,0.0115
3851.00,0.0116
3850.00,0.0116
3849.00,0.0116
3848.00,0.0115
3847.00,0.0114
3846.00,0.0114
3845.00,0.0114
3844.00,0.0114
3843.00,0.0114
3842.00,0.0114
3841.00,0.0114
3840.00,0.0114
3839.00,0.0114
3838.00,0.0114
3837.00,0.0114
3836.00,0.0115
3835.00,0.0115
3834.00,0.0115
3833.00,0.0114
3832.00,0.0114
3831.00,0.0113
3830.00,0.0113
3829.00,0.0113
3828.00,0.0113
3827.00,0.0113
3826.00,0.0113
3825.00,0.0113
3824.00,0.0113
3823.00,0.0114
3822.00,0.0114
3821.00,0.0114
3820.00,0.0113
3819.00,0.0113
3818.00,0.0113
3817.00,0.0114
3816.00,0.0113
3815.00,0.0113
3814.00,0.0112
3813.00,0.0112
3812.00,0.0112
3811.00,0.0111
3810.00,0.0111
3809.00,0.0111
3808.00,0.0111
3807.00,0.0111
3806.00,0.0112
3805.00,0.0112
3804.00,0.0113
3803.00,0.0113
3802.00,0.0113
3801.00,0.0113
3800.00,0.0112
3799.00,0.0112
3798.00,0.0112
3797.00,0.0112
3796.00,0.0112
3795.00,0.0111
3794.00,0.0111
3793.00,0.0110
3792.00,0.0110
3791.00,0.0110
3790.00,0.0110
3789.00,0.0110
3788.00,0.0110
3787.00,0.0109
3786.00,0.0109
3785.00,0.0109
3784.00,0.0109
3783.00,0.0109
3782.00,0.0109
3781.00,0.0109
3780.00,0.0109
3779.00,0.0109
3778.00,0.0109
3777.00,0.0110
3776.00,0.0110
3775.00,0.0109
3774.00,0.0109
3773.00,0.0109
3772.00,0.0109
3771.00,0.0109
3770.00,0.0109
3769.00,0.0110
3768.00,0.0110
3767.00,0.0110
3766.00,0.0110
3765.00,0.0109
3764.00,0.0109
3763.00,0.0109
3762.00,0.0110
3761.00,0.0110
3760.00,0.0110
3759.00,0.0110
3758.00,0.0110
3757.00,0.0110
3756.00,0.0110
3755.00,0.0110
3754.00,0.0110
3753.00,0.0110
3752.00,0.0110
3751.00,0.0111
3750.00,0.0111
3749.00,0.0111
3748.00,0.0111
3747.00,0.0112
3746.00,0.0112
3745.00,0.0112
3744.00,0.0111
3743.00,0.0111
3742.00,0.0110
3741.00,0.0110
3740.00,0.0110
3739.00,0.0110
3738.00,0.0110
3737.00,0.0111
3736.00,0.0110
3735.00,0.0110
3734.00,0.0110
3733.00,0.0109
3732.00,0.0109
3731.00,0.0109
3730.00,0.0108
3729.00,0.0108
3728.00,0.0108
3727.00,0.0107
3726.00,0.0107
3725.00,0.0106
3724.00,0.0106
3723.00,0.0107
3722.00,0.0107
3721.00,0.0106
3720.00,0.0106
3719.00,0.0106
3718.00,0.0106
3717.00,0.0106
3716.00,0.0106
3715.00,0.0106
3714.00,0.0106
3713.00,0.0106
3712.00,0.0107
3711.00,0.0107
3710.00,0.0107
3709.00,0.0107
3708.00,0.0107
3707.00,0.0106
3706.00,0.0106
3705.00,0.0106
3704.00,0.0105
3703.00,0.0105
3702.00,0.0104
3701.00,0.0104
3700.00,0.0105
3699.00,0.0105
3698.00,0.0105
3697.00,0.0105
3696.00,0.0105
3695.00,0.0105
3694.00,0.0105
3693.00,0.0106
3692.00,0.0106
3691.00,0.0107
3690.00,0.0107
3689.00,0.0107
3688.00,0.0108
3687.00,0.0108
3686.00,0.0108
3685.00,0.0108
3684.00,0.0109
3683.00,0.0109
3682.00,0.0109
3681.00,0.0109
3680.00,0.0110
3679.00,0.0110
3678.00,0.0111
3677.00,0.0111
3676.00,0.0112
3675.00,0.0111
3674.00,0.0111
3673.00,0.0112
3672.00,0.0112
3671.00,0.0112
3670.00,0.0111
3669.00,0.0111
3668.00,0.0111
3667.00,0.0110
3666.00,0.0110
3665.00,0.0110
3664.00,0.0109
3663.00,0.0109
3662.00,0.0109
3661.00,0.0109
3660.00,0.0109
3659.00,0.0109
3658.00,0.0110
3657.00,0.0110
3656.00,0.0111
3655.00,0.0111
3654.00,0.0112
3653.00,0.0112
3652.00,0.0113
3651.00,0.0114
3650.00,0.0114
3649.00,0.0115
3648.00,0.0115
3647.00,0.0115
3646.00,0.0115
3645.00,0.0115
3644.00,0.0114
3643.00,0.0114
3642.00,0.0113
3641.00,0.0113
3640.00,0.0112
3639.00,0.0113
3638.00,0.0113
3637.00,0.0113
3636.00,0.0113
3635.00,0.0114
3634.00,0.0114
3633.00,0.0114
3632.00,0.0115
3631.00,0.0115
3630.00,0.0116
3629.00,0.0116
3628.00,0.0117
3627.00,0.0117
3626.00,0.0118
3625.00,0.0118
3624.00,0.0118
3623.00,0.0118
3622.00,0.0119
3621.00,0.0119
3620.00,0.0119
3619.00,0.0119
3618.00,0.0120
3617.00,0.0121
3616.00,0.0121
3615.00,0.0122
3614.00,0.0122
3613.00,0.0122
3612.00,0.0122
3611.00,0.0123
3610.00,0.0124
3609.00,0.0124
3608.00,0.0124
3607.00,0.0124
3606.00,0.0124
3605.00,0.0124
3604.00,0.0124
3603.00,0.0124
3602.00,0.0124
3601.00,0.0124
3600.00,0.0124
3599.00,0.0125
3598.00,0.0126
3597.00,0.0127
3596.00,0.0127
3595.00,0.0128
3594.00,0.0128
3593.00,0.0128
3592.00,0.0128
3591.00,0.0129
3590.00,0.0130
3589.00,0.0131
3588.00,0.0131
3587.00,0.0131
3586.00,0.0132
3585.00,0.0132
3584.00,0.0133
3583.00,0.0133
3582.00,0.0134
3581.00,0.0134
3580.00,0.0135
3579.00,0.0135
3578.00,0.0136
3577.00,0.0137
3576.00,0.0138
3575.00,0.0138
3574.00,0.0139
3573.00,0.0139
3572.00,0.0140
3571.00,0.0141
3570.00,0.0142
3569.00,0.0143
3568.00,0.0144
3567.00,0.0145
3566.00,0.0146
3565.00,0.0146
3564.00,0.0147
3563.00,0.0147
3562.00,0.0147
3561.00,0.0147
3560.00,0.0148
3559.00,0.0148
3558.00,0.0149
3557.00,0.0149
3556.00,0.0150
3555.00,0.0151
3554.00,0.0152
3553.00,0.0152
3552.00,0.0153
3551.00,0.0154
3550.00,0.0155
3549.00,0.0156
3548.00,0.0157
3547.00,0.0157
3546.00,0.0158
3545.00,0.0158
3544.00,0.0159
3543.00,0.0160
3542.00,0.0161
3541.00,0.0161
3540.00,0.0162
3539.00,0.0163
3538.00,0.0163
3537.00,0.0164
3536.00,0.0164
3535.00,0.0165
3534.00,0.0166
3533.00,0.0167
3532.00,0.0168
3531.00,0.0169
3530.00,0.0170
3529.00,0.0171
3528.00,0.0172
3527.00,0.0172
3526.00,0.0173
3525.00,0.0174
3524.00,0.0175
3523.00,0.0176
3522.00,0.0177
3521.00,0.0178
3520.00,0.0179
3519.00,0.0179
3518.00,0.0180
3517.00,0.0181
3516.00,0.0182
3515.00,0.0183
3514.00,0.0184
3513.00,0.0186
3512.00,0.0187
3511.00,0.0188
3510.00,0.0189
3509.00,0.0190
3508.00,0.0191
3507.00,0.0192
3506.00,0.0194
3505.00,0.0195
3504.00,0.0196
3503.00,0.0197
3502.00,0.0198
3501.00,0.0200
3500.00,0.0201
3499.00,0.0202
3498.00,0.0203
3497.00,0.0204
3496.00,0.0206
3495.00,0.0207
3494.00,0.0208
3493.00,0.0210
3492.00,0.0211
3491.00,0.0213
3490.00,0.0214
3489.00,0.0215
3488.00,0.0217
3487.00,0.0218
3486.00,0.0220
3485.00,0.0221
3484.00,0.0223
3483.00,0.0224
3482.00,0.0226
3481.00,0.0227
3480.00,0.0229
3479.00,0.0231
3478.00,0.0233
3477.00,0.0234
3476.00,0.0236
3475.00,0.0237
3474.00,0.0238
3473.00,0.0239
3472.00,0.0241
3471.00,0.0242
3470.00,0.0243
3469.00,0.0245
3468.00,0.0246
3467.00,0.0247
3466.00,0.0249
3465.00,0.0250
3464.00,0.0252
3463.00,0.0253
3462.00,0.0254
3461.00,0.0255
3460.00,0.0257
3459.00,0.0259
3458.00,0.0260
3457.00,0.0261
3456.00,0.0262
3455.00,0.0263
3454.00,0.0264
3453.00,0.0265
3452.00,0.0267
3451.00,0.0268
3450.00,0.0269
3449.00,0.0271
3448.00,0.0272
3447.00,0.0273
3446.00,0.0274
3445.00,0.0274
3444.00,0.0275
3443.00,0.0276
3442.00,0.0277
3441.00,0.0277
3440.00,0.0278
3439.00,0.0279
3438.00,0.0280
3437.00,0.0280
3436.00,0.0281
3435.00,0.0282
3434.00,0.0283
3433.00,0.0284
3432.00,0.0285
3431.00,0.0286
3430.00,0.0287
3429.00,0.0287
3428.00,0.0288
3427.00,0.0289
3426.00,0.0290
3425.00,0.0291
3424.00,0.0291
3423.00,0.0292
3422.00,0.0292
3421.00,0.0293
3420.00,0.0294
3419.00,0.0294
3418.00,0.0295
3417.00,0.0296
3416.00,0.0296
3415.00,0.0297
3414.00,0.0297
3413.00,0.0297
3412.00,0.0298
3411.00,0.0298
3410.00,0.0299
3409.00,0.0300
3408.00,0.0300
3407.00,0.0301
3406.00,0.0301
3405.00,0.0302
3404.00,0.0302
3403.00,0.0302
3402.00,0.0302
3401.00,0.0303
3400.00,0.0304
3399.00,0.0304
3398.00,0.0305
3397.00,0.0306
3396.00,0.0306
3395.00,0.0307
3394.00,0.0307
3393.00,0.0307
3392.00,0.0308
3391.00,0.0309
3390.00,0.0310
3389.00,0.0311
3388.00,0.0312
3387.00,0.0312
3386.00,0.0313
3385.00,0.0314
3384.00,0.0314
3383.00,0.0315
3382.00,0.0315
3381.00,0.0315
3380.00,0.0316
3379.00,0.0316
3378.00,0.0317
3377.00,0.0317
3376.00,0.0318
3375.00,0.0318
3374.00,0.0319
3373.00,0.0319
3372.00,0.0318
3371.00,0.0318
3370.00,0.0318
3369.00,0.0318
3368.00,0.0319
3367.00,0.0320
3366.00,0.0322
3365.00,0.0323
3364.00,0.0324
3363.00,0.0324
3362.00,0.0324
3361.00,0.0325
3360.00,0.0325
3359.00,0.0326
3358.00,0.0326
3357.00,0.0327
3356.00,0.0328
3355.00,0.0328
3354.00,0.0328
3353.00,0.0328
3352.00,0.0328
3351.00,0.0328
3350.00,0.0329
3349.00,0.0330
3348.00,0.0331
3347.00,0.0331
3346.00,0.0331
3345.00,0.0332
3344.00,0.0332
3343.00,0.0332
3342.00,0.0332
3341.00,0.0332
3340.00,0.0332
3339.00,0.0332
3338.00,0.0332
3337.00,0.0333
3336.00,0.0334
3335.00,0.0335
3334.00,0.0336
3333.00,0.0337
3332.00,0.0337
3331.00,0.0337
3330.00,0.0337
3329.00,0.0337
3328.00,0.0337
3327.00,0.0337
3326.00,0.0337
3325.00,0.0338
3324.00,0.0339
3323.00,0.0339
3322.00,0.0340
3321.00,0.0341
3320.00,0.0341
3319.00,0.0342
3318.00,0.0342
3317.00,0.0342
3316.00,0.0343
3315.00,0.0343
3314.00,0.0343
3313.00,0.0343
3312.00,0.0343
3311.00,0.0342
3310.00,0.0340
3309.00,0.0339
3308.00,0.0338
3307.00,0.0338
3306.00,0.0338
3305.00,0.0339
3304.00,0.0341
3303.00,0.0343
3302.00,0.0345
3301.00,0.0346
3300.00,0.0346
3299.00,0.0345
3298.00,0.0345
3297.00,0.0344
3296.00,0.0344
3295.00,0.0343
3294.00,0.0343
3293.00,0.0344
3292.00,0.0344
3291.00,0.0345
3290.00,0.0345
3289.00,0.0346
3288.00,0.0346
3287.00,0.0347
3286.00,0.0347
3285.00,0.0347
3284.00,0.0347
3283.00,0.0347
3282.00,0.0347
3281.00,0.0347
3280.00,0.0346
3279.00,0.0346
3278.00,0.0346
3277.00,0.0345
3276.00,0.0345
3275.00,0.0344
3274.00,0.0344
3273.00,0.0343
3272.00,0.0343
3271.00,0.0343
3270.00,0.0343
3269.00,0.0344
3268.00,0.0344
3267.00,0.0344
3266.00,0.0344
3265.00,0.0344
3264.00,0.0344
3263.00,0.0343
3262.00,0.0343
3261.00,0.0343
3260.00,0.0343
3259.00,0.0343
3258.00,0.0342
3257.00,0.0342
3256.00,0.0341
3255.00,0.0341
3254.00,0.0341
3253.00,0.0341
3252.00,0.0341
3251.00,0.0340
3250.00,0.0340
3249.00,0.0339
3248.00,0.0338
3247.00,0.0338
3246.00,0.0339
3245.00,0.0339
3244.00,0.0339
3243.00,0.0339
3242.00,0.0338
3241.00,0.0338
3240.00,0.0338
3239.00,0.0337
3238.00,0.0337
3237.00,0.0336
3236.00,0.0335
3235.00,0.0335
3234.00,0.0334
3233.00,0.0333
3232.00,0.0333
3231.00,0.0333
3230.00,0.0333
3229.00,0.0333
3228.00,0.0333
3227.00,0.0333
3226.00,0.0332
3225.00,0.0331
3224.00,0.0331
3223.00,0.0330
3222.00,0.0329
3221.00,0.0329
3220.00,0.0328
3219.00,0.0328
3218.00,0.0328
3217.00,0.0327
3216.00,0.0327
3215.00,0.0327
3214.00,0.0326
3213.00,0.0326
3212.00,0.0325
3211.00,0.0325
3210.00,0.0324
3209.00,0.0324
3208.00,0.0324
3207.00,0.0323
3206.00,0.0322
3205.00,0.0322
3204.00,0.0322
3203.00,0.0321
3202.00,0.0321
3201.00,0.0320
3200.00,0.0320
3199.00,0.0320
3198.00,0.0319
3197.00,0.0319
3196.00,0.0318
3195.00,0.0318
3194.00,0.0317
3193.00,0.0316
3192.00,0.0315
3191.00,0.0315
3190.00,0.0314
3189.00,0.0314
3188.00,0.0313
3187.00,0.0313
3186.00,0.0312
3185.00,0.0312
3184.00,0.0311
3183.00,0.0310
3182.00,0.0309
3181.00,0.0309
3180.00,0.0308
3179.00,0.0307
3178.00,0.0307
3177.00,0.0306
3176.00,0.0305
3175.00,0.0305
3174.00,0.0304
3173.00,0.0303
3172.00,0.0302
3171.00,0.0302
3170.00,0.0301
3169.00,0.0300
3168.00,0.0299
3167.00,0.0299
3166.00,0.0298
3165.00,0.0297
3164.00,0.0296
3163.00,0.0295
3162.00,0.0294
3161.00,0.0293
3160.00,0.0292
3159.00,0.0291
3158.00,0.0290
3157.00,0.0289
3156.00,0.0288
3155.00,0.0287
3154.00,0.0285
3153.00,0.0284
3152.00,0.0283
3151.00,0.0283
3150.00,0.0282
3149.00,0.0282
3148.00,0.0281
3147.00,0.0280
3146.00,0.0280
3145.00,0.0279
3144.00,0.0278
3143.00,0.0277
3142.00,0.0276
3141.00,0.0275
3140.00,0.0273
3139.00,0.0273
3138.00,0.0272
3137.00,0.0272
3136.00,0.0271
3135.00,0.0271
3134.00,0.0270
3133.00,0.0269
3132.00,0.0269
3131.00,0.0268
3130.00,0.0267
3129.00,0.0266
3128.00,0.0265
3127.00,0.0265
3126.00,0.0264
3125.00,0.0264
3124.00,0.0263
3123.00,0.0262
3122.00,0.0260
3121.00,0.0259
3120.00,0.0258
3119.00,0.0258
3118.00,0.0257
3117.00,0.0256
3116.00,0.0256
3115.00,0.0255
3114.00,0.0254
3113.00,0.0254
3112.00,0.0253
3111.00,0.0252
3110.00,0.0251
3109.00,0.0250
3108.00,0.0249
3107.00,0.0248
3106.00,0.0248
3105.00,0.0247
3104.00,0.0246
3103.00,0.0245
3102.00,0.0245
3101.00,0.0244
3100.00,0.0243
3099.00,0.0242
3098.00,0.0242
3097.00,0.0242
3096.00,0.0241
3095.00,0.0241
3094.00,0.0240
3093.00,0.0240
3092.00,0.0239
3091.00,0.0238
3090.00,0.0238
3089.00,0.0238
3088.00,0.0237
3087.00,0.0237
3086.00,0.0237
3085.00,0.0237
3084.00,0.0237
3083.00,0.0237
3082.00,0.0238
3081.00,0.0238
3080.00,0.0238
3079.00,0.0238
3078.00,0.0238
3077.00,0.0238
3076.00,0.0239
3075.00,0.0239
3074.00,0.0239
3073.00,0.0238
3072.00,0.0237
3071.00,0.0237
3070.00,0.0235
3069.00,0.0234
3068.00,0.0232
3067.00,0.0231
3066.00,0.0230
3065.00,0.0228
3064.00,0.0227
3063.00,0.0225
3062.00,0.0224
3061.00,0.0223
3060.00,0.0221
3059.00,0.0220
3058.00,0.0219
3057.00,0.0218
3056.00,0.0217
3055.00,0.0216
3054.00,0.0215
3053.00,0.0214
3052.00,0.0214
3051.00,0.0213
3050.00,0.0212
3049.00,0.0212
3048.00,0.0211
3047.00,0.0210
3046.00,0.0209
3045.00,0.0209
3044.00,0.0208
3043.00,0.0208
3042.00,0.0208
3041.00,0.0208
3040.00,0.0208
3039.00,0.0208
3038.00,0.0207
3037.00,0.0207
3036.00,0.0206
3035.00,0.0205
3034.00,0.0205
3033.00,0.0205
3032.00,0.0205
3031.00,0.0205
3030.00,0.0204
3029.00,0.0204
3028.00,0.0204
3027.00,0.0203
3026.00,0.0203
3025.00,0.0203
3024.00,0.0203
3023.00,0.0203
3022.00,0.0203
3021.00,0.0202
3020.00,0.0202
3019.00,0.0203
3018.00,0.0203
3017.00,0.0203
3016.00,0.0204
3015.00,0.0205
3014.00,0.0206
3013.00,0.0208
3012.00,0.0209
3011.00,0.0211
3010.00,0.0214
3009.00,0.0216
3008.00,0.0219
3007.00,0.0221
3006.00,0.0224
3005.00,0.0227
3004.00,0.0230
3003.00,0.0234
3002.00,0.0237
3001.00,0.0241
3000.00,0.0246
2999.00,0.0250
2998.00,0.0256
2997.00,0.0261
2996.00,0.0267
2995.00,0.0273
2994.00,0.0280
2993.00,0.0287
2992.00,0.0294
2991.00,0.0302
2990.00,0.0311
2989.00,0.0319
2988.00,0.0327
2987.00,0.0336
2986.00,0.0344
2985.00,0.0354
2984.00,0.0363
2983.00,0.0373
2982.00,0.0383
2981.00,0.0393
2980.00,0.0402
2979.00,0.0411
2978.00,0.0421
2977.00,0.0430
2976.00,0.0440
2975.00,0.0450
2974.00,0.0461
2973.00,0.0472
2972.00,0.0483
2971.00,0.0493
2970.00,0.0503
2969.00,0.0512
2968.00,0.0521
2967.00,0.0530
2966.00,0.0537
2965.00,0.0544
2964.00,0.0550
2963.00,0.0554
2962.00,0.0558
2961.00,0.0560
2960.00,0.0562
2959.00,0.0563
2958.00,0.0563
2957.00,0.0562
2956.00,0.0560
2955.00,0.0557
2954.00,0.0553
2953.00,0.0548
2952.00,0.0543
2951.00,0.0538
2950.00,0.0532
2949.00,0.0527
2948.00,0.0523
2947.00,0.0520
2946.00,0.0518
2945.00,0.0517
2944.00,0.0518
2943.00,0.0521
2942.00,0.0526
2941.00,0.0532
2940.00,0.0540
2939.00,0.0548
2938.00,0.0557
2937.00,0.0567
2936.00,0.0578
2935.00,0.0588
2934.00,0.0598
2933.00,0.0608
2932.00,0.0618
2931.00,0.0627
2930.00,0.0635
2929.00,0.0642
2928.00,0.0648
2927.00,0.0653
2926.00,0.0656
2925.00,0.0658
2924.00,0.0658
2923.00,0.0656
2922.00,0.0653
2921.00,0.0648
2920.00,0.0642
2919.00,0.0635
2918.00,0.0627
2917.00,0.0618
2916.00,0.0609
2915.00,0.0599
2914.00,0.0589
2913.00,0.0579
2912.00,0.0570
2911.00,0.0560
2910.00,0.0550
2909.00,0.0541
2908.00,0.0531
2907.00,0.0523
2906.00,0.0514
2905.00,0.0507
2904.00,0.0500
2903.00,0.0494
2902.00,0.0489
2901.00,0.0484
2900.00,0.0480
2899.00,0.0476
2898.00,0.0473
2897.00,0.0470
2896.00,0.0467
2895.00,0.0465
2894.00,0.0463
2893.00,0.0461
2892.00,0.0458
2891.00,0.0456
2890.00,0.0454
2889.00,0.0452
2888.00,0.0450
2887.00,0.0448
2886.00,0.0447
2885.00,0.0445
2884.00,0.0444
2883.00,0.0443
2882.00,0.0443
2881.00,0.0443
2880.00,0.0444
2879.00,0.0444
2878.00,0.0446
2877.00,0.0447
2876.00,0.0449
2875.00,0.0451
2874.00,0.0453
2873.00,0.0455
2872.00,0.0456
2871.00,0.0457
2870.00,0.0457
2869.00,0.0455
2868.00,0.0453
2867.00,0.0451
2866.00,0.0450
2865.00,0.0450
2864.00,0.0451
2863.00,0.0453
2862.00,0.0456
2861.00,0.0459
2860.00,0.0463
2859.00,0.0466
2858.00,0.0468
2857.00,0.0468
2856.00,0.0466
2855.00,0.0462
2854.00,0.0456
2853.00,0.0447
2852.00,0.0437
2851.00,0.0425
2850.00,0.0411
2849.00,0.0398
2848.00,0.0384
2847.00,0.0371
2846.00,0.0358
2845.00,0.0345
2844.00,0.0334
2843.00,0.0323
2842.00,0.0312
2841.00,0.0303
2840.00,0.0296
2839.00,0.0289
2838.00,0.0285
2837.00,0.0281
2836.00,0.0279
2835.00,0.0276
2834.00,0.0274
2833.00,0.0272
2832.00,0.0270
2831.00,0.0267
2830.00,0.0264
2829.00,0.0260
2828.00,0.0256
2827.00,0.0251
2826.00,0.0246
2825.00,0.0240
2824.00,0.0234
2823.00,0.0229
2822.00,0.0224
2821.00,0.0219
2820.00,0.0214
2819.00,0.0209
2818.00,0.0205
2817.00,0.0202
2816.00,0.0198
2815.00,0.0195
2814.00,0.0193
2813.00,0.0190
2812.00,0.0188
2811.00,0.0185
2810.00,0.0183
2809.00,0.0182
2808.00,0.0180
2807.00,0.0179
2806.00,0.0177
2805.00,0.0176
2804.00,0.0174
2803.00,0.0173
2802.00,0.0171
2801.00,0.0170
2800.00,0.0168
2799.00,0.0167
2798.00,0.0166
2797.00,0.0165
2796.00,0.0164
2795.00,0.0163
2794.00,0.0162
2793.00,0.0161
2792.00,0.0160
2791.00,0.0159
2790.00,0.0159
2789.00,0.0158
2788.00,0.0158
2787.00,0.0157
2786.00,0.0157
2785.00,0.0156
2784.00,0.0155
2783.00,0.0155
2782.00,0.0154
2781.00,0.0154
2780.00,0.0153
2779.00,0.0152
2778.00,0.0152
2777.00,0.0151
2776.00,0.0150
2775.00,0.0149
2774.00,0.0149
2773.00,0.0148
2772.00,0.0148
2771.00,0.0148
2770.00,0.0147
2769.00,0.0147
2768.00,0.0147
2767.00,0.0146
2766.00,0.0146
2765.00,0.0146
2764.00,0.0145
2763.00,0.0145
2762.00,0.0145
2761.00,0.0145
2760.00,0.0145
2759.00,0.0144
2758.00,0.0144
2757.00,0.0144
