Created as New Dataset,Sample 353 By YargerLab Date Tuesday, November 11 2025
cm-1,A
4000.00,0.0045
3999.00,0.0045
3998.00,0.0045
3997.00,0.0045
3996.00,0.0045
3995.00,0.0045
3994.00,0.0045
3993.00,0.0045
3992.00,0.0045
3991.00,0.0045
3990.00,0.0045
3989.00,0.0045
3988.00,0.0045
3987.00,0.0045
3986.00,0.0045
3985.00,0.0045
3984.00,0.0045
3983.00,0.0045
3982.00,0.0045
3981.00,0.0045
3980.00,0.0045
3979.00,0.0045
3978.00,0.0045
3977.00,0.0045
3976.00,0.0045
3975.00,0.0045
3974.00,0.0045
3973.00,0.0045
3972.00,0.0045
3971.00,0.0045
3970.00,0.0045
3969.00,0.0045
3968.00,0.0045
3967.00,0.0044
3966.00,0.0044
3965.00,0.0044
3964.00,0.0044
3963.00,0.0044
3962.00,0.0045
3961.00,0.0045
3960.00,0.0045
3959.00,0.0045
3958.00,0.0045
3957.00,0.0045
3956.00,0.0045
3955.00,0.0045
3954.00,0.0045
3953.00,0.0045
3952.00,0.0045
3951.00,0.0044
3950.00,0.0044
3949.00,0.0044
3948.00,0.0044
3947.00,0.0044
3946.00,0.0044
3945.00,0.0044
3944.00,0.0044
3943.00,0.0044
3942.00,0.0044
3941.00,0.0045
3940.00,0.0045
3939.00,0.0045
3938.00,0.0044
3937.00,0.0044
3936.00,0.0044
3935.00,0.0044
3934.00,0.0044
3933.00,0.0044
3932.00,0.0044
3931.00,0.0044
3930.00,0.0044
3929.00,0.0044
3928.00,0.0043
3927.00,0.0043
3926.00,0.0043
3925.00,0.0043
3924.00,0.0044
3923.00,0.0044
3922.00,0.0044
3921.00,0.0044
3920.00,0.0044
3919.00,0.0044
3918.00,0.0044
3917.00,0.0044
3916.00,0.0044
3915.00,0.0044
3914.00,0.0044
3913.00,0.0044
3912.00,0.0044
3911.00,0.0044
3910.00,0.0044
3909.00,0.0044
3908.00,0.0044
3907.00,0.0044
3906.00,0.0044
3905.00,0.0044
3904.00,0.0044
3903.00,0.0043
3902.00,0.0043
3901.00,0.0043
3900.00,0.0044
3899.00,0.0044
3898.00,0.0044
3897.00,0.0044
3896.00,0.0044
3895.00,0.0044
3894.00,0.0044
3893.00,0.0044
3892.00,0.0044
3891.00,0.0044
3890.00,0.0044
3889.00,0.0044
3888.00,0.0044
3887.00,0.0044
3886.00,0.0044
3885.00,0.0044
3884.00,0.0043
3883.00,0.0043
3882.00,0.0044
3881.00,0.0044
3880.00,0.0044
3879.00,0.0044
3878.00,0.0044
3877.00,0.0044
3876.00,0.0044
3875.00,0.0044
3874.00,0.0044
3873.00,0.0044
3872.00,0.0043
3871.00,0.0043
3870.00,0.0043
3869.00,0.0043
3868.00,0.0043
3867.00,0.0043
3866.00,0.0043
3865.00,0.0043
3864.00,0.0044
3863.00,0.0044
3862.00,0.0044
3861.00,0.0044
3860.00,0.0044
3859.00,0.0043
3858.00,0.0043
3857.00,0.0043
3856.00,0.0043
3855.00,0.0043
3854.00,0.0043
3853.00,0.0043
3852.00,0.0043
3851.00,0.0043
3850.00,0.0043
3849.00,0.0044
3848.00,0.0044
3847.00,0.0044
3846.00,0.0044
3845.00,0.0044
3844.00,0.0044
3843.00,0.0043
3842.00,0.0043
3841.00,0.0043
3840.00,0.0043
3839.00,0.0043
3838.00,0.0043
3837.00,0.0043
3836.00,0.0043
3835.00,0.0044
3834.00,0.0044
3833.00,0.0045
3832.00,0.0045
3831.00,0.0045
3830.00,0.0045
3829.00,0.0045
3828.00,0.0045
3827.00,0.0045
3826.00,0.0045
3825.00,0.0045
3824.00,0.0044
3823.00,0.0044
3822.00,0.0044
3821.00,0.0043
3820.00,0.0043
3819.00,0.0043
3818.00,0.0044
3817.00,0.0044
3816.00,0.0044
3815.00,0.0044
3814.00,0.0044
3813.00,0.0044
3812.00,0.0044
3811.00,0.0044
3810.00,0.0044
3809.00,0.0044
3808.00,0.0044
3807.00,0.0044
3806.00,0.0044
3805.00,0.0043
3804.00,0.0043
3803.00,0.0043
3802.00,0.0043
3801.00,0.0043
3800.00,0.0043
3799.00,0.0043
3798.00,0.0043
3797.00,0.0044
3796.00,0.0044
3795.00,0.0044
3794.00,0.0043
3793.00,0.0043
3792.00,0.0044
3791.00,0.0044
3790.00,0.0044
3789.00,0.0044
3788.00,0.0044
3787.00,0.0044
3786.00,0.0044
3785.00,0.0044
3784.00,0.0044
3783.00,0.0044
3782.00,0.0044
3781.00,0.0044
3780.00,0.0044
3779.00,0.0045
3778.00,0.0045
3777.00,0.0045
3776.00,0.0044
3775.00,0.0044
3774.00,0.0044
3773.00,0.0044
3772.00,0.0044
3771.00,0.0044
3770.00,0.0044
3769.00,0.0044
3768.00,0.0044
3767.00,0.0044
3766.00,0.0044
3765.00,0.0044
3764.00,0.0044
3763.00,0.0044
3762.00,0.0043
3761.00,0.0043
3760.00,0.0043
3759.00,0.0043
3758.00,0.0043
3757.00,0.0043
3756.00,0.0043
3755.00,0.0043
3754.00,0.0043
3753.00,0.0043
3752.00,0.0043
3751.00,0.0043
3750.00,0.0043
3749.00,0.0042
3748.00,0.0042
3747.00,0.0042
3746.00,0.0042
3745.00,0.0042
3744.00,0.0042
3743.00,0.0042
3742.00,0.0042
3741.00,0.0043
3740.00,0.0043
3739.00,0.0043
3738.00,0.0043
3737.00,0.0043
3736.00,0.0043
3735.00,0.0043
3734.00,0.0042
3733.00,0.0042
3732.00,0.0042
3731.00,0.0042
3730.00,0.0042
3729.00,0.0043
3728.00,0.0043
3727.00,0.0043
3726.00,0.0043
3725.00,0.0043
3724.00,0.0043
3723.00,0.0043
3722.00,0.0043
3721.00,0.0043
3720.00,0.0043
3719.00,0.0043
3718.00,0.0043
3717.00,0.0043
3716.00,0.0043
3715.00,0.0042
3714.00,0.0042
3713.00,0.0042
3712.00,0.0042
3711.00,0.0042
3710.00,0.0042
3709.00,0.0043
3708.00,0.0042
3707.00,0.0042
3706.00,0.0042
3705.00,0.0042
3704.00,0.0042
3703.00,0.0042
3702.00,0.0042
3701.00,0.0042
3700.00,0.0042
3699.00,0.0042
3698.00,0.0042
3697.00,0.0042
3696.00,0.0042
3695.00,0.0043
3694.00,0.0043
3693.00,0.0043
3692.00,0.0042
3691.00,0.0042
3690.00,0.0042
3689.00,0.0043
3688.00,0.0043
3687.00,0.0043
3686.00,0.0043
3685.00,0.0043
3684.00,0.0044
3683.00,0.0044
3682.00,0.0044
3681.00,0.0044
3680.00,0.0044
3679.00,0.0043
3678.00,0.0043
3677.00,0.0043
3676.00,0.0043
3675.00,0.0043
3674.00,0.0043
3673.00,0.0043
3672.00,0.0043
3671.00,0.0043
3670.00,0.0043
3669.00,0.0044
3668.00,0.0044
3667.00,0.0044
3666.00,0.0044
3665.00,0.0044
3664.00,0.0044
3663.00,0.0044
3662.00,0.0045
3661.00,0.0045
3660.00,0.0045
3659.00,0.0045
3658.00,0.0045
3657.00,0.0045
3656.00,0.0045
3655.00,0.0044
3654.00,0.0044
3653.00,0.0044
3652.00,0.0044
3651.00,0.0045
3650.00,0.0045
3649.00,0.0045
3648.00,0.0045
3647.00,0.0045
3646.00,0.0045
3645.00,0.0046
3644.00,0.0046
3643.00,0.0046
3642.00,0.0047
3641.00,0.0047
3640.00,0.0047
3639.00,0.0047
3638.00,0.0047
3637.00,0.0047
3636.00,0.0047
3635.00,0.0047
3634.00,0.0048
3633.00,0.0048
3632.00,0.0048
3631.00,0.0048
3630.00,0.0049
3629.00,0.0049
3628.00,0.0049
3627.00,0.0049
3626.00,0.0050
3625.00,0.0050
3624.00,0.0050
3623.00,0.0050
3622.00,0.0050
3621.00,0.0050
3620.00,0.0050
3619.00,0.0050
3618.00,0.0051
3617.00,0.0051
3616.00,0.0051
3615.00,0.0051
3614.00,0.0052
3613.00,0.0052
3612.00,0.0052
3611.00,0.0052
3610.00,0.0052
3609.00,0.0052
3608.00,0.0053
3607.00,0.0053
3606.00,0.0054
3605.00,0.0054
3604.00,0.0055
3603.00,0.0055
3602.00,0.0055
3601.00,0.0056
3600.00,0.0056
3599.00,0.0056
3598.00,0.0056
3597.00,0.0057
3596.00,0.0057
3595.00,0.0057
3594.00,0.0057
3593.00,0.0057
3592.00,0.0057
3591.00,0.0058
3590.00,0.0058
3589.00,0.0058
3588.00,0.0059
3587.00,0.0060
3586.00,0.0060
3585.00,0.0061
3584.00,0.0061
3583.00,0.0061
3582.00,0.0062
3581.00,0.0062
3580.00,0.0063
3579.00,0.0063
3578.00,0.0064
3577.00,0.0064
3576.00,0.0064
3575.00,0.0064
3574.00,0.0065
3573.00,0.0065
3572.00,0.0065
3571.00,0.0066
3570.00,0.0066
3569.00,0.0066
3568.00,0.0067
3567.00,0.0067
3566.00,0.0068
3565.00,0.0068
3564.00,0.0069
3563.00,0.0069
3562.00,0.0070
3561.00,0.0070
3560.00,0.0070
3559.00,0.0071
3558.00,0.0071
3557.00,0.0071
3556.00,0.0072
3555.00,0.0072
3554.00,0.0073
3553.00,0.0073
3552.00,0.0074
3551.00,0.0074
3550.00,0.0074
3549.00,0.0074
3548.00,0.0074
3547.00,0.0075
3546.00,0.0075
3545.00,0.0075
3544.00,0.0076
3543.00,0.0077
3542.00,0.0077
3541.00,0.0077
3540.00,0.0078
3539.00,0.0078
3538.00,0.0078
3537.00,0.0079
3536.00,0.0079
3535.00,0.0080
3534.00,0.0080
3533.00,0.0081
3532.00,0.0081
3531.00,0.0082
3530.00,0.0082
3529.00,0.0083
3528.00,0.0083
3527.00,0.0083
3526.00,0.0084
3525.00,0.0084
3524.00,0.0085
3523.00,0.0085
3522.00,0.0086
3521.00,0.0086
3520.00,0.0086
3519.00,0.0087
3518.00,0.0087
3517.00,0.0087
3516.00,0.0088
3515.00,0.0088
3514.00,0.0089
3513.00,0.0089
3512.00,0.0089
3511.00,0.0090
3510.00,0.0090
3509.00,0.0091
3508.00,0.0092
3507.00,0.0092
3506.00,0.0092
3505.00,0.0093
3504.00,0.0093
3503.00,0.0094
3502.00,0.0094
3501.00,0.0095
3500.00,0.0095
3499.00,0.0096
3498.00,0.0096
3497.00,0.0097
3496.00,0.0097
3495.00,0.0098
3494.00,0.0098
3493.00,0.0099
3492.00,0.0099
3491.00,0.0100
3490.00,0.0100
3489.00,0.0100
3488.00,0.0101
3487.00,0.0102
3486.00,0.0102
3485.00,0.0103
3484.00,0.0103
3483.00,0.0104
3482.00,0.0104
3481.00,0.0105
3480.00,0.0105
3479.00,0.0106
3478.00,0.0106
3477.00,0.0107
3476.00,0.0108
3475.00,0.0108
3474.00,0.0109
3473.00,0.0109
3472.00,0.0109
3471.00,0.0110
3470.00,0.0110
3469.00,0.0111
3468.00,0.0112
3467.00,0.0112
3466.00,0.0113
3465.00,0.0113
3464.00,0.0114
3463.00,0.0114
3462.00,0.0115
3461.00,0.0115
3460.00,0.0116
3459.00,0.0116
3458.00,0.0117
3457.00,0.0117
3456.00,0.0117
3455.00,0.0118
3454.00,0.0119
3453.00,0.0119
3452.00,0.0120
3451.00,0.0120
3450.00,0.0121
3449.00,0.0121
3448.00,0.0122
3447.00,0.0122
3446.00,0.0122
3445.00,0.0123
3444.00,0.0123
3443.00,0.0124
3442.00,0.0125
3441.00,0.0125
3440.00,0.0126
3439.00,0.0126
3438.00,0.0127
3437.00,0.0127
3436.00,0.0128
3435.00,0.0128
3434.00,0.0129
3433.00,0.0129
3432.00,0.0130
3431.00,0.0131
3430.00,0.0131
3429.00,0.0132
3428.00,0.0133
3427.00,0.0133
3426.00,0.0134
3425.00,0.0134
3424.00,0.0135
3423.00,0.0135
3422.00,0.0136
3421.00,0.0136
3420.00,0.0137
3419.00,0.0138
3418.00,0.0138
3417.00,0.0139
3416.00,0.0139
3415.00,0.0140
3414.00,0.0141
3413.00,0.0141
3412.00,0.0142
3411.00,0.0143
3410.00,0.0144
3409.00,0.0144
3408.00,0.0145
3407.00,0.0146
3406.00,0.0147
3405.00,0.0147
3404.00,0.0148
3403.00,0.0148
3402.00,0.0149
3401.00,0.0149
3400.00,0.0150
3399.00,0.0151
3398.00,0.0152
3397.00,0.0153
3396.00,0.0154
3395.00,0.0154
3394.00,0.0155
3393.00,0.0156
3392.00,0.0156
3391.00,0.0157
3390.00,0.0158
3389.00,0.0159
3388.00,0.0161
3387.00,0.0162
3386.00,0.0162
3385.00,0.0163
3384.00,0.0164
3383.00,0.0165
3382.00,0.0165
3381.00,0.0166
3380.00,0.0167
3379.00,0.0168
3378.00,0.0169
3377.00,0.0170
3376.00,0.0171
3375.00,0.0172
3374.00,0.0172
3373.00,0.0173
3372.00,0.0173
3371.00,0.0173
3370.00,0.0174
3369.00,0.0174
3368.00,0.0175
3367.00,0.0177
3366.00,0.0178
3365.00,0.0179
3364.00,0.0180
3363.00,0.0181
3362.00,0.0182
3361.00,0.0183
3360.00,0.0183
3359.00,0.0184
3358.00,0.0185
3357.00,0.0186
3356.00,0.0187
3355.00,0.0188
3354.00,0.0188
3353.00,0.0189
3352.00,0.0189
3351.00,0.0190
3350.00,0.0191
3349.00,0.0192
3348.00,0.0193
3347.00,0.0193
3346.00,0.0194
3345.00,0.0194
3344.00,0.0195
3343.00,0.0195
3342.00,0.0196
3341.00,0.0196
3340.00,0.0196
3339.00,0.0197
3338.00,0.0197
3337.00,0.0198
3336.00,0.0200
3335.00,0.0201
3334.00,0.0202
3333.00,0.0203
3332.00,0.0203
3331.00,0.0204
3330.00,0.0204
3329.00,0.0204
3328.00,0.0204
3327.00,0.0204
3326.00,0.0205
3325.00,0.0206
3324.00,0.0207
3323.00,0.0208
3322.00,0.0209
3321.00,0.0209
3320.00,0.0210
3319.00,0.0210
3318.00,0.0211
3317.00,0.0211
3316.00,0.0211
3315.00,0.0212
3314.00,0.0212
3313.00,0.0213
3312.00,0.0213
3311.00,0.0213
3310.00,0.0213
3309.00,0.0212
3308.00,0.0212
3307.00,0.0212
3306.00,0.0213
3305.00,0.0213
3304.00,0.0215
3303.00,0.0216
3302.00,0.0217
3301.00,0.0218
3300.00,0.0218
3299.00,0.0218
3298.00,0.0218
3297.00,0.0218
3296.00,0.0218
3295.00,0.0218
3294.00,0.0218
3293.00,0.0218
3292.00,0.0219
3291.00,0.0220
3290.00,0.0220
3289.00,0.0221
3288.00,0.0221
3287.00,0.0222
3286.00,0.0222
3285.00,0.0222
3284.00,0.0222
3283.00,0.0222
3282.00,0.0223
3281.00,0.0223
3280.00,0.0223
3279.00,0.0223
3278.00,0.0223
3277.00,0.0223
3276.00,0.0223
3275.00,0.0223
3274.00,0.0223
3273.00,0.0222
3272.00,0.0222
3271.00,0.0223
3270.00,0.0223
3269.00,0.0223
3268.00,0.0224
3267.00,0.0224
3266.00,0.0224
3265.00,0.0224
3264.00,0.0225
3263.00,0.0225
3262.00,0.0225
3261.00,0.0225
3260.00,0.0225
3259.00,0.0224
3258.00,0.0224
3257.00,0.0224
3256.00,0.0224
3255.00,0.0224
3254.00,0.0225
3253.00,0.0225
3252.00,0.0225
3251.00,0.0225
3250.00,0.0224
3249.00,0.0224
3248.00,0.0224
3247.00,0.0225
3246.00,0.0225
3245.00,0.0225
3244.00,0.0225
3243.00,0.0225
3242.00,0.0225
3241.00,0.0225
3240.00,0.0225
3239.00,0.0224
3238.00,0.0224
3237.00,0.0224
3236.00,0.0224
3235.00,0.0223
3234.00,0.0223
3233.00,0.0223
3232.00,0.0223
3231.00,0.0223
3230.00,0.0223
3229.00,0.0223
3228.00,0.0223
3227.00,0.0223
3226.00,0.0223
3225.00,0.0223
3224.00,0.0223
3223.00,0.0222
3222.00,0.0222
3221.00,0.0222
3220.00,0.0222
3219.00,0.0221
3218.00,0.0221
3217.00,0.0221
3216.00,0.0222
3215.00,0.0222
3214.00,0.0222
3213.00,0.0221
3212.00,0.0221
3211.00,0.0221
3210.00,0.0221
3209.00,0.0222
3208.00,0.0222
3207.00,0.0222
3206.00,0.0222
3205.00,0.0222
3204.00,0.0221
3203.00,0.0221
3202.00,0.0221
3201.00,0.0221
3200.00,0.0220
3199.00,0.0220
3198.00,0.0220
3197.00,0.0220
3196.00,0.0220
3195.00,0.0220
3194.00,0.0219
3193.00,0.0219
3192.00,0.0218
3191.00,0.0217
3190.00,0.0217
3189.00,0.0216
3188.00,0.0216
3187.00,0.0216
3186.00,0.0215
3185.00,0.0215
3184.00,0.0215
3183.00,0.0214
3182.00,0.0214
3181.00,0.0213
3180.00,0.0213
3179.00,0.0213
3178.00,0.0212
3177.00,0.0211
3176.00,0.0211
3175.00,0.0210
3174.00,0.0210
3173.00,0.0209
3172.00,0.0209
3171.00,0.0208
3170.00,0.0207
3169.00,0.0207
3168.00,0.0206
3167.00,0.0205
3166.00,0.0204
3165.00,0.0204
3164.00,0.0203
3163.00,0.0202
3162.00,0.0202
3161.00,0.0201
3160.00,0.0201
3159.00,0.0200
3158.00,0.0199
3157.00,0.0198
3156.00,0.0197
3155.00,0.0197
3154.00,0.0196
3153.00,0.0196
3152.00,0.0195
3151.00,0.0195
3150.00,0.0194
3149.00,0.0194
3148.00,0.0193
3147.00,0.0192
3146.00,0.0192
3145.00,0.0191
3144.00,0.0190
3143.00,0.0190
3142.00,0.0189
3141.00,0.0189
3140.00,0.0188
3139.00,0.0188
3138.00,0.0187
3137.00,0.0187
3136.00,0.0187
3135.00,0.0187
3134.00,0.0186
3133.00,0.0186
3132.00,0.0185
3131.00,0.0184
3130.00,0.0184
3129.00,0.0183
3128.00,0.0182
3127.00,0.0182
3126.00,0.0181
3125.00,0.0181
3124.00,0.0180
3123.00,0.0179
3122.00,0.0179
3121.00,0.0178
3120.00,0.0177
3119.00,0.0177
3118.00,0.0176
3117.00,0.0175
3116.00,0.0175
3115.00,0.0174
3114.00,0.0173
3113.00,0.0172
3112.00,0.0171
3111.00,0.0171
3110.00,0.0170
3109.00,0.0169
3108.00,0.0169
3107.00,0.0168
3106.00,0.0167
3105.00,0.0166
3104.00,0.0166
3103.00,0.0165
3102.00,0.0164
3101.00,0.0163
3100.00,0.0163
3099.00,0.0162
3098.00,0.0161
3097.00,0.0160
3096.00,0.0159
3095.00,0.0158
3094.00,0.0157
3093.00,0.0157
3092.00,0.0156
3091.00,0.0155
3090.00,0.0155
3089.00,0.0154
3088.00,0.0154
3087.00,0.0153
3086.00,0.0152
3085.00,0.0151
3084.00,0.0150
3083.00,0.0150
3082.00,0.0149
3081.00,0.0148
3080.00,0.0147
3079.00,0.0147
3078.00,0.0146
3077.00,0.0146
3076.00,0.0145
3075.00,0.0145
3074.00,0.0144
3073.00,0.0144
3072.00,0.0144
3071.00,0.0143
3070.00,0.0143
3069.00,0.0142
3068.00,0.0142
3067.00,0.0141
3066.00,0.0141
3065.00,0.0140
3064.00,0.0140
3063.00,0.0140
3062.00,0.0140
3061.00,0.0139
3060.00,0.0139
3059.00,0.0139
3058.00,0.0139
3057.00,0.0139
3056.00,0.0138
3055.00,0.0138
3054.00,0.0137
3053.00,0.0137
3052.00,0.0136
3051.00,0.0136
3050.00,0.0135
3049.00,0.0135
3048.00,0.0135
3047.00,0.0134
3046.00,0.0134
3045.00,0.0134
3044.00,0.0133
3043.00,0.0133
3042.00,0.0132
3041.00,0.0132
3040.00,0.0131
3039.00,0.0131
3038.00,0.0131
3037.00,0.0131
3036.00,0.0131
3035.00,0.0131
3034.00,0.0131
3033.00,0.0131
3032.00,0.0131
3031.00,0.0130
3030.00,0.0130
3029.00,0.0130
3028.00,0.0130
3027.00,0.0130
3026.00,0.0130
3025.00,0.0130
3024.00,0.0130
3023.00,0.0130
3022.00,0.0130
3021.00,0.0130
3020.00,0.0130
3019.00,0.0130
3018.00,0.0130
3017.00,0.0131
3016.00,0.0131
3015.00,0.0131
3014.00,0.0132
3013.00,0.0133
3012.00,0.0133
3011.00,0.0134
3010.00,0.0135
3009.00,0.0136
3008.00,0.0138
3007.00,0.0139
3006.00,0.0141
3005.00,0.0143
3004.00,0.0145
3003.00,0.0147
3002.00,0.0149
3001.00,0.0152
3000.00,0.0155
2999.00,0.0158
2998.00,0.0162
2997.00,0.0165
2996.00,0.0169
2995.00,0.0173
2994.00,0.0177
2993.00,0.0182
2992.00,0.0186
2991.00,0.0191
2990.00,0.0196
2989.00,0.0200
2988.00,0.0205
2987.00,0.0210
2986.00,0.0214
2985.00,0.0218
2984.00,0.0221
2983.00,0.0225
2982.00,0.0228
2981.00,0.0232
2980.00,0.0236
2979.00,0.0240
2978.00,0.0245
2977.00,0.0249
2976.00,0.0253
2975.00,0.0256
2974.00,0.0260
2973.00,0.0264
2972.00,0.0268
2971.00,0.0273
2970.00,0.0278
2969.00,0.0283
2968.00,0.0288
2967.00,0.0294
2966.00,0.0299
2965.00,0.0304
2964.00,0.0309
2963.00,0.0314
2962.00,0.0318
2961.00,0.0323
2960.00,0.0327
2959.00,0.0330
2958.00,0.0333
2957.00,0.0335
2956.00,0.0337
2955.00,0.0338
2954.00,0.0338
2953.00,0.0337
2952.00,0.0336
2951.00,0.0335
2950.00,0.0334
2949.00,0.0332
2948.00,0.0330
2947.00,0.0329
2946.00,0.0328
2945.00,0.0328
2944.00,0.0328
2943.00,0.0330
2942.00,0.0332
2941.00,0.0335
2940.00,0.0339
2939.00,0.0343
2938.00,0.0348
2937.00,0.0354
2936.00,0.0360
2935.00,0.0366
2934.00,0.0372
2933.00,0.0379
2932.00,0.0385
2931.00,0.0390
2930.00,0.0395
2929.00,0.0400
2928.00,0.0404
2927.00,0.0408
2926.00,0.0411
2925.00,0.0413
2924.00,0.0415
2923.00,0.0416
2922.00,0.0416
2921.00,0.0416
2920.00,0.0415
2919.00,0.0413
2918.00,0.0411
2917.00,0.0409
2916.00,0.0405
2915.00,0.0402
2914.00,0.0397
2913.00,0.0393
2912.00,0.0387
2911.00,0.0382
2910.00,0.0376
2909.00,0.0370
2908.00,0.0364
2907.00,0.0358
2906.00,0.0352
2905.00,0.0347
2904.00,0.0343
2903.00,0.0338
2902.00,0.0334
2901.00,0.0331
2900.00,0.0327
2899.00,0.0325
2898.00,0.0322
2897.00,0.0320
2896.00,0.0318
2895.00,0.0317
2894.00,0.0315
2893.00,0.0313
2892.00,0.0311
2891.00,0.0309
2890.00,0.0307
2889.00,0.0306
2888.00,0.0304
2887.00,0.0302
2886.00,0.0301
2885.00,0.0300
2884.00,0.0298
2883.00,0.0297
2882.00,0.0296
2881.00,0.0296
2880.00,0.0296
2879.00,0.0296
2878.00,0.0296
2877.00,0.0297
2876.00,0.0297
2875.00,0.0298
2874.00,0.0299
2873.00,0.0300
2872.00,0.0300
2871.00,0.0301
2870.00,0.0300
2869.00,0.0300
2868.00,0.0299
2867.00,0.0298
2866.00,0.0298
2865.00,0.0298
2864.00,0.0299
2863.00,0.0301
2862.00,0.0303
2861.00,0.0305
2860.00,0.0307
2859.00,0.0310
2858.00,0.0311
2857.00,0.0312
2856.00,0.0311
2855.00,0.0309
2854.00,0.0306
2853.00,0.0302
2852.00,0.0297
2851.00,0.0291
2850.00,0.0285
2849.00,0.0278
2848.00,0.0271
2847.00,0.0264
2846.00,0.0257
2845.00,0.0250
2844.00,0.0243
2843.00,0.0236
2842.00,0.0230
2841.00,0.0224
2840.00,0.0218
2839.00,0.0213
2838.00,0.0208
2837.00,0.0203
2836.00,0.0199
2835.00,0.0195
2834.00,0.0191
2833.00,0.0187
2832.00,0.0183
2831.00,0.0180
2830.00,0.0176
2829.00,0.0173
2828.00,0.0170
2827.00,0.0167
2826.00,0.0163
2825.00,0.0160
2824.00,0.0157
2823.00,0.0154
2822.00,0.0151
2821.00,0.0148
2820.00,0.0146
2819.00,0.0143
2818.00,0.0141
2817.00,0.0138
2816.00,0.0136
2815.00,0.0134
2814.00,0.0132
2813.00,0.0130
2812.00,0.0128
2811.00,0.0126
2810.00,0.0125
2809.00,0.0123
2808.00,0.0122
2807.00,0.0121
2806.00,0.0120
2805.00,0.0119
2804.00,0.0118
2803.00,0.0117
2802.00,0.0116
2801.00,0.0115
2800.00,0.0114
2799.00,0.0113
2798.00,0.0112
2797.00,0.0112
2796.00,0.0111
2795.00,0.0110
2794.00,0.0110
2793.00,0.0109
2792.00,0.0109
2791.00,0.0108
2790.00,0.0108
2789.00,0.0107
2788.00,0.0107
2787.00,0.0106
2786.00,0.0106
2785.00,0.0106
2784.00,0.0105
2783.00,0.0105
2782.00,0.0104
2781.00,0.0104
2780.00,0.0104
2779.00,0.0103
2778.00,0.0103
2777.00,0.0102
2776.00,0.0102
2775.00,0.0102
2774.00,0.0101
2773.00,0.0101
2772.00,0.0101
2771.00,0.0101
2770.00,0.0100
2769.00,0.0100
2768.00,0.0099
2767.00,0.0099
2766.00,0.0099
2765.00,0.0099
2764.00,0.0098
2763.00,0.0098
2762.00,0.0098
2761.00,0.0098
2760.00,0.0098
2759.00,0.0098
2758.00,0.0098
2757.00,0.0098
