Created as New Dataset,Sample 351 By YargerLab Date Tuesday, November 11 2025
cm-1,A
4000.00,0.0094
3999.00,0.0094
3998.00,0.0094
3997.00,0.0094
3996.00,0.0094
3995.00,0.0094
3994.00,0.0094
3993.00,0.0094
3992.00,0.0094
3991.00,0.0094
3990.00,0.0094
3989.00,0.0094
3988.00,0.0094
3987.00,0.0094
3986.00,0.0094
3985.00,0.0094
3984.00,0.0094
3983.00,0.0094
3982.00,0.0094
3981.00,0.0094
3980.00,0.0094
3979.00,0.0094
3978.00,0.0094
3977.00,0.0094
3976.00,0.0094
3975.00,0.0094
3974.00,0.0094
3973.00,0.0094
3972.00,0.0094
3971.00,0.0094
3970.00,0.0095
3969.00,0.0095
3968.00,0.0095
3967.00,0.0094
3966.00,0.0094
3965.00,0.0094
3964.00,0.0094
3963.00,0.0094
3962.00,0.0094
3961.00,0.0094
3960.00,0.0094
3959.00,0.0093
3958.00,0.0093
3957.00,0.0093
3956.00,0.0093
3955.00,0.0093
3954.00,0.0093
3953.00,0.0093
3952.00,0.0093
3951.00,0.0093
3950.00,0.0093
3949.00,0.0093
3948.00,0.0093
3947.00,0.0093
3946.00,0.0094
3945.00,0.0094
3944.00,0.0094
3943.00,0.0094
3942.00,0.0094
3941.00,0.0093
3940.00,0.0093
3939.00,0.0093
3938.00,0.0093
3937.00,0.0093
3936.00,0.0093
3935.00,0.0093
3934.00,0.0094
3933.00,0.0094
3932.00,0.0094
3931.00,0.0094
3930.00,0.0094
3929.00,0.0093
3928.00,0.0093
3927.00,0.0093
3926.00,0.0093
3925.00,0.0093
3924.00,0.0093
3923.00,0.0093
3922.00,0.0093
3921.00,0.0094
3920.00,0.0094
3919.00,0.0094
3918.00,0.0094
3917.00,0.0094
3916.00,0.0094
3915.00,0.0094
3914.00,0.0094
3913.00,0.0094
3912.00,0.0094
3911.00,0.0094
3910.00,0.0093
3909.00,0.0093
3908.00,0.0093
3907.00,0.0093
3906.00,0.0094
3905.00,0.0094
3904.00,0.0094
3903.00,0.0094
3902.00,0.0094
3901.00,0.0094
3900.00,0.0093
3899.00,0.0093
3898.00,0.0093
3897.00,0.0093
3896.00,0.0093
3895.00,0.0093
3894.00,0.0093
3893.00,0.0093
3892.00,0.0093
3891.00,0.0093
3890.00,0.0093
3889.00,0.0093
3888.00,0.0093
3887.00,0.0094
3886.00,0.0094
3885.00,0.0094
3884.00,0.0094
3883.00,0.0093
3882.00,0.0093
3881.00,0.0093
3880.00,0.0093
3879.00,0.0093
3878.00,0.0093
3877.00,0.0093
3876.00,0.0093
3875.00,0.0094
3874.00,0.0094
3873.00,0.0093
3872.00,0.0093
3871.00,0.0093
3870.00,0.0093
3869.00,0.0092
3868.00,0.0092
3867.00,0.0093
3866.00,0.0093
3865.00,0.0093
3864.00,0.0093
3863.00,0.0093
3862.00,0.0093
3861.00,0.0093
3860.00,0.0093
3859.00,0.0093
3858.00,0.0092
3857.00,0.0092
3856.00,0.0092
3855.00,0.0091
3854.00,0.0091
3853.00,0.0091
3852.00,0.0091
3851.00,0.0092
3850.00,0.0092
3849.00,0.0093
3848.00,0.0093
3847.00,0.0093
3846.00,0.0093
3845.00,0.0094
3844.00,0.0094
3843.00,0.0094
3842.00,0.0093
3841.00,0.0093
3840.00,0.0093
3839.00,0.0093
3838.00,0.0092
3837.00,0.0092
3836.00,0.0092
3835.00,0.0092
3834.00,0.0092
3833.00,0.0092
3832.00,0.0092
3831.00,0.0092
3830.00,0.0093
3829.00,0.0093
3828.00,0.0093
3827.00,0.0093
3826.00,0.0093
3825.00,0.0093
3824.00,0.0093
3823.00,0.0093
3822.00,0.0093
3821.00,0.0093
3820.00,0.0092
3819.00,0.0092
3818.00,0.0092
3817.00,0.0092
3816.00,0.0092
3815.00,0.0092
3814.00,0.0092
3813.00,0.0093
3812.00,0.0093
3811.00,0.0093
3810.00,0.0093
3809.00,0.0093
3808.00,0.0093
3807.00,0.0092
3806.00,0.0092
3805.00,0.0092
3804.00,0.0092
3803.00,0.0091
3802.00,0.0091
3801.00,0.0091
3800.00,0.0091
3799.00,0.0092
3798.00,0.0092
3797.00,0.0092
3796.00,0.0092
3795.00,0.0092
3794.00,0.0092
3793.00,0.0092
3792.00,0.0092
3791.00,0.0092
3790.00,0.0092
3789.00,0.0093
3788.00,0.0093
3787.00,0.0093
3786.00,0.0092
3785.00,0.0092
3784.00,0.0092
3783.00,0.0092
3782.00,0.0092
3781.00,0.0092
3780.00,0.0092
3779.00,0.0092
3778.00,0.0091
3777.00,0.0091
3776.00,0.0091
3775.00,0.0092
3774.00,0.0092
3773.00,0.0092
3772.00,0.0092
3771.00,0.0092
3770.00,0.0092
3769.00,0.0092
3768.00,0.0092
3767.00,0.0092
3766.00,0.0092
3765.00,0.0092
3764.00,0.0092
3763.00,0.0092
3762.00,0.0092
3761.00,0.0092
3760.00,0.0092
3759.00,0.0093
3758.00,0.0093
3757.00,0.0093
3756.00,0.0092
3755.00,0.0092
3754.00,0.0092
3753.00,0.0092
3752.00,0.0092
3751.00,0.0091
3750.00,0.0091
3749.00,0.0091
3748.00,0.0090
3747.00,0.0090
3746.00,0.0090
3745.00,0.0090
3744.00,0.0090
3743.00,0.0091
3742.00,0.0091
3741.00,0.0091
3740.00,0.0091
3739.00,0.0091
3738.00,0.0091
3737.00,0.0091
3736.00,0.0090
3735.00,0.0090
3734.00,0.0090
3733.00,0.0090
3732.00,0.0090
3731.00,0.0091
3730.00,0.0091
3729.00,0.0091
3728.00,0.0091
3727.00,0.0091
3726.00,0.0091
3725.00,0.0091
3724.00,0.0091
3723.00,0.0091
3722.00,0.0091
3721.00,0.0091
3720.00,0.0091
3719.00,0.0091
3718.00,0.0091
3717.00,0.0091
3716.00,0.0091
3715.00,0.0091
3714.00,0.0091
3713.00,0.0091
3712.00,0.0091
3711.00,0.0090
3710.00,0.0090
3709.00,0.0090
3708.00,0.0090
3707.00,0.0090
3706.00,0.0090
3705.00,0.0090
3704.00,0.0090
3703.00,0.0090
3702.00,0.0091
3701.00,0.0091
3700.00,0.0091
3699.00,0.0091
3698.00,0.0091
3697.00,0.0091
3696.00,0.0091
3695.00,0.0090
3694.00,0.0090
3693.00,0.0090
3692.00,0.0090
3691.00,0.0090
3690.00,0.0090
3689.00,0.0090
3688.00,0.0090
3687.00,0.0091
3686.00,0.0091
3685.00,0.0091
3684.00,0.0091
3683.00,0.0092
3682.00,0.0092
3681.00,0.0092
3680.00,0.0092
3679.00,0.0092
3678.00,0.0092
3677.00,0.0092
3676.00,0.0092
3675.00,0.0091
3674.00,0.0091
3673.00,0.0092
3672.00,0.0092
3671.00,0.0092
3670.00,0.0092
3669.00,0.0093
3668.00,0.0093
3667.00,0.0093
3666.00,0.0093
3665.00,0.0093
3664.00,0.0093
3663.00,0.0093
3662.00,0.0093
3661.00,0.0093
3660.00,0.0093
3659.00,0.0093
3658.00,0.0093
3657.00,0.0093
3656.00,0.0093
3655.00,0.0093
3654.00,0.0093
3653.00,0.0094
3652.00,0.0094
3651.00,0.0094
3650.00,0.0094
3649.00,0.0094
3648.00,0.0095
3647.00,0.0095
3646.00,0.0095
3645.00,0.0095
3644.00,0.0095
3643.00,0.0095
3642.00,0.0095
3641.00,0.0095
3640.00,0.0095
3639.00,0.0095
3638.00,0.0095
3637.00,0.0095
3636.00,0.0096
3635.00,0.0096
3634.00,0.0096
3633.00,0.0097
3632.00,0.0097
3631.00,0.0098
3630.00,0.0098
3629.00,0.0098
3628.00,0.0098
3627.00,0.0098
3626.00,0.0098
3625.00,0.0099
3624.00,0.0099
3623.00,0.0099
3622.00,0.0100
3621.00,0.0100
3620.00,0.0100
3619.00,0.0100
3618.00,0.0101
3617.00,0.0101
3616.00,0.0101
3615.00,0.0102
3614.00,0.0102
3613.00,0.0102
3612.00,0.0103
3611.00,0.0103
3610.00,0.0104
3609.00,0.0104
3608.00,0.0104
3607.00,0.0104
3606.00,0.0104
3605.00,0.0104
3604.00,0.0104
3603.00,0.0105
3602.00,0.0105
3601.00,0.0106
3600.00,0.0106
3599.00,0.0106
3598.00,0.0107
3597.00,0.0107
3596.00,0.0107
3595.00,0.0108
3594.00,0.0108
3593.00,0.0108
3592.00,0.0109
3591.00,0.0109
3590.00,0.0110
3589.00,0.0110
3588.00,0.0111
3587.00,0.0111
3586.00,0.0111
3585.00,0.0111
3584.00,0.0112
3583.00,0.0112
3582.00,0.0113
3581.00,0.0113
3580.00,0.0114
3579.00,0.0114
3578.00,0.0114
3577.00,0.0115
3576.00,0.0115
3575.00,0.0116
3574.00,0.0116
3573.00,0.0117
3572.00,0.0117
3571.00,0.0118
3570.00,0.0119
3569.00,0.0120
3568.00,0.0120
3567.00,0.0120
3566.00,0.0121
3565.00,0.0121
3564.00,0.0121
3563.00,0.0122
3562.00,0.0122
3561.00,0.0123
3560.00,0.0123
3559.00,0.0123
3558.00,0.0124
3557.00,0.0124
3556.00,0.0124
3555.00,0.0125
3554.00,0.0125
3553.00,0.0126
3552.00,0.0126
3551.00,0.0126
3550.00,0.0127
3549.00,0.0127
3548.00,0.0128
3547.00,0.0128
3546.00,0.0129
3545.00,0.0129
3544.00,0.0130
3543.00,0.0130
3542.00,0.0130
3541.00,0.0130
3540.00,0.0130
3539.00,0.0130
3538.00,0.0131
3537.00,0.0131
3536.00,0.0131
3535.00,0.0132
3534.00,0.0132
3533.00,0.0132
3532.00,0.0133
3531.00,0.0134
3530.00,0.0134
3529.00,0.0135
3528.00,0.0135
3527.00,0.0136
3526.00,0.0136
3525.00,0.0136
3524.00,0.0137
3523.00,0.0137
3522.00,0.0137
3521.00,0.0138
3520.00,0.0138
3519.00,0.0138
3518.00,0.0139
3517.00,0.0139
3516.00,0.0140
3515.00,0.0140
3514.00,0.0140
3513.00,0.0141
3512.00,0.0141
3511.00,0.0142
3510.00,0.0143
3509.00,0.0143
3508.00,0.0143
3507.00,0.0144
3506.00,0.0144
3505.00,0.0145
3504.00,0.0145
3503.00,0.0146
3502.00,0.0147
3501.00,0.0147
3500.00,0.0148
3499.00,0.0148
3498.00,0.0149
3497.00,0.0149
3496.00,0.0150
3495.00,0.0150
3494.00,0.0151
3493.00,0.0151
3492.00,0.0152
3491.00,0.0152
3490.00,0.0153
3489.00,0.0154
3488.00,0.0154
3487.00,0.0155
3486.00,0.0156
3485.00,0.0156
3484.00,0.0156
3483.00,0.0157
3482.00,0.0157
3481.00,0.0157
3480.00,0.0157
3479.00,0.0158
3478.00,0.0159
3477.00,0.0160
3476.00,0.0160
3475.00,0.0161
3474.00,0.0161
3473.00,0.0162
3472.00,0.0162
3471.00,0.0163
3470.00,0.0163
3469.00,0.0164
3468.00,0.0164
3467.00,0.0165
3466.00,0.0165
3465.00,0.0166
3464.00,0.0167
3463.00,0.0167
3462.00,0.0168
3461.00,0.0168
3460.00,0.0169
3459.00,0.0169
3458.00,0.0170
3457.00,0.0170
3456.00,0.0170
3455.00,0.0171
3454.00,0.0171
3453.00,0.0172
3452.00,0.0172
3451.00,0.0173
3450.00,0.0174
3449.00,0.0174
3448.00,0.0175
3447.00,0.0175
3446.00,0.0176
3445.00,0.0176
3444.00,0.0176
3443.00,0.0177
3442.00,0.0178
3441.00,0.0178
3440.00,0.0179
3439.00,0.0179
3438.00,0.0180
3437.00,0.0180
3436.00,0.0181
3435.00,0.0181
3434.00,0.0182
3433.00,0.0182
3432.00,0.0183
3431.00,0.0184
3430.00,0.0184
3429.00,0.0185
3428.00,0.0185
3427.00,0.0186
3426.00,0.0186
3425.00,0.0187
3424.00,0.0187
3423.00,0.0188
3422.00,0.0189
3421.00,0.0189
3420.00,0.0190
3419.00,0.0190
3418.00,0.0191
3417.00,0.0192
3416.00,0.0192
3415.00,0.0193
3414.00,0.0194
3413.00,0.0195
3412.00,0.0195
3411.00,0.0196
3410.00,0.0196
3409.00,0.0197
3408.00,0.0198
3407.00,0.0199
3406.00,0.0199
3405.00,0.0200
3404.00,0.0201
3403.00,0.0201
3402.00,0.0202
3401.00,0.0203
3400.00,0.0204
3399.00,0.0205
3398.00,0.0206
3397.00,0.0207
3396.00,0.0208
3395.00,0.0208
3394.00,0.0209
3393.00,0.0210
3392.00,0.0211
3391.00,0.0212
3390.00,0.0213
3389.00,0.0214
3388.00,0.0216
3387.00,0.0217
3386.00,0.0218
3385.00,0.0219
3384.00,0.0219
3383.00,0.0220
3382.00,0.0221
3381.00,0.0222
3380.00,0.0223
3379.00,0.0224
3378.00,0.0225
3377.00,0.0226
3376.00,0.0227
3375.00,0.0228
3374.00,0.0229
3373.00,0.0229
3372.00,0.0229
3371.00,0.0230
3370.00,0.0230
3369.00,0.0231
3368.00,0.0232
3367.00,0.0233
3366.00,0.0235
3365.00,0.0237
3364.00,0.0238
3363.00,0.0240
3362.00,0.0240
3361.00,0.0241
3360.00,0.0242
3359.00,0.0243
3358.00,0.0244
3357.00,0.0245
3356.00,0.0246
3355.00,0.0247
3354.00,0.0247
3353.00,0.0247
3352.00,0.0248
3351.00,0.0249
3350.00,0.0250
3349.00,0.0252
3348.00,0.0253
3347.00,0.0254
3346.00,0.0254
3345.00,0.0255
3344.00,0.0255
3343.00,0.0256
3342.00,0.0256
3341.00,0.0257
3340.00,0.0257
3339.00,0.0258
3338.00,0.0259
3337.00,0.0260
3336.00,0.0261
3335.00,0.0262
3334.00,0.0263
3333.00,0.0264
3332.00,0.0265
3331.00,0.0266
3330.00,0.0266
3329.00,0.0266
3328.00,0.0266
3327.00,0.0266
3326.00,0.0266
3325.00,0.0267
3324.00,0.0268
3323.00,0.0270
3322.00,0.0271
3321.00,0.0272
3320.00,0.0273
3319.00,0.0273
3318.00,0.0274
3317.00,0.0274
3316.00,0.0275
3315.00,0.0276
3314.00,0.0276
3313.00,0.0276
3312.00,0.0276
3311.00,0.0275
3310.00,0.0274
3309.00,0.0273
3308.00,0.0273
3307.00,0.0273
3306.00,0.0274
3305.00,0.0275
3304.00,0.0277
3303.00,0.0279
3302.00,0.0281
3301.00,0.0282
3300.00,0.0282
3299.00,0.0282
3298.00,0.0282
3297.00,0.0281
3296.00,0.0281
3295.00,0.0281
3294.00,0.0281
3293.00,0.0282
3292.00,0.0282
3291.00,0.0284
3290.00,0.0285
3289.00,0.0285
3288.00,0.0286
3287.00,0.0286
3286.00,0.0287
3285.00,0.0287
3284.00,0.0287
3283.00,0.0287
3282.00,0.0288
3281.00,0.0288
3280.00,0.0288
3279.00,0.0288
3278.00,0.0288
3277.00,0.0287
3276.00,0.0287
3275.00,0.0287
3274.00,0.0286
3273.00,0.0286
3272.00,0.0286
3271.00,0.0286
3270.00,0.0287
3269.00,0.0288
3268.00,0.0289
3267.00,0.0289
3266.00,0.0290
3265.00,0.0290
3264.00,0.0290
3263.00,0.0290
3262.00,0.0290
3261.00,0.0290
3260.00,0.0290
3259.00,0.0289
3258.00,0.0289
3257.00,0.0289
3256.00,0.0289
3255.00,0.0290
3254.00,0.0290
3253.00,0.0290
3252.00,0.0290
3251.00,0.0290
3250.00,0.0290
3249.00,0.0290
3248.00,0.0290
3247.00,0.0290
3246.00,0.0290
3245.00,0.0291
3244.00,0.0291
3243.00,0.0291
3242.00,0.0291
3241.00,0.0291
3240.00,0.0291
3239.00,0.0291
3238.00,0.0291
3237.00,0.0290
3236.00,0.0290
3235.00,0.0289
3234.00,0.0289
3233.00,0.0289
3232.00,0.0289
3231.00,0.0290
3230.00,0.0289
3229.00,0.0289
3228.00,0.0289
3227.00,0.0289
3226.00,0.0289
3225.00,0.0289
3224.00,0.0289
3223.00,0.0289
3222.00,0.0289
3221.00,0.0288
3220.00,0.0288
3219.00,0.0288
3218.00,0.0288
3217.00,0.0288
3216.00,0.0288
3215.00,0.0288
3214.00,0.0288
3213.00,0.0288
3212.00,0.0288
3211.00,0.0288
3210.00,0.0288
3209.00,0.0288
3208.00,0.0288
3207.00,0.0288
3206.00,0.0288
3205.00,0.0288
3204.00,0.0288
3203.00,0.0289
3202.00,0.0289
3201.00,0.0289
3200.00,0.0289
3199.00,0.0288
3198.00,0.0288
3197.00,0.0288
3196.00,0.0288
3195.00,0.0287
3194.00,0.0287
3193.00,0.0287
3192.00,0.0287
3191.00,0.0286
3190.00,0.0285
3189.00,0.0285
3188.00,0.0284
3187.00,0.0284
3186.00,0.0284
3185.00,0.0283
3184.00,0.0283
3183.00,0.0283
3182.00,0.0282
3181.00,0.0282
3180.00,0.0281
3179.00,0.0281
3178.00,0.0280
3177.00,0.0280
3176.00,0.0279
3175.00,0.0279
3174.00,0.0278
3173.00,0.0277
3172.00,0.0277
3171.00,0.0276
3170.00,0.0276
3169.00,0.0275
3168.00,0.0274
3167.00,0.0274
3166.00,0.0273
3165.00,0.0272
3164.00,0.0272
3163.00,0.0271
3162.00,0.0270
3161.00,0.0269
3160.00,0.0269
3159.00,0.0268
3158.00,0.0267
3157.00,0.0267
3156.00,0.0266
3155.00,0.0265
3154.00,0.0264
3153.00,0.0263
3152.00,0.0263
3151.00,0.0262
3150.00,0.0261
3149.00,0.0261
3148.00,0.0260
3147.00,0.0260
3146.00,0.0259
3145.00,0.0258
3144.00,0.0258
3143.00,0.0257
3142.00,0.0256
3141.00,0.0256
3140.00,0.0255
3139.00,0.0255
3138.00,0.0254
3137.00,0.0254
3136.00,0.0254
3135.00,0.0253
3134.00,0.0253
3133.00,0.0252
3132.00,0.0252
3131.00,0.0251
3130.00,0.0250
3129.00,0.0250
3128.00,0.0249
3127.00,0.0249
3126.00,0.0248
3125.00,0.0248
3124.00,0.0247
3123.00,0.0246
3122.00,0.0245
3121.00,0.0244
3120.00,0.0243
3119.00,0.0243
3118.00,0.0242
3117.00,0.0241
3116.00,0.0241
3115.00,0.0240
3114.00,0.0239
3113.00,0.0238
3112.00,0.0237
3111.00,0.0237
3110.00,0.0236
3109.00,0.0235
3108.00,0.0234
3107.00,0.0233
3106.00,0.0232
3105.00,0.0231
3104.00,0.0230
3103.00,0.0229
3102.00,0.0228
3101.00,0.0227
3100.00,0.0226
3099.00,0.0226
3098.00,0.0225
3097.00,0.0224
3096.00,0.0223
3095.00,0.0222
3094.00,0.0221
3093.00,0.0220
3092.00,0.0219
3091.00,0.0218
3090.00,0.0218
3089.00,0.0217
3088.00,0.0216
3087.00,0.0216
3086.00,0.0215
3085.00,0.0214
3084.00,0.0213
3083.00,0.0212
3082.00,0.0211
3081.00,0.0210
3080.00,0.0209
3079.00,0.0209
3078.00,0.0208
3077.00,0.0208
3076.00,0.0207
3075.00,0.0207
3074.00,0.0206
3073.00,0.0205
3072.00,0.0205
3071.00,0.0204
3070.00,0.0203
3069.00,0.0203
3068.00,0.0202
3067.00,0.0202
3066.00,0.0201
3065.00,0.0201
3064.00,0.0201
3063.00,0.0201
3062.00,0.0201
3061.00,0.0200
3060.00,0.0199
3059.00,0.0199
3058.00,0.0198
3057.00,0.0198
3056.00,0.0198
3055.00,0.0198
3054.00,0.0197
3053.00,0.0197
3052.00,0.0196
3051.00,0.0196
3050.00,0.0195
3049.00,0.0194
3048.00,0.0194
3047.00,0.0193
3046.00,0.0193
3045.00,0.0192
3044.00,0.0191
3043.00,0.0191
3042.00,0.0191
3041.00,0.0190
3040.00,0.0190
3039.00,0.0189
3038.00,0.0189
3037.00,0.0189
3036.00,0.0188
3035.00,0.0188
3034.00,0.0188
3033.00,0.0188
3032.00,0.0188
3031.00,0.0188
3030.00,0.0188
3029.00,0.0188
3028.00,0.0188
3027.00,0.0188
3026.00,0.0188
3025.00,0.0188
3024.00,0.0188
3023.00,0.0188
3022.00,0.0188
3021.00,0.0188
3020.00,0.0187
3019.00,0.0188
3018.00,0.0188
3017.00,0.0188
3016.00,0.0188
3015.00,0.0188
3014.00,0.0188
3013.00,0.0189
3012.00,0.0190
3011.00,0.0191
3010.00,0.0193
3009.00,0.0194
3008.00,0.0196
3007.00,0.0197
3006.00,0.0199
3005.00,0.0201
3004.00,0.0204
3003.00,0.0206
3002.00,0.0209
3001.00,0.0212
3000.00,0.0216
2999.00,0.0220
2998.00,0.0224
2997.00,0.0228
2996.00,0.0233
2995.00,0.0237
2994.00,0.0242
2993.00,0.0248
2992.00,0.0253
2991.00,0.0259
2990.00,0.0265
2989.00,0.0270
2988.00,0.0276
2987.00,0.0282
2986.00,0.0287
2985.00,0.0292
2984.00,0.0297
2983.00,0.0302
2982.00,0.0306
2981.00,0.0311
2980.00,0.0316
2979.00,0.0321
2978.00,0.0326
2977.00,0.0331
2976.00,0.0335
2975.00,0.0340
2974.00,0.0345
2973.00,0.0349
2972.00,0.0354
2971.00,0.0360
2970.00,0.0366
2969.00,0.0372
2968.00,0.0378
2967.00,0.0384
2966.00,0.0390
2965.00,0.0396
2964.00,0.0402
2963.00,0.0407
2962.00,0.0412
2961.00,0.0417
2960.00,0.0422
2959.00,0.0425
2958.00,0.0428
2957.00,0.0431
2956.00,0.0433
2955.00,0.0434
2954.00,0.0434
2953.00,0.0434
2952.00,0.0433
2951.00,0.0432
2950.00,0.0430
2949.00,0.0427
2948.00,0.0425
2947.00,0.0423
2946.00,0.0422
2945.00,0.0422
2944.00,0.0422
2943.00,0.0424
2942.00,0.0426
2941.00,0.0429
2940.00,0.0433
2939.00,0.0439
2938.00,0.0444
2937.00,0.0451
2936.00,0.0458
2935.00,0.0465
2934.00,0.0473
2933.00,0.0480
2932.00,0.0487
2931.00,0.0494
2930.00,0.0501
2929.00,0.0508
2928.00,0.0513
2927.00,0.0518
2926.00,0.0522
2925.00,0.0525
2924.00,0.0527
2923.00,0.0528
2922.00,0.0529
2921.00,0.0529
2920.00,0.0528
2919.00,0.0526
2918.00,0.0524
2917.00,0.0521
2916.00,0.0518
2915.00,0.0513
2914.00,0.0508
2913.00,0.0503
2912.00,0.0497
2911.00,0.0490
2910.00,0.0483
2909.00,0.0476
2908.00,0.0469
2907.00,0.0462
2906.00,0.0455
2905.00,0.0449
2904.00,0.0443
2903.00,0.0438
2902.00,0.0433
2901.00,0.0428
2900.00,0.0424
2899.00,0.0421
2898.00,0.0418
2897.00,0.0415
2896.00,0.0413
2895.00,0.0411
2894.00,0.0409
2893.00,0.0407
2892.00,0.0405
2891.00,0.0403
2890.00,0.0401
2889.00,0.0399
2888.00,0.0398
2887.00,0.0396
2886.00,0.0394
2885.00,0.0393
2884.00,0.0391
2883.00,0.0390
2882.00,0.0389
2881.00,0.0389
2880.00,0.0389
2879.00,0.0389
2878.00,0.0390
2877.00,0.0390
2876.00,0.0391
2875.00,0.0392
2874.00,0.0393
2873.00,0.0394
2872.00,0.0395
2871.00,0.0396
2870.00,0.0396
2869.00,0.0395
2868.00,0.0394
2867.00,0.0393
2866.00,0.0393
2865.00,0.0393
2864.00,0.0394
2863.00,0.0396
2862.00,0.0398
2861.00,0.0400
2860.00,0.0403
2859.00,0.0405
2858.00,0.0407
2857.00,0.0409
2856.00,0.0408
2855.00,0.0407
2854.00,0.0404
2853.00,0.0399
2852.00,0.0393
2851.00,0.0386
2850.00,0.0379
2849.00,0.0371
2848.00,0.0362
2847.00,0.0354
2846.00,0.0347
2845.00,0.0339
2844.00,0.0331
2843.00,0.0323
2842.00,0.0315
2841.00,0.0307
2840.00,0.0300
2839.00,0.0293
2838.00,0.0287
2837.00,0.0282
2836.00,0.0277
2835.00,0.0272
2834.00,0.0267
2833.00,0.0262
2832.00,0.0258
2831.00,0.0253
2830.00,0.0249
2829.00,0.0244
2828.00,0.0240
2827.00,0.0236
2826.00,0.0232
2825.00,0.0228
2824.00,0.0224
2823.00,0.0220
2822.00,0.0216
2821.00,0.0212
2820.00,0.0209
2819.00,0.0206
2818.00,0.0203
2817.00,0.0200
2816.00,0.0198
2815.00,0.0196
2814.00,0.0193
2813.00,0.0191
2812.00,0.0190
2811.00,0.0188
2810.00,0.0186
2809.00,0.0185
2808.00,0.0184
2807.00,0.0183
2806.00,0.0182
2805.00,0.0180
2804.00,0.0180
2803.00,0.0179
2802.00,0.0178
2801.00,0.0177
2800.00,0.0176
2799.00,0.0175
2798.00,0.0174
2797.00,0.0173
2796.00,0.0172
2795.00,0.0172
2794.00,0.0171
2793.00,0.0170
2792.00,0.0170
2791.00,0.0169
2790.00,0.0169
2789.00,0.0168
2788.00,0.0168
2787.00,0.0168
2786.00,0.0167
2785.00,0.0167
2784.00,0.0166
2783.00,0.0166
2782.00,0.0165
2781.00,0.0165
2780.00,0.0165
2779.00,0.0164
2778.00,0.0164
2777.00,0.0163
2776.00,0.0163
2775.00,0.0162
2774.00,0.0162
2773.00,0.0162
2772.00,0.0162
2771.00,0.0161
2770.00,0.0161
2769.00,0.0160
2768.00,0.0160
2767.00,0.0160
2766.00,0.0159
2765.00,0.0159
2764.00,0.0159
2763.00,0.0159
2762.00,0.0159
2761.00,0.0159
2760.00,0.0159
2759.00,0.0159
2758.00,0.0159
2757.00,0.0158
