Created as New Dataset,Sample 355 By YargerLab Date Tuesday, November 11 2025
cm-1,A
4000.00,0.0062
3999.00,0.0062
3998.00,0.0062
3997.00,0.0062
3996.00,0.0062
3995.00,0.0062
3994.00,0.0062
3993.00,0.0062
3992.00,0.0062
3991.00,0.0062
3990.00,0.0062
3989.00,0.0062
3988.00,0.0062
3987.00,0.0063
3986.00,0.0062
3985.00,0.0062
3984.00,0.0062
3983.00,0.0062
3982.00,0.0062
3981.00,0.0062
3980.00,0.0062
3979.00,0.0062
3978.00,0.0062
3977.00,0.0062
3976.00,0.0062
3975.00,0.0062
3974.00,0.0062
3973.00,0.0062
3972.00,0.0062
3971.00,0.0062
3970.00,0.0062
3969.00,0.0062
3968.00,0.0062
3967.00,0.0062
3966.00,0.0062
3965.00,0.0062
3964.00,0.0062
3963.00,0.0062
3962.00,0.0062
3961.00,0.0062
3960.00,0.0062
3959.00,0.0062
3958.00,0.0062
3957.00,0.0062
3956.00,0.0062
3955.00,0.0062
3954.00,0.0062
3953.00,0.0062
3952.00,0.0062
3951.00,0.0062
3950.00,0.0062
3949.00,0.0062
3948.00,0.0062
3947.00,0.0062
3946.00,0.0062
3945.00,0.0062
3944.00,0.0062
3943.00,0.0062
3942.00,0.0062
3941.00,0.0062
3940.00,0.0062
3939.00,0.0062
3938.00,0.0062
3937.00,0.0062
3936.00,0.0062
3935.00,0.0062
3934.00,0.0062
3933.00,0.0062
3932.00,0.0062
3931.00,0.0062
3930.00,0.0061
3929.00,0.0061
3928.00,0.0061
3927.00,0.0061
3926.00,0.0061
3925.00,0.0061
3924.00,0.0061
3923.00,0.0061
3922.00,0.0061
3921.00,0.0061
3920.00,0.0061
3919.00,0.0061
3918.00,0.0061
3917.00,0.0062
3916.00,0.0062
3915.00,0.0062
3914.00,0.0062
3913.00,0.0062
3912.00,0.0062
3911.00,0.0062
3910.00,0.0062
3909.00,0.0062
3908.00,0.0062
3907.00,0.0062
3906.00,0.0062
3905.00,0.0062
3904.00,0.0062
3903.00,0.0062
3902.00,0.0061
3901.00,0.0062
3900.00,0.0062
3899.00,0.0062
3898.00,0.0062
3897.00,0.0062
3896.00,0.0062
3895.00,0.0062
3894.00,0.0062
3893.00,0.0062
3892.00,0.0062
3891.00,0.0061
3890.00,0.0061
3889.00,0.0061
3888.00,0.0061
3887.00,0.0061
3886.00,0.0060
3885.00,0.0060
3884.00,0.0060
3883.00,0.0061
3882.00,0.0061
3881.00,0.0061
3880.00,0.0061
3879.00,0.0062
3878.00,0.0062
3877.00,0.0062
3876.00,0.0062
3875.00,0.0062
3874.00,0.0061
3873.00,0.0061
3872.00,0.0061
3871.00,0.0061
3870.00,0.0061
3869.00,0.0060
3868.00,0.0060
3867.00,0.0060
3866.00,0.0060
3865.00,0.0060
3864.00,0.0061
3863.00,0.0061
3862.00,0.0061
3861.00,0.0061
3860.00,0.0062
3859.00,0.0062
3858.00,0.0062
3857.00,0.0062
3856.00,0.0062
3855.00,0.0062
3854.00,0.0062
3853.00,0.0062
3852.00,0.0061
3851.00,0.0061
3850.00,0.0061
3849.00,0.0061
3848.00,0.0062
3847.00,0.0062
3846.00,0.0062
3845.00,0.0062
3844.00,0.0061
3843.00,0.0061
3842.00,0.0061
3841.00,0.0061
3840.00,0.0061
3839.00,0.0061
3838.00,0.0061
3837.00,0.0061
3836.00,0.0061
3835.00,0.0061
3834.00,0.0061
3833.00,0.0061
3832.00,0.0061
3831.00,0.0061
3830.00,0.0062
3829.00,0.0062
3828.00,0.0062
3827.00,0.0062
3826.00,0.0062
3825.00,0.0062
3824.00,0.0062
3823.00,0.0062
3822.00,0.0061
3821.00,0.0061
3820.00,0.0061
3819.00,0.0062
3818.00,0.0062
3817.00,0.0062
3816.00,0.0062
3815.00,0.0062
3814.00,0.0062
3813.00,0.0062
3812.00,0.0062
3811.00,0.0062
3810.00,0.0062
3809.00,0.0062
3808.00,0.0062
3807.00,0.0061
3806.00,0.0061
3805.00,0.0061
3804.00,0.0061
3803.00,0.0061
3802.00,0.0061
3801.00,0.0061
3800.00,0.0061
3799.00,0.0061
3798.00,0.0061
3797.00,0.0061
3796.00,0.0061
3795.00,0.0061
3794.00,0.0061
3793.00,0.0061
3792.00,0.0061
3791.00,0.0061
3790.00,0.0061
3789.00,0.0061
3788.00,0.0061
3787.00,0.0061
3786.00,0.0061
3785.00,0.0061
3784.00,0.0061
3783.00,0.0061
3782.00,0.0061
3781.00,0.0062
3780.00,0.0062
3779.00,0.0062
3778.00,0.0062
3777.00,0.0062
3776.00,0.0061
3775.00,0.0061
3774.00,0.0061
3773.00,0.0061
3772.00,0.0061
3771.00,0.0061
3770.00,0.0061
3769.00,0.0061
3768.00,0.0061
3767.00,0.0061
3766.00,0.0062
3765.00,0.0062
3764.00,0.0062
3763.00,0.0061
3762.00,0.0061
3761.00,0.0061
3760.00,0.0061
3759.00,0.0061
3758.00,0.0061
3757.00,0.0061
3756.00,0.0061
3755.00,0.0061
3754.00,0.0061
3753.00,0.0061
3752.00,0.0061
3751.00,0.0062
3750.00,0.0062
3749.00,0.0061
3748.00,0.0061
3747.00,0.0061
3746.00,0.0061
3745.00,0.0060
3744.00,0.0060
3743.00,0.0060
3742.00,0.0060
3741.00,0.0060
3740.00,0.0061
3739.00,0.0061
3738.00,0.0061
3737.00,0.0060
3736.00,0.0060
3735.00,0.0060
3734.00,0.0060
3733.00,0.0060
3732.00,0.0060
3731.00,0.0060
3730.00,0.0061
3729.00,0.0061
3728.00,0.0061
3727.00,0.0061
3726.00,0.0061
3725.00,0.0061
3724.00,0.0061
3723.00,0.0061
3722.00,0.0060
3721.00,0.0060
3720.00,0.0061
3719.00,0.0061
3718.00,0.0061
3717.00,0.0061
3716.00,0.0061
3715.00,0.0061
3714.00,0.0061
3713.00,0.0061
3712.00,0.0060
3711.00,0.0060
3710.00,0.0060
3709.00,0.0060
3708.00,0.0060
3707.00,0.0061
3706.00,0.0061
3705.00,0.0060
3704.00,0.0060
3703.00,0.0060
3702.00,0.0060
3701.00,0.0060
3700.00,0.0060
3699.00,0.0060
3698.00,0.0060
3697.00,0.0060
3696.00,0.0061
3695.00,0.0061
3694.00,0.0061
3693.00,0.0061
3692.00,0.0061
3691.00,0.0061
3690.00,0.0061
3689.00,0.0061
3688.00,0.0061
3687.00,0.0061
3686.00,0.0061
3685.00,0.0062
3684.00,0.0062
3683.00,0.0062
3682.00,0.0062
3681.00,0.0062
3680.00,0.0062
3679.00,0.0062
3678.00,0.0062
3677.00,0.0062
3676.00,0.0062
3675.00,0.0062
3674.00,0.0062
3673.00,0.0062
3672.00,0.0062
3671.00,0.0062
3670.00,0.0062
3669.00,0.0062
3668.00,0.0062
3667.00,0.0062
3666.00,0.0062
3665.00,0.0063
3664.00,0.0063
3663.00,0.0063
3662.00,0.0063
3661.00,0.0063
3660.00,0.0063
3659.00,0.0063
3658.00,0.0063
3657.00,0.0063
3656.00,0.0063
3655.00,0.0063
3654.00,0.0063
3653.00,0.0063
3652.00,0.0063
3651.00,0.0063
3650.00,0.0063
3649.00,0.0063
3648.00,0.0064
3647.00,0.0064
3646.00,0.0064
3645.00,0.0065
3644.00,0.0065
3643.00,0.0065
3642.00,0.0065
3641.00,0.0066
3640.00,0.0066
3639.00,0.0066
3638.00,0.0066
3637.00,0.0066
3636.00,0.0066
3635.00,0.0066
3634.00,0.0066
3633.00,0.0066
3632.00,0.0067
3631.00,0.0067
3630.00,0.0067
3629.00,0.0068
3628.00,0.0068
3627.00,0.0069
3626.00,0.0069
3625.00,0.0069
3624.00,0.0069
3623.00,0.0069
3622.00,0.0069
3621.00,0.0070
3620.00,0.0070
3619.00,0.0071
3618.00,0.0071
3617.00,0.0071
3616.00,0.0071
3615.00,0.0072
3614.00,0.0072
3613.00,0.0072
3612.00,0.0073
3611.00,0.0073
3610.00,0.0074
3609.00,0.0074
3608.00,0.0074
3607.00,0.0074
3606.00,0.0075
3605.00,0.0075
3604.00,0.0076
3603.00,0.0076
3602.00,0.0077
3601.00,0.0077
3600.00,0.0077
3599.00,0.0077
3598.00,0.0077
3597.00,0.0078
3596.00,0.0078
3595.00,0.0079
3594.00,0.0079
3593.00,0.0080
3592.00,0.0080
3591.00,0.0080
3590.00,0.0080
3589.00,0.0080
3588.00,0.0081
3587.00,0.0081
3586.00,0.0082
3585.00,0.0082
3584.00,0.0083
3583.00,0.0083
3582.00,0.0084
3581.00,0.0085
3580.00,0.0085
3579.00,0.0086
3578.00,0.0086
3577.00,0.0087
3576.00,0.0087
3575.00,0.0087
3574.00,0.0087
3573.00,0.0088
3572.00,0.0088
3571.00,0.0088
3570.00,0.0089
3569.00,0.0089
3568.00,0.0090
3567.00,0.0091
3566.00,0.0092
3565.00,0.0092
3564.00,0.0093
3563.00,0.0093
3562.00,0.0093
3561.00,0.0093
3560.00,0.0093
3559.00,0.0094
3558.00,0.0094
3557.00,0.0095
3556.00,0.0095
3555.00,0.0096
3554.00,0.0097
3553.00,0.0097
3552.00,0.0097
3551.00,0.0098
3550.00,0.0098
3549.00,0.0098
3548.00,0.0099
3547.00,0.0099
3546.00,0.0100
3545.00,0.0101
3544.00,0.0101
3543.00,0.0101
3542.00,0.0102
3541.00,0.0102
3540.00,0.0102
3539.00,0.0102
3538.00,0.0102
3537.00,0.0103
3536.00,0.0103
3535.00,0.0104
3534.00,0.0104
3533.00,0.0105
3532.00,0.0105
3531.00,0.0106
3530.00,0.0106
3529.00,0.0106
3528.00,0.0107
3527.00,0.0108
3526.00,0.0108
3525.00,0.0109
3524.00,0.0109
3523.00,0.0110
3522.00,0.0110
3521.00,0.0110
3520.00,0.0111
3519.00,0.0111
3518.00,0.0111
3517.00,0.0112
3516.00,0.0112
3515.00,0.0113
3514.00,0.0113
3513.00,0.0114
3512.00,0.0114
3511.00,0.0115
3510.00,0.0115
3509.00,0.0116
3508.00,0.0116
3507.00,0.0117
3506.00,0.0117
3505.00,0.0117
3504.00,0.0118
3503.00,0.0118
3502.00,0.0119
3501.00,0.0119
3500.00,0.0120
3499.00,0.0120
3498.00,0.0121
3497.00,0.0121
3496.00,0.0122
3495.00,0.0123
3494.00,0.0123
3493.00,0.0124
3492.00,0.0124
3491.00,0.0124
3490.00,0.0125
3489.00,0.0126
3488.00,0.0126
3487.00,0.0127
3486.00,0.0127
3485.00,0.0128
3484.00,0.0128
3483.00,0.0128
3482.00,0.0129
3481.00,0.0129
3480.00,0.0130
3479.00,0.0131
3478.00,0.0131
3477.00,0.0132
3476.00,0.0133
3475.00,0.0134
3474.00,0.0134
3473.00,0.0134
3472.00,0.0135
3471.00,0.0135
3470.00,0.0135
3469.00,0.0136
3468.00,0.0137
3467.00,0.0137
3466.00,0.0138
3465.00,0.0139
3464.00,0.0139
3463.00,0.0140
3462.00,0.0140
3461.00,0.0141
3460.00,0.0141
3459.00,0.0142
3458.00,0.0142
3457.00,0.0143
3456.00,0.0143
3455.00,0.0144
3454.00,0.0144
3453.00,0.0145
3452.00,0.0145
3451.00,0.0145
3450.00,0.0146
3449.00,0.0146
3448.00,0.0147
3447.00,0.0147
3446.00,0.0148
3445.00,0.0149
3444.00,0.0149
3443.00,0.0150
3442.00,0.0150
3441.00,0.0151
3440.00,0.0151
3439.00,0.0152
3438.00,0.0152
3437.00,0.0152
3436.00,0.0153
3435.00,0.0154
3434.00,0.0154
3433.00,0.0155
3432.00,0.0156
3431.00,0.0156
3430.00,0.0157
3429.00,0.0158
3428.00,0.0158
3427.00,0.0159
3426.00,0.0159
3425.00,0.0160
3424.00,0.0161
3423.00,0.0161
3422.00,0.0162
3421.00,0.0162
3420.00,0.0163
3419.00,0.0164
3418.00,0.0164
3417.00,0.0165
3416.00,0.0165
3415.00,0.0166
3414.00,0.0167
3413.00,0.0167
3412.00,0.0168
3411.00,0.0169
3410.00,0.0170
3409.00,0.0170
3408.00,0.0171
3407.00,0.0172
3406.00,0.0173
3405.00,0.0173
3404.00,0.0174
3403.00,0.0174
3402.00,0.0175
3401.00,0.0176
3400.00,0.0177
3399.00,0.0178
3398.00,0.0179
3397.00,0.0180
3396.00,0.0181
3395.00,0.0182
3394.00,0.0182
3393.00,0.0183
3392.00,0.0184
3391.00,0.0185
3390.00,0.0186
3389.00,0.0187
3388.00,0.0189
3387.00,0.0190
3386.00,0.0191
3385.00,0.0192
3384.00,0.0193
3383.00,0.0194
3382.00,0.0195
3381.00,0.0195
3380.00,0.0196
3379.00,0.0197
3378.00,0.0198
3377.00,0.0199
3376.00,0.0201
3375.00,0.0202
3374.00,0.0202
3373.00,0.0203
3372.00,0.0203
3371.00,0.0202
3370.00,0.0203
3369.00,0.0204
3368.00,0.0205
3367.00,0.0207
3366.00,0.0208
3365.00,0.0210
3364.00,0.0211
3363.00,0.0212
3362.00,0.0213
3361.00,0.0214
3360.00,0.0215
3359.00,0.0216
3358.00,0.0217
3357.00,0.0218
3356.00,0.0219
3355.00,0.0220
3354.00,0.0220
3353.00,0.0220
3352.00,0.0220
3351.00,0.0221
3350.00,0.0223
3349.00,0.0224
3348.00,0.0225
3347.00,0.0226
3346.00,0.0227
3345.00,0.0227
3344.00,0.0227
3343.00,0.0228
3342.00,0.0228
3341.00,0.0229
3340.00,0.0229
3339.00,0.0229
3338.00,0.0230
3337.00,0.0232
3336.00,0.0234
3335.00,0.0235
3334.00,0.0237
3333.00,0.0237
3332.00,0.0238
3331.00,0.0239
3330.00,0.0239
3329.00,0.0239
3328.00,0.0239
3327.00,0.0239
3326.00,0.0240
3325.00,0.0240
3324.00,0.0241
3323.00,0.0243
3322.00,0.0244
3321.00,0.0245
3320.00,0.0246
3319.00,0.0246
3318.00,0.0247
3317.00,0.0247
3316.00,0.0248
3315.00,0.0248
3314.00,0.0249
3313.00,0.0249
3312.00,0.0249
3311.00,0.0248
3310.00,0.0248
3309.00,0.0247
3308.00,0.0247
3307.00,0.0247
3306.00,0.0248
3305.00,0.0249
3304.00,0.0251
3303.00,0.0252
3302.00,0.0254
3301.00,0.0255
3300.00,0.0255
3299.00,0.0255
3298.00,0.0255
3297.00,0.0254
3296.00,0.0254
3295.00,0.0254
3294.00,0.0254
3293.00,0.0255
3292.00,0.0255
3291.00,0.0256
3290.00,0.0258
3289.00,0.0259
3288.00,0.0259
3287.00,0.0260
3286.00,0.0260
3285.00,0.0260
3284.00,0.0260
3283.00,0.0260
3282.00,0.0260
3281.00,0.0260
3280.00,0.0261
3279.00,0.0261
3278.00,0.0261
3277.00,0.0260
3276.00,0.0260
3275.00,0.0260
3274.00,0.0259
3273.00,0.0259
3272.00,0.0259
3271.00,0.0259
3270.00,0.0260
3269.00,0.0261
3268.00,0.0261
3267.00,0.0262
3266.00,0.0262
3265.00,0.0262
3264.00,0.0262
3263.00,0.0262
3262.00,0.0262
3261.00,0.0262
3260.00,0.0262
3259.00,0.0262
3258.00,0.0262
3257.00,0.0262
3256.00,0.0262
3255.00,0.0262
3254.00,0.0262
3253.00,0.0262
3252.00,0.0262
3251.00,0.0262
3250.00,0.0262
3249.00,0.0262
3248.00,0.0262
3247.00,0.0262
3246.00,0.0263
3245.00,0.0263
3244.00,0.0263
3243.00,0.0263
3242.00,0.0263
3241.00,0.0263
3240.00,0.0263
3239.00,0.0263
3238.00,0.0263
3237.00,0.0262
3236.00,0.0261
3235.00,0.0261
3234.00,0.0261
3233.00,0.0261
3232.00,0.0261
3231.00,0.0261
3230.00,0.0261
3229.00,0.0261
3228.00,0.0261
3227.00,0.0261
3226.00,0.0261
3225.00,0.0261
3224.00,0.0261
3223.00,0.0261
3222.00,0.0260
3221.00,0.0260
3220.00,0.0260
3219.00,0.0260
3218.00,0.0259
3217.00,0.0259
3216.00,0.0259
3215.00,0.0259
3214.00,0.0260
3213.00,0.0260
3212.00,0.0260
3211.00,0.0260
3210.00,0.0260
3209.00,0.0260
3208.00,0.0260
3207.00,0.0260
3206.00,0.0260
3205.00,0.0260
3204.00,0.0260
3203.00,0.0259
3202.00,0.0259
3201.00,0.0259
3200.00,0.0259
3199.00,0.0259
3198.00,0.0259
3197.00,0.0259
3196.00,0.0259
3195.00,0.0258
3194.00,0.0258
3193.00,0.0257
3192.00,0.0256
3191.00,0.0255
3190.00,0.0255
3189.00,0.0255
3188.00,0.0255
3187.00,0.0255
3186.00,0.0254
3185.00,0.0254
3184.00,0.0253
3183.00,0.0252
3182.00,0.0252
3181.00,0.0251
3180.00,0.0251
3179.00,0.0251
3178.00,0.0250
3177.00,0.0249
3176.00,0.0249
3175.00,0.0248
3174.00,0.0248
3173.00,0.0247
3172.00,0.0247
3171.00,0.0246
3170.00,0.0246
3169.00,0.0245
3168.00,0.0244
3167.00,0.0243
3166.00,0.0242
3165.00,0.0241
3164.00,0.0240
3163.00,0.0240
3162.00,0.0239
3161.00,0.0238
3160.00,0.0238
3159.00,0.0237
3158.00,0.0236
3157.00,0.0235
3156.00,0.0234
3155.00,0.0233
3154.00,0.0232
3153.00,0.0232
3152.00,0.0231
3151.00,0.0231
3150.00,0.0230
3149.00,0.0230
3148.00,0.0229
3147.00,0.0228
3146.00,0.0228
3145.00,0.0227
3144.00,0.0227
3143.00,0.0226
3142.00,0.0226
3141.00,0.0225
3140.00,0.0224
3139.00,0.0223
3138.00,0.0223
3137.00,0.0223
3136.00,0.0222
3135.00,0.0222
3134.00,0.0222
3133.00,0.0221
3132.00,0.0220
3131.00,0.0220
3130.00,0.0219
3129.00,0.0218
3128.00,0.0218
3127.00,0.0217
3126.00,0.0217
3125.00,0.0216
3124.00,0.0215
3123.00,0.0215
3122.00,0.0214
3121.00,0.0213
3120.00,0.0212
3119.00,0.0211
3118.00,0.0210
3117.00,0.0210
3116.00,0.0209
3115.00,0.0208
3114.00,0.0207
3113.00,0.0207
3112.00,0.0206
3111.00,0.0205
3110.00,0.0204
3109.00,0.0203
3108.00,0.0203
3107.00,0.0202
3106.00,0.0201
3105.00,0.0200
3104.00,0.0199
3103.00,0.0198
3102.00,0.0197
3101.00,0.0196
3100.00,0.0196
3099.00,0.0195
3098.00,0.0194
3097.00,0.0193
3096.00,0.0193
3095.00,0.0192
3094.00,0.0191
3093.00,0.0190
3092.00,0.0189
3091.00,0.0188
3090.00,0.0187
3089.00,0.0186
3088.00,0.0185
3087.00,0.0185
3086.00,0.0184
3085.00,0.0183
3084.00,0.0182
3083.00,0.0181
3082.00,0.0180
3081.00,0.0180
3080.00,0.0179
3079.00,0.0179
3078.00,0.0178
3077.00,0.0178
3076.00,0.0177
3075.00,0.0176
3074.00,0.0176
3073.00,0.0175
3072.00,0.0175
3071.00,0.0174
3070.00,0.0173
3069.00,0.0173
3068.00,0.0172
3067.00,0.0171
3066.00,0.0171
3065.00,0.0171
3064.00,0.0170
3063.00,0.0170
3062.00,0.0170
3061.00,0.0170
3060.00,0.0169
3059.00,0.0169
3058.00,0.0169
3057.00,0.0168
3056.00,0.0168
3055.00,0.0168
3054.00,0.0167
3053.00,0.0167
3052.00,0.0166
3051.00,0.0166
3050.00,0.0165
3049.00,0.0165
3048.00,0.0164
3047.00,0.0164
3046.00,0.0163
3045.00,0.0163
3044.00,0.0162
3043.00,0.0162
3042.00,0.0161
3041.00,0.0161
3040.00,0.0161
3039.00,0.0160
3038.00,0.0160
3037.00,0.0160
3036.00,0.0160
3035.00,0.0160
3034.00,0.0160
3033.00,0.0160
3032.00,0.0160
3031.00,0.0160
3030.00,0.0160
3029.00,0.0160
3028.00,0.0160
3027.00,0.0159
3026.00,0.0159
3025.00,0.0159
3024.00,0.0159
3023.00,0.0159
3022.00,0.0159
3021.00,0.0159
3020.00,0.0158
3019.00,0.0159
3018.00,0.0159
3017.00,0.0159
3016.00,0.0160
3015.00,0.0160
3014.00,0.0161
3013.00,0.0161
3012.00,0.0162
3011.00,0.0163
3010.00,0.0165
3009.00,0.0166
3008.00,0.0168
3007.00,0.0169
3006.00,0.0171
3005.00,0.0173
3004.00,0.0175
3003.00,0.0178
3002.00,0.0181
3001.00,0.0184
3000.00,0.0187
2999.00,0.0191
2998.00,0.0195
2997.00,0.0199
2996.00,0.0203
2995.00,0.0208
2994.00,0.0213
2993.00,0.0218
2992.00,0.0223
2991.00,0.0228
2990.00,0.0234
2989.00,0.0239
2988.00,0.0244
2987.00,0.0249
2986.00,0.0254
2985.00,0.0259
2984.00,0.0263
2983.00,0.0267
2982.00,0.0271
2981.00,0.0275
2980.00,0.0280
2979.00,0.0284
2978.00,0.0288
2977.00,0.0292
2976.00,0.0296
2975.00,0.0300
2974.00,0.0304
2973.00,0.0308
2972.00,0.0313
2971.00,0.0318
2970.00,0.0323
2969.00,0.0329
2968.00,0.0334
2967.00,0.0340
2966.00,0.0346
2965.00,0.0352
2964.00,0.0358
2963.00,0.0364
2962.00,0.0369
2961.00,0.0374
2960.00,0.0379
2959.00,0.0384
2958.00,0.0387
2957.00,0.0390
2956.00,0.0392
2955.00,0.0394
2954.00,0.0394
2953.00,0.0394
2952.00,0.0394
2951.00,0.0392
2950.00,0.0391
2949.00,0.0389
2948.00,0.0387
2947.00,0.0385
2946.00,0.0384
2945.00,0.0384
2944.00,0.0384
2943.00,0.0386
2942.00,0.0388
2941.00,0.0391
2940.00,0.0395
2939.00,0.0400
2938.00,0.0405
2937.00,0.0412
2936.00,0.0418
2935.00,0.0425
2934.00,0.0432
2933.00,0.0439
2932.00,0.0445
2931.00,0.0452
2930.00,0.0458
2929.00,0.0464
2928.00,0.0469
2927.00,0.0473
2926.00,0.0476
2925.00,0.0478
2924.00,0.0480
2923.00,0.0482
2922.00,0.0482
2921.00,0.0482
2920.00,0.0482
2919.00,0.0480
2918.00,0.0478
2917.00,0.0475
2916.00,0.0471
2915.00,0.0467
2914.00,0.0462
2913.00,0.0456
2912.00,0.0450
2911.00,0.0444
2910.00,0.0437
2909.00,0.0430
2908.00,0.0424
2907.00,0.0417
2906.00,0.0410
2905.00,0.0404
2904.00,0.0399
2903.00,0.0394
2902.00,0.0390
2901.00,0.0386
2900.00,0.0383
2899.00,0.0380
2898.00,0.0377
2897.00,0.0375
2896.00,0.0373
2895.00,0.0371
2894.00,0.0369
2893.00,0.0367
2892.00,0.0365
2891.00,0.0364
2890.00,0.0362
2889.00,0.0360
2888.00,0.0358
2887.00,0.0356
2886.00,0.0354
2885.00,0.0353
2884.00,0.0351
2883.00,0.0350
2882.00,0.0349
2881.00,0.0349
2880.00,0.0349
2879.00,0.0349
2878.00,0.0350
2877.00,0.0350
2876.00,0.0351
2875.00,0.0351
2874.00,0.0352
2873.00,0.0353
2872.00,0.0354
2871.00,0.0354
2870.00,0.0354
2869.00,0.0354
2868.00,0.0353
2867.00,0.0352
2866.00,0.0351
2865.00,0.0351
2864.00,0.0352
2863.00,0.0354
2862.00,0.0356
2861.00,0.0359
2860.00,0.0361
2859.00,0.0364
2858.00,0.0366
2857.00,0.0366
2856.00,0.0366
2855.00,0.0364
2854.00,0.0360
2853.00,0.0356
2852.00,0.0350
2851.00,0.0343
2850.00,0.0336
2849.00,0.0328
2848.00,0.0320
2847.00,0.0312
2846.00,0.0304
2845.00,0.0297
2844.00,0.0289
2843.00,0.0282
2842.00,0.0275
2841.00,0.0268
2840.00,0.0261
2839.00,0.0255
2838.00,0.0249
2837.00,0.0244
2836.00,0.0239
2835.00,0.0234
2834.00,0.0230
2833.00,0.0226
2832.00,0.0222
2831.00,0.0218
2830.00,0.0214
2829.00,0.0210
2828.00,0.0206
2827.00,0.0203
2826.00,0.0199
2825.00,0.0195
2824.00,0.0191
2823.00,0.0188
2822.00,0.0184
2821.00,0.0181
2820.00,0.0178
2819.00,0.0175
2818.00,0.0172
2817.00,0.0170
2816.00,0.0167
2815.00,0.0165
2814.00,0.0163
2813.00,0.0161
2812.00,0.0158
2811.00,0.0156
2810.00,0.0155
2809.00,0.0153
2808.00,0.0152
2807.00,0.0151
2806.00,0.0149
2805.00,0.0148
2804.00,0.0147
2803.00,0.0146
2802.00,0.0145
2801.00,0.0144
2800.00,0.0143
2799.00,0.0142
2798.00,0.0141
2797.00,0.0141
2796.00,0.0140
2795.00,0.0139
2794.00,0.0139
2793.00,0.0138
2792.00,0.0137
2791.00,0.0136
2790.00,0.0136
2789.00,0.0135
2788.00,0.0135
2787.00,0.0135
2786.00,0.0135
2785.00,0.0134
2784.00,0.0134
2783.00,0.0133
2782.00,0.0133
2781.00,0.0132
2780.00,0.0132
2779.00,0.0131
2778.00,0.0131
2777.00,0.0130
2776.00,0.0130
2775.00,0.0129
2774.00,0.0129
2773.00,0.0129
2772.00,0.0128
2771.00,0.0128
2770.00,0.0128
2769.00,0.0127
2768.00,0.0127
2767.00,0.0126
2766.00,0.0126
2765.00,0.0126
2764.00,0.0126
2763.00,0.0126
2762.00,0.0126
2761.00,0.0125
2760.00,0.0126
2759.00,0.0126
2758.00,0.0126
2757.00,0.0126
