Created as New Dataset,Sample 236 By YargerLab Date Sunday, October 05 2025
cm-1,A
4000.00,0.0015
3999.00,0.0015
3998.00,0.0014
3997.00,0.0014
3996.00,0.0014
3995.00,0.0014
3994.00,0.0014
3993.00,0.0014
3992.00,0.0015
3991.00,0.0015
3990.00,0.0014
3989.00,0.0014
3988.00,0.0014
3987.00,0.0014
3986.00,0.0014
3985.00,0.0014
3984.00,0.0014
3983.00,0.0014
3982.00,0.0014
3981.00,0.0014
3980.00,0.0014
3979.00,0.0014
3978.00,0.0014
3977.00,0.0014
3976.00,0.0014
3975.00,0.0014
3974.00,0.0015
3973.00,0.0015
3972.00,0.0014
3971.00,0.0014
3970.00,0.0014
3969.00,0.0013
3968.00,0.0013
3967.00,0.0013
3966.00,0.0013
3965.00,0.0013
3964.00,0.0013
3963.00,0.0014
3962.00,0.0014
3961.00,0.0013
3960.00,0.0013
3959.00,0.0014
3958.00,0.0014
3957.00,0.0014
3956.00,0.0014
3955.00,0.0014
3954.00,0.0014
3953.00,0.0014
3952.00,0.0014
3951.00,0.0014
3950.00,0.0014
3949.00,0.0013
3948.00,0.0013
3947.00,0.0013
3946.00,0.0013
3945.00,0.0014
3944.00,0.0013
3943.00,0.0013
3942.00,0.0013
3941.00,0.0013
3940.00,0.0013
3939.00,0.0013
3938.00,0.0013
3937.00,0.0013
3936.00,0.0013
3935.00,0.0013
3934.00,0.0013
3933.00,0.0013
3932.00,0.0013
3931.00,0.0013
3930.00,0.0013
3929.00,0.0013
3928.00,0.0013
3927.00,0.0013
3926.00,0.0013
3925.00,0.0013
3924.00,0.0013
3923.00,0.0013
3922.00,0.0013
3921.00,0.0013
3920.00,0.0013
3919.00,0.0013
3918.00,0.0012
3917.00,0.0012
3916.00,0.0012
3915.00,0.0012
3914.00,0.0012
3913.00,0.0012
3912.00,0.0012
3911.00,0.0013
3910.00,0.0013
3909.00,0.0013
3908.00,0.0013
3907.00,0.0012
3906.00,0.0012
3905.00,0.0012
3904.00,0.0013
3903.00,0.0013
3902.00,0.0013
3901.00,0.0013
3900.00,0.0013
3899.00,0.0012
3898.00,0.0012
3897.00,0.0012
3896.00,0.0012
3895.00,0.0012
3894.00,0.0012
3893.00,0.0012
3892.00,0.0013
3891.00,0.0013
3890.00,0.0013
3889.00,0.0013
3888.00,0.0013
3887.00,0.0013
3886.00,0.0013
3885.00,0.0013
3884.00,0.0013
3883.00,0.0013
3882.00,0.0013
3881.00,0.0013
3880.00,0.0013
3879.00,0.0013
3878.00,0.0013
3877.00,0.0013
3876.00,0.0012
3875.00,0.0013
3874.00,0.0013
3873.00,0.0013
3872.00,0.0013
3871.00,0.0013
3870.00,0.0013
3869.00,0.0013
3868.00,0.0013
3867.00,0.0013
3866.00,0.0013
3865.00,0.0013
3864.00,0.0012
3863.00,0.0013
3862.00,0.0013
3861.00,0.0013
3860.00,0.0013
3859.00,0.0013
3858.00,0.0013
3857.00,0.0014
3856.00,0.0014
3855.00,0.0014
3854.00,0.0013
3853.00,0.0013
3852.00,0.0014
3851.00,0.0014
3850.00,0.0013
3849.00,0.0013
3848.00,0.0012
3847.00,0.0012
3846.00,0.0012
3845.00,0.0013
3844.00,0.0013
3843.00,0.0013
3842.00,0.0013
3841.00,0.0013
3840.00,0.0013
3839.00,0.0014
3838.00,0.0014
3837.00,0.0014
3836.00,0.0014
3835.00,0.0014
3834.00,0.0013
3833.00,0.0013
3832.00,0.0013
3831.00,0.0013
3830.00,0.0013
3829.00,0.0013
3828.00,0.0012
3827.00,0.0012
3826.00,0.0013
3825.00,0.0013
3824.00,0.0013
3823.00,0.0013
3822.00,0.0013
3821.00,0.0013
3820.00,0.0013
3819.00,0.0014
3818.00,0.0014
3817.00,0.0013
3816.00,0.0013
3815.00,0.0013
3814.00,0.0013
3813.00,0.0013
3812.00,0.0012
3811.00,0.0012
3810.00,0.0012
3809.00,0.0012
3808.00,0.0012
3807.00,0.0012
3806.00,0.0012
3805.00,0.0013
3804.00,0.0013
3803.00,0.0013
3802.00,0.0013
3801.00,0.0013
3800.00,0.0013
3799.00,0.0013
3798.00,0.0012
3797.00,0.0012
3796.00,0.0012
3795.00,0.0012
3794.00,0.0012
3793.00,0.0012
3792.00,0.0012
3791.00,0.0012
3790.00,0.0011
3789.00,0.0011
3788.00,0.0011
3787.00,0.0011
3786.00,0.0011
3785.00,0.0011
3784.00,0.0011
3783.00,0.0011
3782.00,0.0011
3781.00,0.0011
3780.00,0.0011
3779.00,0.0011
3778.00,0.0011
3777.00,0.0012
3776.00,0.0011
3775.00,0.0011
3774.00,0.0012
3773.00,0.0012
3772.00,0.0012
3771.00,0.0012
3770.00,0.0012
3769.00,0.0011
3768.00,0.0011
3767.00,0.0011
3766.00,0.0011
3765.00,0.0011
3764.00,0.0011
3763.00,0.0011
3762.00,0.0011
3761.00,0.0011
3760.00,0.0011
3759.00,0.0011
3758.00,0.0011
3757.00,0.0011
3756.00,0.0012
3755.00,0.0012
3754.00,0.0012
3753.00,0.0012
3752.00,0.0012
3751.00,0.0013
3750.00,0.0013
3749.00,0.0013
3748.00,0.0013
3747.00,0.0013
3746.00,0.0013
3745.00,0.0012
3744.00,0.0012
3743.00,0.0012
3742.00,0.0012
3741.00,0.0011
3740.00,0.0011
3739.00,0.0010
3738.00,0.0011
3737.00,0.0011
3736.00,0.0011
3735.00,0.0010
3734.00,0.0010
3733.00,0.0010
3732.00,0.0010
3731.00,0.0010
3730.00,0.0010
3729.00,0.0009
3728.00,0.0009
3727.00,0.0009
3726.00,0.0009
3725.00,0.0009
3724.00,0.0009
3723.00,0.0009
3722.00,0.0009
3721.00,0.0009
3720.00,0.0009
3719.00,0.0009
3718.00,0.0010
3717.00,0.0010
3716.00,0.0010
3715.00,0.0010
3714.00,0.0010
3713.00,0.0010
3712.00,0.0010
3711.00,0.0010
3710.00,0.0010
3709.00,0.0010
3708.00,0.0010
3707.00,0.0010
3706.00,0.0009
3705.00,0.0009
3704.00,0.0009
3703.00,0.0009
3702.00,0.0009
3701.00,0.0010
3700.00,0.0010
3699.00,0.0010
3698.00,0.0010
3697.00,0.0010
3696.00,0.0010
3695.00,0.0010
3694.00,0.0010
3693.00,0.0011
3692.00,0.0011
3691.00,0.0011
3690.00,0.0011
3689.00,0.0011
3688.00,0.0012
3687.00,0.0012
3686.00,0.0012
3685.00,0.0012
3684.00,0.0012
3683.00,0.0012
3682.00,0.0012
3681.00,0.0012
3680.00,0.0013
3679.00,0.0013
3678.00,0.0014
3677.00,0.0014
3676.00,0.0014
3675.00,0.0014
3674.00,0.0014
3673.00,0.0015
3672.00,0.0014
3671.00,0.0014
3670.00,0.0014
3669.00,0.0014
3668.00,0.0014
3667.00,0.0013
3666.00,0.0013
3665.00,0.0012
3664.00,0.0012
3663.00,0.0012
3662.00,0.0012
3661.00,0.0012
3660.00,0.0012
3659.00,0.0013
3658.00,0.0013
3657.00,0.0013
3656.00,0.0013
3655.00,0.0014
3654.00,0.0014
3653.00,0.0015
3652.00,0.0015
3651.00,0.0015
3650.00,0.0015
3649.00,0.0016
3648.00,0.0016
3647.00,0.0017
3646.00,0.0017
3645.00,0.0016
3644.00,0.0016
3643.00,0.0016
3642.00,0.0016
3641.00,0.0017
3640.00,0.0017
3639.00,0.0017
3638.00,0.0017
3637.00,0.0018
3636.00,0.0018
3635.00,0.0018
3634.00,0.0019
3633.00,0.0020
3632.00,0.0021
3631.00,0.0022
3630.00,0.0022
3629.00,0.0022
3628.00,0.0022
3627.00,0.0023
3626.00,0.0023
3625.00,0.0023
3624.00,0.0023
3623.00,0.0024
3622.00,0.0024
3621.00,0.0025
3620.00,0.0025
3619.00,0.0026
3618.00,0.0027
3617.00,0.0027
3616.00,0.0028
3615.00,0.0028
3614.00,0.0028
3613.00,0.0029
3612.00,0.0030
3611.00,0.0030
3610.00,0.0031
3609.00,0.0031
3608.00,0.0031
3607.00,0.0032
3606.00,0.0032
3605.00,0.0033
3604.00,0.0033
3603.00,0.0033
3602.00,0.0034
3601.00,0.0034
3600.00,0.0035
3599.00,0.0035
3598.00,0.0036
3597.00,0.0036
3596.00,0.0037
3595.00,0.0037
3594.00,0.0037
3593.00,0.0038
3592.00,0.0039
3591.00,0.0040
3590.00,0.0040
3589.00,0.0040
3588.00,0.0041
3587.00,0.0041
3586.00,0.0042
3585.00,0.0042
3584.00,0.0043
3583.00,0.0044
3582.00,0.0045
3581.00,0.0046
3580.00,0.0047
3579.00,0.0047
3578.00,0.0048
3577.00,0.0048
3576.00,0.0049
3575.00,0.0050
3574.00,0.0051
3573.00,0.0052
3572.00,0.0052
3571.00,0.0053
3570.00,0.0053
3569.00,0.0054
3568.00,0.0055
3567.00,0.0056
3566.00,0.0057
3565.00,0.0058
3564.00,0.0058
3563.00,0.0059
3562.00,0.0060
3561.00,0.0061
3560.00,0.0062
3559.00,0.0063
3558.00,0.0064
3557.00,0.0065
3556.00,0.0066
3555.00,0.0067
3554.00,0.0067
3553.00,0.0068
3552.00,0.0069
3551.00,0.0070
3550.00,0.0072
3549.00,0.0073
3548.00,0.0074
3547.00,0.0075
3546.00,0.0076
3545.00,0.0077
3544.00,0.0078
3543.00,0.0078
3542.00,0.0079
3541.00,0.0080
3540.00,0.0081
3539.00,0.0083
3538.00,0.0084
3537.00,0.0085
3536.00,0.0086
3535.00,0.0088
3534.00,0.0089
3533.00,0.0090
3532.00,0.0091
3531.00,0.0092
3530.00,0.0094
3529.00,0.0095
3528.00,0.0096
3527.00,0.0098
3526.00,0.0099
3525.00,0.0100
3524.00,0.0101
3523.00,0.0103
3522.00,0.0104
3521.00,0.0105
3520.00,0.0106
3519.00,0.0107
3518.00,0.0109
3517.00,0.0110
3516.00,0.0111
3515.00,0.0113
3514.00,0.0114
3513.00,0.0115
3512.00,0.0116
3511.00,0.0118
3510.00,0.0119
3509.00,0.0121
3508.00,0.0122
3507.00,0.0124
3506.00,0.0125
3505.00,0.0126
3504.00,0.0128
3503.00,0.0130
3502.00,0.0131
3501.00,0.0132
3500.00,0.0134
3499.00,0.0135
3498.00,0.0137
3497.00,0.0138
3496.00,0.0140
3495.00,0.0142
3494.00,0.0143
3493.00,0.0144
3492.00,0.0146
3491.00,0.0147
3490.00,0.0149
3489.00,0.0151
3488.00,0.0152
3487.00,0.0154
3486.00,0.0155
3485.00,0.0157
3484.00,0.0159
3483.00,0.0161
3482.00,0.0163
3481.00,0.0165
3480.00,0.0166
3479.00,0.0168
3478.00,0.0170
3477.00,0.0171
3476.00,0.0173
3475.00,0.0174
3474.00,0.0176
3473.00,0.0178
3472.00,0.0180
3471.00,0.0181
3470.00,0.0183
3469.00,0.0185
3468.00,0.0187
3467.00,0.0189
3466.00,0.0191
3465.00,0.0193
3464.00,0.0195
3463.00,0.0197
3462.00,0.0199
3461.00,0.0201
3460.00,0.0203
3459.00,0.0205
3458.00,0.0207
3457.00,0.0209
3456.00,0.0210
3455.00,0.0212
3454.00,0.0214
3453.00,0.0216
3452.00,0.0218
3451.00,0.0220
3450.00,0.0222
3449.00,0.0225
3448.00,0.0227
3447.00,0.0230
3446.00,0.0232
3445.00,0.0234
3444.00,0.0236
3443.00,0.0238
3442.00,0.0241
3441.00,0.0243
3440.00,0.0245
3439.00,0.0248
3438.00,0.0250
3437.00,0.0252
3436.00,0.0254
3435.00,0.0256
3434.00,0.0259
3433.00,0.0261
3432.00,0.0263
3431.00,0.0266
3430.00,0.0268
3429.00,0.0271
3428.00,0.0274
3427.00,0.0276
3426.00,0.0279
3425.00,0.0281
3424.00,0.0284
3423.00,0.0287
3422.00,0.0290
3421.00,0.0293
3420.00,0.0296
3419.00,0.0298
3418.00,0.0301
3417.00,0.0304
3416.00,0.0306
3415.00,0.0309
3414.00,0.0312
3413.00,0.0315
3412.00,0.0318
3411.00,0.0321
3410.00,0.0324
3409.00,0.0327
3408.00,0.0330
3407.00,0.0333
3406.00,0.0335
3405.00,0.0338
3404.00,0.0341
3403.00,0.0344
3402.00,0.0348
3401.00,0.0351
3400.00,0.0354
3399.00,0.0357
3398.00,0.0361
3397.00,0.0364
3396.00,0.0367
3395.00,0.0370
3394.00,0.0373
3393.00,0.0376
3392.00,0.0379
3391.00,0.0382
3390.00,0.0386
3389.00,0.0389
3388.00,0.0393
3387.00,0.0397
3386.00,0.0400
3385.00,0.0403
3384.00,0.0406
3383.00,0.0409
3382.00,0.0412
3381.00,0.0415
3380.00,0.0418
3379.00,0.0422
3378.00,0.0425
3377.00,0.0429
3376.00,0.0432
3375.00,0.0435
3374.00,0.0438
3373.00,0.0441
3372.00,0.0443
3371.00,0.0446
3370.00,0.0449
3369.00,0.0451
3368.00,0.0455
3367.00,0.0458
3366.00,0.0462
3365.00,0.0465
3364.00,0.0469
3363.00,0.0472
3362.00,0.0475
3361.00,0.0478
3360.00,0.0481
3359.00,0.0484
3358.00,0.0487
3357.00,0.0490
3356.00,0.0493
3355.00,0.0496
3354.00,0.0498
3353.00,0.0500
3352.00,0.0502
3351.00,0.0504
3350.00,0.0507
3349.00,0.0511
3348.00,0.0514
3347.00,0.0517
3346.00,0.0519
3345.00,0.0522
3344.00,0.0524
3343.00,0.0526
3342.00,0.0528
3341.00,0.0530
3340.00,0.0532
3339.00,0.0534
3338.00,0.0537
3337.00,0.0541
3336.00,0.0544
3335.00,0.0548
3334.00,0.0551
3333.00,0.0553
3332.00,0.0556
3331.00,0.0558
3330.00,0.0560
3329.00,0.0561
3328.00,0.0563
3327.00,0.0564
3326.00,0.0565
3325.00,0.0568
3324.00,0.0571
3323.00,0.0574
3322.00,0.0576
3321.00,0.0579
3320.00,0.0581
3319.00,0.0584
3318.00,0.0586
3317.00,0.0588
3316.00,0.0589
3315.00,0.0591
3314.00,0.0592
3313.00,0.0593
3312.00,0.0594
3311.00,0.0594
3310.00,0.0593
3309.00,0.0593
3308.00,0.0593
3307.00,0.0593
3306.00,0.0595
3305.00,0.0598
3304.00,0.0602
3303.00,0.0605
3302.00,0.0608
3301.00,0.0610
3300.00,0.0611
3299.00,0.0612
3298.00,0.0612
3297.00,0.0612
3296.00,0.0612
3295.00,0.0612
3294.00,0.0613
3293.00,0.0614
3292.00,0.0616
3291.00,0.0618
3290.00,0.0620
3289.00,0.0622
3288.00,0.0623
3287.00,0.0624
3286.00,0.0624
3285.00,0.0625
3284.00,0.0625
3283.00,0.0626
3282.00,0.0626
3281.00,0.0627
3280.00,0.0627
3279.00,0.0627
3278.00,0.0627
3277.00,0.0627
3276.00,0.0627
3275.00,0.0627
3274.00,0.0626
3273.00,0.0626
3272.00,0.0625
3271.00,0.0626
3270.00,0.0626
3269.00,0.0627
3268.00,0.0628
3267.00,0.0629
3266.00,0.0629
3265.00,0.0629
3264.00,0.0629
3263.00,0.0629
3262.00,0.0629
3261.00,0.0629
3260.00,0.0628
3259.00,0.0628
3258.00,0.0628
3257.00,0.0628
3256.00,0.0628
3255.00,0.0628
3254.00,0.0628
3253.00,0.0628
3252.00,0.0628
3251.00,0.0627
3250.00,0.0626
3249.00,0.0625
3248.00,0.0624
3247.00,0.0624
3246.00,0.0623
3245.00,0.0623
3244.00,0.0624
3243.00,0.0624
3242.00,0.0623
3241.00,0.0623
3240.00,0.0622
3239.00,0.0622
3238.00,0.0621
3237.00,0.0620
3236.00,0.0619
3235.00,0.0617
3234.00,0.0616
3233.00,0.0615
3232.00,0.0615
3231.00,0.0615
3230.00,0.0614
3229.00,0.0613
3228.00,0.0612
3227.00,0.0611
3226.00,0.0611
3225.00,0.0610
3224.00,0.0609
3223.00,0.0608
3222.00,0.0608
3221.00,0.0607
3220.00,0.0606
3219.00,0.0606
3218.00,0.0605
3217.00,0.0605
3216.00,0.0604
3215.00,0.0604
3214.00,0.0604
3213.00,0.0604
3212.00,0.0603
3211.00,0.0603
3210.00,0.0602
3209.00,0.0602
3208.00,0.0601
3207.00,0.0601
3206.00,0.0600
3205.00,0.0599
3204.00,0.0599
3203.00,0.0597
3202.00,0.0596
3201.00,0.0595
3200.00,0.0594
3199.00,0.0593
3198.00,0.0591
3197.00,0.0589
3196.00,0.0588
3195.00,0.0586
3194.00,0.0584
3193.00,0.0583
3192.00,0.0581
3191.00,0.0579
3190.00,0.0577
3189.00,0.0575
3188.00,0.0573
3187.00,0.0571
3186.00,0.0569
3185.00,0.0567
3184.00,0.0565
3183.00,0.0563
3182.00,0.0560
3181.00,0.0558
3180.00,0.0556
3179.00,0.0553
3178.00,0.0551
3177.00,0.0549
3176.00,0.0547
3175.00,0.0544
3174.00,0.0542
3173.00,0.0539
3172.00,0.0537
3171.00,0.0534
3170.00,0.0531
3169.00,0.0528
3168.00,0.0526
3167.00,0.0523
3166.00,0.0520
3165.00,0.0518
3164.00,0.0515
3163.00,0.0512
3162.00,0.0509
3161.00,0.0507
3160.00,0.0504
3159.00,0.0501
3158.00,0.0499
3157.00,0.0496
3156.00,0.0493
3155.00,0.0491
3154.00,0.0488
3153.00,0.0485
3152.00,0.0482
3151.00,0.0480
3150.00,0.0478
3149.00,0.0475
3148.00,0.0473
3147.00,0.0471
3146.00,0.0468
3145.00,0.0466
3144.00,0.0464
3143.00,0.0462
3142.00,0.0460
3141.00,0.0458
3140.00,0.0456
3139.00,0.0454
3138.00,0.0452
3137.00,0.0450
3136.00,0.0448
3135.00,0.0447
3134.00,0.0445
3133.00,0.0443
3132.00,0.0441
3131.00,0.0439
3130.00,0.0437
3129.00,0.0435
3128.00,0.0432
3127.00,0.0430
3126.00,0.0428
3125.00,0.0425
3124.00,0.0423
3123.00,0.0420
3122.00,0.0418
3121.00,0.0415
3120.00,0.0412
3119.00,0.0410
3118.00,0.0407
3117.00,0.0404
3116.00,0.0401
3115.00,0.0399
3114.00,0.0396
3113.00,0.0393
3112.00,0.0390
3111.00,0.0387
3110.00,0.0385
3109.00,0.0382
3108.00,0.0379
3107.00,0.0377
3106.00,0.0374
3105.00,0.0371
3104.00,0.0369
3103.00,0.0366
3102.00,0.0363
3101.00,0.0361
3100.00,0.0358
3099.00,0.0355
3098.00,0.0353
3097.00,0.0350
3096.00,0.0348
3095.00,0.0345
3094.00,0.0343
3093.00,0.0340
3092.00,0.0338
3091.00,0.0335
3090.00,0.0333
3089.00,0.0331
3088.00,0.0328
3087.00,0.0326
3086.00,0.0324
3085.00,0.0322
3084.00,0.0320
3083.00,0.0318
3082.00,0.0316
3081.00,0.0314
3080.00,0.0312
3079.00,0.0310
3078.00,0.0309
3077.00,0.0307
3076.00,0.0306
3075.00,0.0304
3074.00,0.0303
3073.00,0.0301
3072.00,0.0299
3071.00,0.0298
3070.00,0.0296
3069.00,0.0295
3068.00,0.0294
3067.00,0.0293
3066.00,0.0292
3065.00,0.0291
3064.00,0.0291
3063.00,0.0290
3062.00,0.0290
3061.00,0.0289
3060.00,0.0288
3059.00,0.0287
3058.00,0.0287
3057.00,0.0286
3056.00,0.0286
3055.00,0.0285
3054.00,0.0284
3053.00,0.0284
3052.00,0.0283
3051.00,0.0282
3050.00,0.0280
3049.00,0.0279
3048.00,0.0278
3047.00,0.0276
3046.00,0.0275
3045.00,0.0273
3044.00,0.0272
3043.00,0.0271
3042.00,0.0270
3041.00,0.0270
3040.00,0.0269
3039.00,0.0269
3038.00,0.0268
3037.00,0.0268
3036.00,0.0268
3035.00,0.0268
3034.00,0.0269
3033.00,0.0269
3032.00,0.0269
3031.00,0.0270
3030.00,0.0270
3029.00,0.0271
3028.00,0.0271
3027.00,0.0270
3026.00,0.0270
3025.00,0.0269
3024.00,0.0269
3023.00,0.0268
3022.00,0.0268
3021.00,0.0267
3020.00,0.0267
3019.00,0.0267
3018.00,0.0267
3017.00,0.0267
3016.00,0.0267
3015.00,0.0268
3014.00,0.0269
3013.00,0.0270
3012.00,0.0272
3011.00,0.0274
3010.00,0.0277
3009.00,0.0280
3008.00,0.0283
3007.00,0.0286
3006.00,0.0290
3005.00,0.0294
3004.00,0.0299
3003.00,0.0304
3002.00,0.0310
3001.00,0.0317
3000.00,0.0324
2999.00,0.0331
2998.00,0.0339
2997.00,0.0348
2996.00,0.0358
2995.00,0.0367
2994.00,0.0377
2993.00,0.0388
2992.00,0.0399
2991.00,0.0410
2990.00,0.0421
2989.00,0.0432
2988.00,0.0443
2987.00,0.0453
2986.00,0.0463
2985.00,0.0472
2984.00,0.0479
2983.00,0.0487
2982.00,0.0494
2981.00,0.0503
2980.00,0.0512
2979.00,0.0522
2978.00,0.0533
2977.00,0.0544
2976.00,0.0556
2975.00,0.0568
2974.00,0.0581
2973.00,0.0595
2972.00,0.0611
2971.00,0.0627
2970.00,0.0645
2969.00,0.0665
2968.00,0.0685
2967.00,0.0705
2966.00,0.0724
2965.00,0.0743
2964.00,0.0761
2963.00,0.0777
2962.00,0.0792
2961.00,0.0806
2960.00,0.0817
2959.00,0.0826
2958.00,0.0832
2957.00,0.0835
2956.00,0.0836
2955.00,0.0834
2954.00,0.0830
2953.00,0.0823
2952.00,0.0815
2951.00,0.0806
2950.00,0.0797
2949.00,0.0790
2948.00,0.0785
2947.00,0.0782
2946.00,0.0783
2945.00,0.0788
2944.00,0.0797
2943.00,0.0809
2942.00,0.0825
2941.00,0.0844
2940.00,0.0866
2939.00,0.0890
2938.00,0.0917
2937.00,0.0945
2936.00,0.0974
2935.00,0.1003
2934.00,0.1032
2933.00,0.1060
2932.00,0.1086
2931.00,0.1110
2930.00,0.1131
2929.00,0.1150
2928.00,0.1166
2927.00,0.1180
2926.00,0.1190
2925.00,0.1198
2924.00,0.1204
2923.00,0.1208
2922.00,0.1211
2921.00,0.1212
2920.00,0.1212
2919.00,0.1209
2918.00,0.1203
2917.00,0.1193
2916.00,0.1178
2915.00,0.1158
2914.00,0.1135
2913.00,0.1109
2912.00,0.1083
2911.00,0.1057
2910.00,0.1032
2909.00,0.1008
2908.00,0.0985
2907.00,0.0963
2906.00,0.0942
2905.00,0.0922
2904.00,0.0903
2903.00,0.0886
2902.00,0.0870
2901.00,0.0855
2900.00,0.0841
2899.00,0.0828
2898.00,0.0816
2897.00,0.0804
2896.00,0.0794
2895.00,0.0784
2894.00,0.0774
2893.00,0.0764
2892.00,0.0754
2891.00,0.0745
2890.00,0.0735
2889.00,0.0726
2888.00,0.0717
2887.00,0.0708
2886.00,0.0701
2885.00,0.0694
2884.00,0.0687
2883.00,0.0682
2882.00,0.0678
2881.00,0.0675
2880.00,0.0674
2879.00,0.0675
2878.00,0.0677
2877.00,0.0681
2876.00,0.0685
2875.00,0.0690
2874.00,0.0695
2873.00,0.0700
2872.00,0.0704
2871.00,0.0706
2870.00,0.0706
2869.00,0.0704
2868.00,0.0703
2867.00,0.0703
2866.00,0.0705
2865.00,0.0710
2864.00,0.0718
2863.00,0.0729
2862.00,0.0742
2861.00,0.0757
2860.00,0.0772
2859.00,0.0786
2858.00,0.0798
2857.00,0.0806
2856.00,0.0810
2855.00,0.0810
2854.00,0.0805
2853.00,0.0797
2852.00,0.0786
2851.00,0.0772
2850.00,0.0754
2849.00,0.0730
2848.00,0.0703
2847.00,0.0673
2846.00,0.0642
2845.00,0.0612
2844.00,0.0584
2843.00,0.0558
2842.00,0.0534
2841.00,0.0513
2840.00,0.0493
2839.00,0.0476
2838.00,0.0461
2837.00,0.0447
2836.00,0.0435
2835.00,0.0424
2834.00,0.0414
2833.00,0.0405
2832.00,0.0396
2831.00,0.0387
2830.00,0.0378
2829.00,0.0369
2828.00,0.0360
2827.00,0.0351
2826.00,0.0341
2825.00,0.0331
2824.00,0.0321
2823.00,0.0311
2822.00,0.0301
2821.00,0.0291
2820.00,0.0281
2819.00,0.0272
2818.00,0.0264
2817.00,0.0256
2816.00,0.0249
2815.00,0.0242
2814.00,0.0235
2813.00,0.0229
2812.00,0.0223
2811.00,0.0218
2810.00,0.0214
2809.00,0.0209
2808.00,0.0206
2807.00,0.0202
2806.00,0.0198
2805.00,0.0195
2804.00,0.0191
2803.00,0.0188
2802.00,0.0185
2801.00,0.0182
2800.00,0.0179
2799.00,0.0176
2798.00,0.0173
2797.00,0.0171
2796.00,0.0169
2795.00,0.0167
2794.00,0.0165
2793.00,0.0163
2792.00,0.0161
2791.00,0.0159
2790.00,0.0157
2789.00,0.0156
2788.00,0.0155
2787.00,0.0154
2786.00,0.0153
2785.00,0.0152
2784.00,0.0150
2783.00,0.0149
2782.00,0.0148
2781.00,0.0147
2780.00,0.0146
2779.00,0.0145
2778.00,0.0143
2777.00,0.0142
2776.00,0.0141
2775.00,0.0140
2774.00,0.0139
2773.00,0.0138
2772.00,0.0138
2771.00,0.0137
2770.00,0.0136
2769.00,0.0136
2768.00,0.0135
2767.00,0.0135
2766.00,0.0134
2765.00,0.0134
2764.00,0.0133
2763.00,0.0133
2762.00,0.0132
2761.00,0.0132
2760.00,0.0132
2759.00,0.0132
2758.00,0.0132
2757.00,0.0132
