Created as New Dataset,Sample 232 By YargerLab Date Sunday, October 05 2025
cm-1,A
4000.00,0.0021
3999.00,0.0021
3998.00,0.0021
3997.00,0.0020
3996.00,0.0020
3995.00,0.0021
3994.00,0.0021
3993.00,0.0021
3992.00,0.0021
3991.00,0.0021
3990.00,0.0021
3989.00,0.0021
3988.00,0.0021
3987.00,0.0021
3986.00,0.0021
3985.00,0.0021
3984.00,0.0021
3983.00,0.0021
3982.00,0.0021
3981.00,0.0021
3980.00,0.0021
3979.00,0.0021
3978.00,0.0021
3977.00,0.0021
3976.00,0.0021
3975.00,0.0021
3974.00,0.0021
3973.00,0.0021
3972.00,0.0021
3971.00,0.0021
3970.00,0.0021
3969.00,0.0021
3968.00,0.0021
3967.00,0.0021
3966.00,0.0020
3965.00,0.0020
3964.00,0.0021
3963.00,0.0021
3962.00,0.0021
3961.00,0.0021
3960.00,0.0021
3959.00,0.0021
3958.00,0.0021
3957.00,0.0021
3956.00,0.0021
3955.00,0.0021
3954.00,0.0021
3953.00,0.0021
3952.00,0.0021
3951.00,0.0021
3950.00,0.0021
3949.00,0.0021
3948.00,0.0021
3947.00,0.0021
3946.00,0.0021
3945.00,0.0021
3944.00,0.0021
3943.00,0.0021
3942.00,0.0021
3941.00,0.0021
3940.00,0.0021
3939.00,0.0021
3938.00,0.0021
3937.00,0.0021
3936.00,0.0021
3935.00,0.0021
3934.00,0.0021
3933.00,0.0021
3932.00,0.0020
3931.00,0.0020
3930.00,0.0020
3929.00,0.0020
3928.00,0.0021
3927.00,0.0021
3926.00,0.0021
3925.00,0.0021
3924.00,0.0021
3923.00,0.0021
3922.00,0.0021
3921.00,0.0021
3920.00,0.0021
3919.00,0.0021
3918.00,0.0021
3917.00,0.0021
3916.00,0.0021
3915.00,0.0021
3914.00,0.0020
3913.00,0.0020
3912.00,0.0020
3911.00,0.0020
3910.00,0.0020
3909.00,0.0021
3908.00,0.0021
3907.00,0.0021
3906.00,0.0021
3905.00,0.0022
3904.00,0.0022
3903.00,0.0022
3902.00,0.0021
3901.00,0.0021
3900.00,0.0021
3899.00,0.0021
3898.00,0.0021
3897.00,0.0021
3896.00,0.0021
3895.00,0.0020
3894.00,0.0020
3893.00,0.0020
3892.00,0.0020
3891.00,0.0020
3890.00,0.0021
3889.00,0.0021
3888.00,0.0021
3887.00,0.0020
3886.00,0.0020
3885.00,0.0021
3884.00,0.0021
3883.00,0.0021
3882.00,0.0021
3881.00,0.0020
3880.00,0.0021
3879.00,0.0021
3878.00,0.0021
3877.00,0.0021
3876.00,0.0021
3875.00,0.0021
3874.00,0.0021
3873.00,0.0021
3872.00,0.0021
3871.00,0.0021
3870.00,0.0021
3869.00,0.0021
3868.00,0.0021
3867.00,0.0021
3866.00,0.0021
3865.00,0.0021
3864.00,0.0021
3863.00,0.0021
3862.00,0.0021
3861.00,0.0020
3860.00,0.0020
3859.00,0.0021
3858.00,0.0021
3857.00,0.0022
3856.00,0.0022
3855.00,0.0022
3854.00,0.0022
3853.00,0.0021
3852.00,0.0022
3851.00,0.0021
3850.00,0.0021
3849.00,0.0021
3848.00,0.0020
3847.00,0.0021
3846.00,0.0021
3845.00,0.0021
3844.00,0.0021
3843.00,0.0021
3842.00,0.0022
3841.00,0.0022
3840.00,0.0022
3839.00,0.0022
3838.00,0.0022
3837.00,0.0022
3836.00,0.0022
3835.00,0.0022
3834.00,0.0022
3833.00,0.0021
3832.00,0.0021
3831.00,0.0021
3830.00,0.0021
3829.00,0.0021
3828.00,0.0021
3827.00,0.0021
3826.00,0.0022
3825.00,0.0022
3824.00,0.0022
3823.00,0.0022
3822.00,0.0022
3821.00,0.0022
3820.00,0.0022
3819.00,0.0022
3818.00,0.0021
3817.00,0.0021
3816.00,0.0021
3815.00,0.0021
3814.00,0.0021
3813.00,0.0021
3812.00,0.0021
3811.00,0.0021
3810.00,0.0021
3809.00,0.0021
3808.00,0.0021
3807.00,0.0021
3806.00,0.0021
3805.00,0.0021
3804.00,0.0021
3803.00,0.0021
3802.00,0.0021
3801.00,0.0021
3800.00,0.0021
3799.00,0.0021
3798.00,0.0021
3797.00,0.0021
3796.00,0.0021
3795.00,0.0021
3794.00,0.0020
3793.00,0.0020
3792.00,0.0020
3791.00,0.0019
3790.00,0.0019
3789.00,0.0020
3788.00,0.0020
3787.00,0.0020
3786.00,0.0020
3785.00,0.0020
3784.00,0.0021
3783.00,0.0021
3782.00,0.0021
3781.00,0.0021
3780.00,0.0021
3779.00,0.0021
3778.00,0.0020
3777.00,0.0020
3776.00,0.0020
3775.00,0.0020
3774.00,0.0021
3773.00,0.0021
3772.00,0.0021
3771.00,0.0021
3770.00,0.0021
3769.00,0.0021
3768.00,0.0021
3767.00,0.0021
3766.00,0.0020
3765.00,0.0021
3764.00,0.0021
3763.00,0.0021
3762.00,0.0021
3761.00,0.0021
3760.00,0.0021
3759.00,0.0021
3758.00,0.0022
3757.00,0.0022
3756.00,0.0022
3755.00,0.0022
3754.00,0.0022
3753.00,0.0022
3752.00,0.0022
3751.00,0.0022
3750.00,0.0022
3749.00,0.0022
3748.00,0.0022
3747.00,0.0022
3746.00,0.0021
3745.00,0.0021
3744.00,0.0021
3743.00,0.0021
3742.00,0.0021
3741.00,0.0021
3740.00,0.0021
3739.00,0.0021
3738.00,0.0021
3737.00,0.0021
3736.00,0.0020
3735.00,0.0020
3734.00,0.0020
3733.00,0.0019
3732.00,0.0019
3731.00,0.0019
3730.00,0.0019
3729.00,0.0019
3728.00,0.0019
3727.00,0.0019
3726.00,0.0019
3725.00,0.0019
3724.00,0.0019
3723.00,0.0019
3722.00,0.0019
3721.00,0.0019
3720.00,0.0019
3719.00,0.0019
3718.00,0.0019
3717.00,0.0019
3716.00,0.0020
3715.00,0.0020
3714.00,0.0020
3713.00,0.0021
3712.00,0.0020
3711.00,0.0020
3710.00,0.0020
3709.00,0.0019
3708.00,0.0019
3707.00,0.0019
3706.00,0.0019
3705.00,0.0019
3704.00,0.0019
3703.00,0.0019
3702.00,0.0019
3701.00,0.0019
3700.00,0.0019
3699.00,0.0019
3698.00,0.0019
3697.00,0.0019
3696.00,0.0019
3695.00,0.0019
3694.00,0.0020
3693.00,0.0020
3692.00,0.0020
3691.00,0.0020
3690.00,0.0020
3689.00,0.0020
3688.00,0.0020
3687.00,0.0020
3686.00,0.0020
3685.00,0.0020
3684.00,0.0020
3683.00,0.0020
3682.00,0.0020
3681.00,0.0020
3680.00,0.0021
3679.00,0.0021
3678.00,0.0022
3677.00,0.0022
3676.00,0.0023
3675.00,0.0023
3674.00,0.0023
3673.00,0.0023
3672.00,0.0022
3671.00,0.0021
3670.00,0.0021
3669.00,0.0021
3668.00,0.0021
3667.00,0.0020
3666.00,0.0020
3665.00,0.0020
3664.00,0.0020
3663.00,0.0020
3662.00,0.0020
3661.00,0.0021
3660.00,0.0021
3659.00,0.0022
3658.00,0.0022
3657.00,0.0022
3656.00,0.0022
3655.00,0.0022
3654.00,0.0022
3653.00,0.0022
3652.00,0.0023
3651.00,0.0023
3650.00,0.0023
3649.00,0.0023
3648.00,0.0023
3647.00,0.0023
3646.00,0.0022
3645.00,0.0022
3644.00,0.0022
3643.00,0.0022
3642.00,0.0022
3641.00,0.0022
3640.00,0.0022
3639.00,0.0022
3638.00,0.0022
3637.00,0.0023
3636.00,0.0023
3635.00,0.0023
3634.00,0.0023
3633.00,0.0024
3632.00,0.0024
3631.00,0.0024
3630.00,0.0024
3629.00,0.0024
3628.00,0.0025
3627.00,0.0025
3626.00,0.0025
3625.00,0.0025
3624.00,0.0025
3623.00,0.0025
3622.00,0.0026
3621.00,0.0026
3620.00,0.0027
3619.00,0.0027
3618.00,0.0028
3617.00,0.0028
3616.00,0.0028
3615.00,0.0028
3614.00,0.0029
3613.00,0.0029
3612.00,0.0029
3611.00,0.0029
3610.00,0.0029
3609.00,0.0029
3608.00,0.0029
3607.00,0.0029
3606.00,0.0029
3605.00,0.0029
3604.00,0.0029
3603.00,0.0029
3602.00,0.0030
3601.00,0.0030
3600.00,0.0030
3599.00,0.0030
3598.00,0.0030
3597.00,0.0030
3596.00,0.0031
3595.00,0.0031
3594.00,0.0031
3593.00,0.0032
3592.00,0.0032
3591.00,0.0032
3590.00,0.0033
3589.00,0.0033
3588.00,0.0033
3587.00,0.0033
3586.00,0.0033
3585.00,0.0034
3584.00,0.0034
3583.00,0.0034
3582.00,0.0034
3581.00,0.0035
3580.00,0.0035
3579.00,0.0035
3578.00,0.0035
3577.00,0.0036
3576.00,0.0036
3575.00,0.0037
3574.00,0.0038
3573.00,0.0038
3572.00,0.0038
3571.00,0.0039
3570.00,0.0039
3569.00,0.0040
3568.00,0.0040
3567.00,0.0040
3566.00,0.0041
3565.00,0.0041
3564.00,0.0041
3563.00,0.0042
3562.00,0.0042
3561.00,0.0042
3560.00,0.0043
3559.00,0.0043
3558.00,0.0043
3557.00,0.0043
3556.00,0.0044
3555.00,0.0044
3554.00,0.0045
3553.00,0.0046
3552.00,0.0046
3551.00,0.0047
3550.00,0.0047
3549.00,0.0047
3548.00,0.0047
3547.00,0.0048
3546.00,0.0048
3545.00,0.0048
3544.00,0.0049
3543.00,0.0049
3542.00,0.0050
3541.00,0.0050
3540.00,0.0051
3539.00,0.0052
3538.00,0.0052
3537.00,0.0053
3536.00,0.0053
3535.00,0.0054
3534.00,0.0054
3533.00,0.0054
3532.00,0.0055
3531.00,0.0055
3530.00,0.0056
3529.00,0.0057
3528.00,0.0057
3527.00,0.0058
3526.00,0.0058
3525.00,0.0059
3524.00,0.0059
3523.00,0.0060
3522.00,0.0060
3521.00,0.0061
3520.00,0.0062
3519.00,0.0063
3518.00,0.0064
3517.00,0.0065
3516.00,0.0065
3515.00,0.0066
3514.00,0.0067
3513.00,0.0067
3512.00,0.0068
3511.00,0.0068
3510.00,0.0069
3509.00,0.0069
3508.00,0.0070
3507.00,0.0070
3506.00,0.0071
3505.00,0.0072
3504.00,0.0073
3503.00,0.0074
3502.00,0.0075
3501.00,0.0075
3500.00,0.0076
3499.00,0.0076
3498.00,0.0077
3497.00,0.0078
3496.00,0.0079
3495.00,0.0080
3494.00,0.0081
3493.00,0.0081
3492.00,0.0082
3491.00,0.0083
3490.00,0.0083
3489.00,0.0084
3488.00,0.0085
3487.00,0.0086
3486.00,0.0087
3485.00,0.0088
3484.00,0.0088
3483.00,0.0089
3482.00,0.0090
3481.00,0.0090
3480.00,0.0091
3479.00,0.0092
3478.00,0.0093
3477.00,0.0093
3476.00,0.0094
3475.00,0.0095
3474.00,0.0096
3473.00,0.0097
3472.00,0.0098
3471.00,0.0099
3470.00,0.0101
3469.00,0.0101
3468.00,0.0102
3467.00,0.0103
3466.00,0.0104
3465.00,0.0105
3464.00,0.0105
3463.00,0.0106
3462.00,0.0107
3461.00,0.0108
3460.00,0.0110
3459.00,0.0111
3458.00,0.0112
3457.00,0.0113
3456.00,0.0114
3455.00,0.0115
3454.00,0.0115
3453.00,0.0117
3452.00,0.0118
3451.00,0.0119
3450.00,0.0120
3449.00,0.0121
3448.00,0.0122
3447.00,0.0123
3446.00,0.0124
3445.00,0.0125
3444.00,0.0126
3443.00,0.0127
3442.00,0.0128
3441.00,0.0129
3440.00,0.0130
3439.00,0.0132
3438.00,0.0133
3437.00,0.0134
3436.00,0.0135
3435.00,0.0137
3434.00,0.0138
3433.00,0.0139
3432.00,0.0140
3431.00,0.0141
3430.00,0.0142
3429.00,0.0143
3428.00,0.0145
3427.00,0.0146
3426.00,0.0147
3425.00,0.0148
3424.00,0.0150
3423.00,0.0151
3422.00,0.0152
3421.00,0.0153
3420.00,0.0155
3419.00,0.0156
3418.00,0.0157
3417.00,0.0158
3416.00,0.0160
3415.00,0.0161
3414.00,0.0163
3413.00,0.0164
3412.00,0.0166
3411.00,0.0167
3410.00,0.0169
3409.00,0.0171
3408.00,0.0172
3407.00,0.0174
3406.00,0.0176
3405.00,0.0177
3404.00,0.0179
3403.00,0.0180
3402.00,0.0182
3401.00,0.0183
3400.00,0.0185
3399.00,0.0187
3398.00,0.0189
3397.00,0.0191
3396.00,0.0192
3395.00,0.0194
3394.00,0.0195
3393.00,0.0197
3392.00,0.0199
3391.00,0.0201
3390.00,0.0203
3389.00,0.0205
3388.00,0.0207
3387.00,0.0208
3386.00,0.0210
3385.00,0.0212
3384.00,0.0214
3383.00,0.0215
3382.00,0.0217
3381.00,0.0219
3380.00,0.0221
3379.00,0.0223
3378.00,0.0224
3377.00,0.0226
3376.00,0.0227
3375.00,0.0229
3374.00,0.0231
3373.00,0.0232
3372.00,0.0234
3371.00,0.0235
3370.00,0.0237
3369.00,0.0239
3368.00,0.0241
3367.00,0.0243
3366.00,0.0245
3365.00,0.0247
3364.00,0.0249
3363.00,0.0251
3362.00,0.0252
3361.00,0.0254
3360.00,0.0256
3359.00,0.0258
3358.00,0.0259
3357.00,0.0261
3356.00,0.0262
3355.00,0.0264
3354.00,0.0265
3353.00,0.0266
3352.00,0.0267
3351.00,0.0269
3350.00,0.0271
3349.00,0.0272
3348.00,0.0274
3347.00,0.0276
3346.00,0.0277
3345.00,0.0278
3344.00,0.0280
3343.00,0.0281
3342.00,0.0282
3341.00,0.0283
3340.00,0.0284
3339.00,0.0285
3338.00,0.0287
3337.00,0.0289
3336.00,0.0290
3335.00,0.0292
3334.00,0.0294
3333.00,0.0295
3332.00,0.0296
3331.00,0.0298
3330.00,0.0299
3329.00,0.0300
3328.00,0.0301
3327.00,0.0301
3326.00,0.0302
3325.00,0.0304
3324.00,0.0306
3323.00,0.0307
3322.00,0.0309
3321.00,0.0310
3320.00,0.0310
3319.00,0.0311
3318.00,0.0312
3317.00,0.0314
3316.00,0.0315
3315.00,0.0316
3314.00,0.0317
3313.00,0.0318
3312.00,0.0318
3311.00,0.0318
3310.00,0.0318
3309.00,0.0318
3308.00,0.0318
3307.00,0.0318
3306.00,0.0319
3305.00,0.0321
3304.00,0.0323
3303.00,0.0325
3302.00,0.0327
3301.00,0.0328
3300.00,0.0329
3299.00,0.0329
3298.00,0.0329
3297.00,0.0329
3296.00,0.0329
3295.00,0.0329
3294.00,0.0329
3293.00,0.0330
3292.00,0.0331
3291.00,0.0332
3290.00,0.0333
3289.00,0.0334
3288.00,0.0335
3287.00,0.0335
3286.00,0.0335
3285.00,0.0336
3284.00,0.0336
3283.00,0.0336
3282.00,0.0336
3281.00,0.0336
3280.00,0.0336
3279.00,0.0337
3278.00,0.0337
3277.00,0.0337
3276.00,0.0337
3275.00,0.0337
3274.00,0.0337
3273.00,0.0337
3272.00,0.0337
3271.00,0.0337
3270.00,0.0337
3269.00,0.0337
3268.00,0.0338
3267.00,0.0338
3266.00,0.0339
3265.00,0.0339
3264.00,0.0339
3263.00,0.0339
3262.00,0.0339
3261.00,0.0339
3260.00,0.0339
3259.00,0.0339
3258.00,0.0339
3257.00,0.0339
3256.00,0.0339
3255.00,0.0339
3254.00,0.0339
3253.00,0.0340
3252.00,0.0340
3251.00,0.0340
3250.00,0.0340
3249.00,0.0339
3248.00,0.0339
3247.00,0.0339
3246.00,0.0339
3245.00,0.0339
3244.00,0.0339
3243.00,0.0338
3242.00,0.0338
3241.00,0.0338
3240.00,0.0338
3239.00,0.0338
3238.00,0.0338
3237.00,0.0338
3236.00,0.0337
3235.00,0.0337
3234.00,0.0337
3233.00,0.0337
3232.00,0.0337
3231.00,0.0336
3230.00,0.0336
3229.00,0.0336
3228.00,0.0335
3227.00,0.0335
3226.00,0.0334
3225.00,0.0334
3224.00,0.0334
3223.00,0.0334
3222.00,0.0333
3221.00,0.0333
3220.00,0.0332
3219.00,0.0332
3218.00,0.0332
3217.00,0.0332
3216.00,0.0332
3215.00,0.0332
3214.00,0.0332
3213.00,0.0332
3212.00,0.0332
3211.00,0.0332
3210.00,0.0332
3209.00,0.0332
3208.00,0.0332
3207.00,0.0332
3206.00,0.0332
3205.00,0.0331
3204.00,0.0331
3203.00,0.0330
3202.00,0.0330
3201.00,0.0329
3200.00,0.0329
3199.00,0.0329
3198.00,0.0328
3197.00,0.0328
3196.00,0.0327
3195.00,0.0327
3194.00,0.0326
3193.00,0.0326
3192.00,0.0325
3191.00,0.0324
3190.00,0.0323
3189.00,0.0322
3188.00,0.0321
3187.00,0.0320
3186.00,0.0319
3185.00,0.0319
3184.00,0.0318
3183.00,0.0317
3182.00,0.0315
3181.00,0.0314
3180.00,0.0313
3179.00,0.0312
3178.00,0.0311
3177.00,0.0310
3176.00,0.0309
3175.00,0.0308
3174.00,0.0307
3173.00,0.0306
3172.00,0.0305
3171.00,0.0304
3170.00,0.0303
3169.00,0.0301
3168.00,0.0300
3167.00,0.0299
3166.00,0.0297
3165.00,0.0296
3164.00,0.0295
3163.00,0.0293
3162.00,0.0292
3161.00,0.0291
3160.00,0.0289
3159.00,0.0288
3158.00,0.0287
3157.00,0.0286
3156.00,0.0285
3155.00,0.0283
3154.00,0.0282
3153.00,0.0281
3152.00,0.0280
3151.00,0.0278
3150.00,0.0277
3149.00,0.0276
3148.00,0.0275
3147.00,0.0273
3146.00,0.0272
3145.00,0.0271
3144.00,0.0270
3143.00,0.0268
3142.00,0.0267
3141.00,0.0266
3140.00,0.0265
3139.00,0.0265
3138.00,0.0264
3137.00,0.0263
3136.00,0.0262
3135.00,0.0261
3134.00,0.0260
3133.00,0.0259
3132.00,0.0258
3131.00,0.0257
3130.00,0.0256
3129.00,0.0255
3128.00,0.0254
3127.00,0.0253
3126.00,0.0252
3125.00,0.0251
3124.00,0.0249
3123.00,0.0248
3122.00,0.0247
3121.00,0.0246
3120.00,0.0244
3119.00,0.0243
3118.00,0.0242
3117.00,0.0240
3116.00,0.0239
3115.00,0.0237
3114.00,0.0236
3113.00,0.0235
3112.00,0.0233
3111.00,0.0232
3110.00,0.0230
3109.00,0.0228
3108.00,0.0226
3107.00,0.0225
3106.00,0.0223
3105.00,0.0222
3104.00,0.0220
3103.00,0.0219
3102.00,0.0218
3101.00,0.0217
3100.00,0.0215
3099.00,0.0214
3098.00,0.0212
3097.00,0.0211
3096.00,0.0209
3095.00,0.0208
3094.00,0.0207
3093.00,0.0205
3092.00,0.0204
3091.00,0.0203
3090.00,0.0201
3089.00,0.0200
3088.00,0.0199
3087.00,0.0198
3086.00,0.0197
3085.00,0.0196
3084.00,0.0194
3083.00,0.0193
3082.00,0.0192
3081.00,0.0191
3080.00,0.0190
3079.00,0.0189
3078.00,0.0188
3077.00,0.0187
3076.00,0.0186
3075.00,0.0185
3074.00,0.0185
3073.00,0.0184
3072.00,0.0183
3071.00,0.0182
3070.00,0.0182
3069.00,0.0181
3068.00,0.0180
3067.00,0.0179
3066.00,0.0178
3065.00,0.0178
3064.00,0.0177
3063.00,0.0176
3062.00,0.0176
3061.00,0.0176
3060.00,0.0175
3059.00,0.0175
3058.00,0.0175
3057.00,0.0174
3056.00,0.0174
3055.00,0.0173
3054.00,0.0173
3053.00,0.0172
3052.00,0.0172
3051.00,0.0171
3050.00,0.0170
3049.00,0.0170
3048.00,0.0169
3047.00,0.0168
3046.00,0.0168
3045.00,0.0167
3044.00,0.0167
3043.00,0.0166
3042.00,0.0166
3041.00,0.0165
3040.00,0.0165
3039.00,0.0164
3038.00,0.0164
3037.00,0.0163
3036.00,0.0163
3035.00,0.0164
3034.00,0.0164
3033.00,0.0164
3032.00,0.0164
3031.00,0.0164
3030.00,0.0164
3029.00,0.0164
3028.00,0.0164
3027.00,0.0164
3026.00,0.0164
3025.00,0.0164
3024.00,0.0164
3023.00,0.0164
3022.00,0.0163
3021.00,0.0163
3020.00,0.0163
3019.00,0.0163
3018.00,0.0163
3017.00,0.0163
3016.00,0.0163
3015.00,0.0164
3014.00,0.0164
3013.00,0.0165
3012.00,0.0166
3011.00,0.0168
3010.00,0.0169
3009.00,0.0171
3008.00,0.0173
3007.00,0.0175
3006.00,0.0177
3005.00,0.0180
3004.00,0.0183
3003.00,0.0186
3002.00,0.0190
3001.00,0.0195
3000.00,0.0199
2999.00,0.0204
2998.00,0.0209
2997.00,0.0215
2996.00,0.0220
2995.00,0.0226
2994.00,0.0233
2993.00,0.0239
2992.00,0.0246
2991.00,0.0254
2990.00,0.0261
2989.00,0.0268
2988.00,0.0275
2987.00,0.0282
2986.00,0.0288
2985.00,0.0295
2984.00,0.0300
2983.00,0.0306
2982.00,0.0312
2981.00,0.0317
2980.00,0.0324
2979.00,0.0330
2978.00,0.0337
2977.00,0.0343
2976.00,0.0350
2975.00,0.0358
2974.00,0.0365
2973.00,0.0372
2972.00,0.0380
2971.00,0.0389
2970.00,0.0398
2969.00,0.0407
2968.00,0.0417
2967.00,0.0428
2966.00,0.0438
2965.00,0.0447
2964.00,0.0457
2963.00,0.0465
2962.00,0.0473
2961.00,0.0480
2960.00,0.0486
2959.00,0.0490
2958.00,0.0494
2957.00,0.0497
2956.00,0.0498
2955.00,0.0498
2954.00,0.0497
2953.00,0.0495
2952.00,0.0491
2951.00,0.0487
2950.00,0.0483
2949.00,0.0478
2948.00,0.0475
2947.00,0.0473
2946.00,0.0472
2945.00,0.0473
2944.00,0.0476
2943.00,0.0481
2942.00,0.0487
2941.00,0.0496
2940.00,0.0506
2939.00,0.0517
2938.00,0.0530
2937.00,0.0543
2936.00,0.0558
2935.00,0.0572
2934.00,0.0587
2933.00,0.0601
2932.00,0.0615
2931.00,0.0628
2930.00,0.0639
2929.00,0.0649
2928.00,0.0657
2927.00,0.0664
2926.00,0.0670
2925.00,0.0674
2924.00,0.0677
2923.00,0.0678
2922.00,0.0678
2921.00,0.0677
2920.00,0.0674
2919.00,0.0671
2918.00,0.0667
2917.00,0.0661
2916.00,0.0655
2915.00,0.0646
2914.00,0.0637
2913.00,0.0627
2912.00,0.0615
2911.00,0.0604
2910.00,0.0592
2909.00,0.0580
2908.00,0.0568
2907.00,0.0556
2906.00,0.0545
2905.00,0.0534
2904.00,0.0524
2903.00,0.0515
2902.00,0.0507
2901.00,0.0499
2900.00,0.0492
2899.00,0.0486
2898.00,0.0480
2897.00,0.0474
2896.00,0.0469
2895.00,0.0465
2894.00,0.0460
2893.00,0.0456
2892.00,0.0451
2891.00,0.0447
2890.00,0.0442
2889.00,0.0437
2888.00,0.0433
2887.00,0.0429
2886.00,0.0425
2885.00,0.0422
2884.00,0.0419
2883.00,0.0417
2882.00,0.0415
2881.00,0.0414
2880.00,0.0414
2879.00,0.0414
2878.00,0.0415
2877.00,0.0417
2876.00,0.0419
2875.00,0.0422
2874.00,0.0425
2873.00,0.0428
2872.00,0.0430
2871.00,0.0431
2870.00,0.0432
2869.00,0.0431
2868.00,0.0430
2867.00,0.0430
2866.00,0.0430
2865.00,0.0432
2864.00,0.0435
2863.00,0.0439
2862.00,0.0445
2861.00,0.0451
2860.00,0.0458
2859.00,0.0465
2858.00,0.0470
2857.00,0.0474
2856.00,0.0475
2855.00,0.0473
2854.00,0.0469
2853.00,0.0462
2852.00,0.0454
2851.00,0.0444
2850.00,0.0432
2849.00,0.0419
2848.00,0.0406
2847.00,0.0391
2846.00,0.0376
2845.00,0.0361
2844.00,0.0347
2843.00,0.0333
2842.00,0.0319
2841.00,0.0307
2840.00,0.0295
2839.00,0.0284
2838.00,0.0274
2837.00,0.0266
2836.00,0.0257
2835.00,0.0250
2834.00,0.0242
2833.00,0.0235
2832.00,0.0229
2831.00,0.0222
2830.00,0.0216
2829.00,0.0210
2828.00,0.0204
2827.00,0.0198
2826.00,0.0192
2825.00,0.0186
2824.00,0.0181
2823.00,0.0175
2822.00,0.0170
2821.00,0.0165
2820.00,0.0160
2819.00,0.0155
2818.00,0.0151
2817.00,0.0147
2816.00,0.0143
2815.00,0.0140
2814.00,0.0137
2813.00,0.0134
2812.00,0.0131
2811.00,0.0129
2810.00,0.0126
2809.00,0.0124
2808.00,0.0123
2807.00,0.0121
2806.00,0.0119
2805.00,0.0118
2804.00,0.0116
2803.00,0.0115
2802.00,0.0113
2801.00,0.0112
2800.00,0.0111
2799.00,0.0110
2798.00,0.0108
2797.00,0.0107
2796.00,0.0106
2795.00,0.0105
2794.00,0.0104
2793.00,0.0103
2792.00,0.0103
2791.00,0.0102
2790.00,0.0101
2789.00,0.0100
2788.00,0.0100
2787.00,0.0099
2786.00,0.0099
2785.00,0.0098
2784.00,0.0097
2783.00,0.0097
2782.00,0.0096
2781.00,0.0096
2780.00,0.0096
2779.00,0.0095
2778.00,0.0094
2777.00,0.0094
2776.00,0.0093
2775.00,0.0093
2774.00,0.0092
2773.00,0.0092
2772.00,0.0092
2771.00,0.0092
2770.00,0.0091
2769.00,0.0091
2768.00,0.0091
2767.00,0.0090
2766.00,0.0090
2765.00,0.0090
2764.00,0.0089
2763.00,0.0089
2762.00,0.0089
2761.00,0.0089
2760.00,0.0090
2759.00,0.0090
2758.00,0.0090
2757.00,0.0090
