Created as New Dataset,Sample 234 By YargerLab Date Sunday, October 05 2025
cm-1,A
4000.00,0.0034
3999.00,0.0034
3998.00,0.0034
3997.00,0.0034
3996.00,0.0034
3995.00,0.0034
3994.00,0.0034
3993.00,0.0034
3992.00,0.0034
3991.00,0.0034
3990.00,0.0034
3989.00,0.0034
3988.00,0.0034
3987.00,0.0034
3986.00,0.0034
3985.00,0.0034
3984.00,0.0034
3983.00,0.0034
3982.00,0.0034
3981.00,0.0034
3980.00,0.0034
3979.00,0.0034
3978.00,0.0034
3977.00,0.0034
3976.00,0.0034
3975.00,0.0034
3974.00,0.0034
3973.00,0.0034
3972.00,0.0034
3971.00,0.0034
3970.00,0.0034
3969.00,0.0034
3968.00,0.0034
3967.00,0.0034
3966.00,0.0034
3965.00,0.0034
3964.00,0.0034
3963.00,0.0034
3962.00,0.0034
3961.00,0.0034
3960.00,0.0034
3959.00,0.0034
3958.00,0.0034
3957.00,0.0034
3956.00,0.0034
3955.00,0.0034
3954.00,0.0034
3953.00,0.0034
3952.00,0.0034
3951.00,0.0034
3950.00,0.0034
3949.00,0.0034
3948.00,0.0034
3947.00,0.0034
3946.00,0.0034
3945.00,0.0034
3944.00,0.0034
3943.00,0.0034
3942.00,0.0034
3941.00,0.0034
3940.00,0.0034
3939.00,0.0033
3938.00,0.0033
3937.00,0.0033
3936.00,0.0033
3935.00,0.0034
3934.00,0.0034
3933.00,0.0033
3932.00,0.0033
3931.00,0.0033
3930.00,0.0033
3929.00,0.0033
3928.00,0.0033
3927.00,0.0033
3926.00,0.0033
3925.00,0.0033
3924.00,0.0033
3923.00,0.0033
3922.00,0.0033
3921.00,0.0033
3920.00,0.0033
3919.00,0.0033
3918.00,0.0033
3917.00,0.0033
3916.00,0.0033
3915.00,0.0033
3914.00,0.0033
3913.00,0.0033
3912.00,0.0033
3911.00,0.0033
3910.00,0.0033
3909.00,0.0033
3908.00,0.0033
3907.00,0.0033
3906.00,0.0034
3905.00,0.0034
3904.00,0.0034
3903.00,0.0034
3902.00,0.0034
3901.00,0.0034
3900.00,0.0034
3899.00,0.0034
3898.00,0.0034
3897.00,0.0034
3896.00,0.0033
3895.00,0.0033
3894.00,0.0033
3893.00,0.0033
3892.00,0.0033
3891.00,0.0033
3890.00,0.0033
3889.00,0.0033
3888.00,0.0033
3887.00,0.0033
3886.00,0.0033
3885.00,0.0033
3884.00,0.0033
3883.00,0.0033
3882.00,0.0033
3881.00,0.0033
3880.00,0.0033
3879.00,0.0033
3878.00,0.0033
3877.00,0.0033
3876.00,0.0033
3875.00,0.0033
3874.00,0.0033
3873.00,0.0034
3872.00,0.0034
3871.00,0.0033
3870.00,0.0033
3869.00,0.0033
3868.00,0.0033
3867.00,0.0034
3866.00,0.0033
3865.00,0.0033
3864.00,0.0033
3863.00,0.0033
3862.00,0.0033
3861.00,0.0033
3860.00,0.0033
3859.00,0.0033
3858.00,0.0034
3857.00,0.0035
3856.00,0.0035
3855.00,0.0036
3854.00,0.0036
3853.00,0.0036
3852.00,0.0036
3851.00,0.0035
3850.00,0.0034
3849.00,0.0033
3848.00,0.0033
3847.00,0.0033
3846.00,0.0033
3845.00,0.0033
3844.00,0.0033
3843.00,0.0033
3842.00,0.0034
3841.00,0.0034
3840.00,0.0034
3839.00,0.0034
3838.00,0.0034
3837.00,0.0035
3836.00,0.0034
3835.00,0.0034
3834.00,0.0034
3833.00,0.0033
3832.00,0.0033
3831.00,0.0033
3830.00,0.0033
3829.00,0.0033
3828.00,0.0033
3827.00,0.0033
3826.00,0.0033
3825.00,0.0033
3824.00,0.0033
3823.00,0.0033
3822.00,0.0033
3821.00,0.0033
3820.00,0.0033
3819.00,0.0034
3818.00,0.0034
3817.00,0.0033
3816.00,0.0033
3815.00,0.0033
3814.00,0.0033
3813.00,0.0033
3812.00,0.0033
3811.00,0.0033
3810.00,0.0033
3809.00,0.0033
3808.00,0.0033
3807.00,0.0033
3806.00,0.0033
3805.00,0.0033
3804.00,0.0034
3803.00,0.0033
3802.00,0.0033
3801.00,0.0033
3800.00,0.0033
3799.00,0.0033
3798.00,0.0033
3797.00,0.0032
3796.00,0.0032
3795.00,0.0032
3794.00,0.0032
3793.00,0.0032
3792.00,0.0032
3791.00,0.0032
3790.00,0.0032
3789.00,0.0032
3788.00,0.0032
3787.00,0.0032
3786.00,0.0032
3785.00,0.0032
3784.00,0.0032
3783.00,0.0033
3782.00,0.0033
3781.00,0.0033
3780.00,0.0032
3779.00,0.0032
3778.00,0.0032
3777.00,0.0032
3776.00,0.0032
3775.00,0.0032
3774.00,0.0032
3773.00,0.0032
3772.00,0.0032
3771.00,0.0032
3770.00,0.0032
3769.00,0.0032
3768.00,0.0032
3767.00,0.0032
3766.00,0.0032
3765.00,0.0032
3764.00,0.0032
3763.00,0.0032
3762.00,0.0032
3761.00,0.0032
3760.00,0.0032
3759.00,0.0032
3758.00,0.0032
3757.00,0.0032
3756.00,0.0033
3755.00,0.0033
3754.00,0.0033
3753.00,0.0033
3752.00,0.0033
3751.00,0.0033
3750.00,0.0033
3749.00,0.0033
3748.00,0.0033
3747.00,0.0033
3746.00,0.0033
3745.00,0.0033
3744.00,0.0032
3743.00,0.0033
3742.00,0.0033
3741.00,0.0032
3740.00,0.0032
3739.00,0.0032
3738.00,0.0032
3737.00,0.0031
3736.00,0.0031
3735.00,0.0031
3734.00,0.0031
3733.00,0.0031
3732.00,0.0031
3731.00,0.0031
3730.00,0.0031
3729.00,0.0031
3728.00,0.0031
3727.00,0.0031
3726.00,0.0031
3725.00,0.0031
3724.00,0.0031
3723.00,0.0031
3722.00,0.0031
3721.00,0.0031
3720.00,0.0031
3719.00,0.0030
3718.00,0.0030
3717.00,0.0030
3716.00,0.0031
3715.00,0.0031
3714.00,0.0031
3713.00,0.0031
3712.00,0.0031
3711.00,0.0031
3710.00,0.0031
3709.00,0.0031
3708.00,0.0031
3707.00,0.0030
3706.00,0.0030
3705.00,0.0030
3704.00,0.0030
3703.00,0.0030
3702.00,0.0030
3701.00,0.0030
3700.00,0.0030
3699.00,0.0030
3698.00,0.0030
3697.00,0.0030
3696.00,0.0030
3695.00,0.0030
3694.00,0.0030
3693.00,0.0031
3692.00,0.0031
3691.00,0.0031
3690.00,0.0031
3689.00,0.0031
3688.00,0.0031
3687.00,0.0031
3686.00,0.0031
3685.00,0.0031
3684.00,0.0031
3683.00,0.0031
3682.00,0.0031
3681.00,0.0031
3680.00,0.0032
3679.00,0.0032
3678.00,0.0032
3677.00,0.0033
3676.00,0.0032
3675.00,0.0032
3674.00,0.0033
3673.00,0.0033
3672.00,0.0032
3671.00,0.0032
3670.00,0.0031
3669.00,0.0031
3668.00,0.0031
3667.00,0.0031
3666.00,0.0031
3665.00,0.0031
3664.00,0.0031
3663.00,0.0031
3662.00,0.0031
3661.00,0.0032
3660.00,0.0032
3659.00,0.0032
3658.00,0.0032
3657.00,0.0032
3656.00,0.0032
3655.00,0.0033
3654.00,0.0033
3653.00,0.0033
3652.00,0.0033
3651.00,0.0033
3650.00,0.0034
3649.00,0.0034
3648.00,0.0034
3647.00,0.0034
3646.00,0.0034
3645.00,0.0034
3644.00,0.0034
3643.00,0.0034
3642.00,0.0034
3641.00,0.0034
3640.00,0.0034
3639.00,0.0034
3638.00,0.0035
3637.00,0.0035
3636.00,0.0035
3635.00,0.0036
3634.00,0.0036
3633.00,0.0037
3632.00,0.0038
3631.00,0.0038
3630.00,0.0038
3629.00,0.0038
3628.00,0.0038
3627.00,0.0038
3626.00,0.0039
3625.00,0.0039
3624.00,0.0039
3623.00,0.0039
3622.00,0.0040
3621.00,0.0040
3620.00,0.0041
3619.00,0.0041
3618.00,0.0041
3617.00,0.0042
3616.00,0.0042
3615.00,0.0042
3614.00,0.0043
3613.00,0.0043
3612.00,0.0043
3611.00,0.0044
3610.00,0.0044
3609.00,0.0044
3608.00,0.0044
3607.00,0.0044
3606.00,0.0044
3605.00,0.0044
3604.00,0.0044
3603.00,0.0045
3602.00,0.0045
3601.00,0.0045
3600.00,0.0046
3599.00,0.0046
3598.00,0.0046
3597.00,0.0046
3596.00,0.0046
3595.00,0.0046
3594.00,0.0046
3593.00,0.0047
3592.00,0.0047
3591.00,0.0047
3590.00,0.0048
3589.00,0.0048
3588.00,0.0048
3587.00,0.0048
3586.00,0.0049
3585.00,0.0049
3584.00,0.0049
3583.00,0.0050
3582.00,0.0050
3581.00,0.0051
3580.00,0.0051
3579.00,0.0051
3578.00,0.0051
3577.00,0.0052
3576.00,0.0052
3575.00,0.0053
3574.00,0.0053
3573.00,0.0054
3572.00,0.0054
3571.00,0.0055
3570.00,0.0055
3569.00,0.0056
3568.00,0.0056
3567.00,0.0056
3566.00,0.0057
3565.00,0.0057
3564.00,0.0058
3563.00,0.0058
3562.00,0.0059
3561.00,0.0059
3560.00,0.0060
3559.00,0.0060
3558.00,0.0061
3557.00,0.0061
3556.00,0.0061
3555.00,0.0062
3554.00,0.0063
3553.00,0.0063
3552.00,0.0063
3551.00,0.0064
3550.00,0.0064
3549.00,0.0065
3548.00,0.0065
3547.00,0.0066
3546.00,0.0067
3545.00,0.0067
3544.00,0.0068
3543.00,0.0068
3542.00,0.0069
3541.00,0.0070
3540.00,0.0071
3539.00,0.0071
3538.00,0.0072
3537.00,0.0072
3536.00,0.0073
3535.00,0.0074
3534.00,0.0074
3533.00,0.0075
3532.00,0.0075
3531.00,0.0076
3530.00,0.0076
3529.00,0.0077
3528.00,0.0078
3527.00,0.0078
3526.00,0.0079
3525.00,0.0080
3524.00,0.0080
3523.00,0.0081
3522.00,0.0082
3521.00,0.0083
3520.00,0.0084
3519.00,0.0084
3518.00,0.0085
3517.00,0.0086
3516.00,0.0087
3515.00,0.0088
3514.00,0.0089
3513.00,0.0089
3512.00,0.0090
3511.00,0.0091
3510.00,0.0092
3509.00,0.0092
3508.00,0.0093
3507.00,0.0094
3506.00,0.0095
3505.00,0.0096
3504.00,0.0097
3503.00,0.0098
3502.00,0.0099
3501.00,0.0100
3500.00,0.0101
3499.00,0.0102
3498.00,0.0102
3497.00,0.0103
3496.00,0.0104
3495.00,0.0105
3494.00,0.0106
3493.00,0.0107
3492.00,0.0108
3491.00,0.0109
3490.00,0.0110
3489.00,0.0111
3488.00,0.0112
3487.00,0.0113
3486.00,0.0114
3485.00,0.0115
3484.00,0.0116
3483.00,0.0116
3482.00,0.0117
3481.00,0.0118
3480.00,0.0119
3479.00,0.0120
3478.00,0.0121
3477.00,0.0123
3476.00,0.0124
3475.00,0.0125
3474.00,0.0126
3473.00,0.0127
3472.00,0.0128
3471.00,0.0130
3470.00,0.0131
3469.00,0.0132
3468.00,0.0133
3467.00,0.0134
3466.00,0.0135
3465.00,0.0136
3464.00,0.0137
3463.00,0.0139
3462.00,0.0140
3461.00,0.0141
3460.00,0.0143
3459.00,0.0144
3458.00,0.0145
3457.00,0.0146
3456.00,0.0147
3455.00,0.0149
3454.00,0.0150
3453.00,0.0152
3452.00,0.0153
3451.00,0.0154
3450.00,0.0156
3449.00,0.0157
3448.00,0.0158
3447.00,0.0160
3446.00,0.0161
3445.00,0.0162
3444.00,0.0164
3443.00,0.0165
3442.00,0.0167
3441.00,0.0168
3440.00,0.0170
3439.00,0.0171
3438.00,0.0173
3437.00,0.0174
3436.00,0.0176
3435.00,0.0177
3434.00,0.0179
3433.00,0.0181
3432.00,0.0182
3431.00,0.0184
3430.00,0.0185
3429.00,0.0187
3428.00,0.0188
3427.00,0.0190
3426.00,0.0192
3425.00,0.0194
3424.00,0.0195
3423.00,0.0197
3422.00,0.0198
3421.00,0.0200
3420.00,0.0202
3419.00,0.0204
3418.00,0.0206
3417.00,0.0208
3416.00,0.0209
3415.00,0.0211
3414.00,0.0213
3413.00,0.0215
3412.00,0.0217
3411.00,0.0219
3410.00,0.0222
3409.00,0.0224
3408.00,0.0226
3407.00,0.0228
3406.00,0.0230
3405.00,0.0232
3404.00,0.0234
3403.00,0.0236
3402.00,0.0238
3401.00,0.0240
3400.00,0.0243
3399.00,0.0245
3398.00,0.0248
3397.00,0.0250
3396.00,0.0252
3395.00,0.0254
3394.00,0.0256
3393.00,0.0258
3392.00,0.0261
3391.00,0.0264
3390.00,0.0266
3389.00,0.0269
3388.00,0.0272
3387.00,0.0274
3386.00,0.0276
3385.00,0.0279
3384.00,0.0281
3383.00,0.0283
3382.00,0.0286
3381.00,0.0288
3380.00,0.0291
3379.00,0.0293
3378.00,0.0296
3377.00,0.0298
3376.00,0.0300
3375.00,0.0303
3374.00,0.0305
3373.00,0.0307
3372.00,0.0308
3371.00,0.0310
3370.00,0.0312
3369.00,0.0314
3368.00,0.0317
3367.00,0.0320
3366.00,0.0323
3365.00,0.0326
3364.00,0.0329
3363.00,0.0331
3362.00,0.0333
3361.00,0.0335
3360.00,0.0337
3359.00,0.0340
3358.00,0.0342
3357.00,0.0344
3356.00,0.0346
3355.00,0.0348
3354.00,0.0350
3353.00,0.0351
3352.00,0.0352
3351.00,0.0354
3350.00,0.0356
3349.00,0.0359
3348.00,0.0362
3347.00,0.0364
3346.00,0.0366
3345.00,0.0367
3344.00,0.0369
3343.00,0.0370
3342.00,0.0371
3341.00,0.0373
3340.00,0.0375
3339.00,0.0376
3338.00,0.0378
3337.00,0.0381
3336.00,0.0383
3335.00,0.0386
3334.00,0.0388
3333.00,0.0390
3332.00,0.0392
3331.00,0.0394
3330.00,0.0395
3329.00,0.0396
3328.00,0.0397
3327.00,0.0398
3326.00,0.0399
3325.00,0.0401
3324.00,0.0403
3323.00,0.0405
3322.00,0.0407
3321.00,0.0409
3320.00,0.0410
3319.00,0.0412
3318.00,0.0414
3317.00,0.0415
3316.00,0.0416
3315.00,0.0418
3314.00,0.0419
3313.00,0.0419
3312.00,0.0419
3311.00,0.0419
3310.00,0.0418
3309.00,0.0418
3308.00,0.0417
3307.00,0.0418
3306.00,0.0419
3305.00,0.0422
3304.00,0.0425
3303.00,0.0428
3302.00,0.0430
3301.00,0.0432
3300.00,0.0432
3299.00,0.0432
3298.00,0.0432
3297.00,0.0432
3296.00,0.0432
3295.00,0.0432
3294.00,0.0433
3293.00,0.0433
3292.00,0.0434
3291.00,0.0436
3290.00,0.0437
3289.00,0.0439
3288.00,0.0440
3287.00,0.0440
3286.00,0.0441
3285.00,0.0441
3284.00,0.0441
3283.00,0.0442
3282.00,0.0442
3281.00,0.0442
3280.00,0.0442
3279.00,0.0443
3278.00,0.0443
3277.00,0.0443
3276.00,0.0443
3275.00,0.0442
3274.00,0.0442
3273.00,0.0442
3272.00,0.0441
3271.00,0.0441
3270.00,0.0441
3269.00,0.0442
3268.00,0.0443
3267.00,0.0443
3266.00,0.0444
3265.00,0.0444
3264.00,0.0445
3263.00,0.0445
3262.00,0.0445
3261.00,0.0445
3260.00,0.0444
3259.00,0.0444
3258.00,0.0444
3257.00,0.0443
3256.00,0.0443
3255.00,0.0443
3254.00,0.0443
3253.00,0.0444
3252.00,0.0444
3251.00,0.0444
3250.00,0.0444
3249.00,0.0443
3248.00,0.0443
3247.00,0.0443
3246.00,0.0442
3245.00,0.0442
3244.00,0.0443
3243.00,0.0442
3242.00,0.0442
3241.00,0.0442
3240.00,0.0442
3239.00,0.0441
3238.00,0.0441
3237.00,0.0441
3236.00,0.0440
3235.00,0.0439
3234.00,0.0439
3233.00,0.0439
3232.00,0.0439
3231.00,0.0438
3230.00,0.0438
3229.00,0.0438
3228.00,0.0437
3227.00,0.0437
3226.00,0.0436
3225.00,0.0436
3224.00,0.0436
3223.00,0.0435
3222.00,0.0434
3221.00,0.0434
3220.00,0.0433
3219.00,0.0433
3218.00,0.0432
3217.00,0.0432
3216.00,0.0432
3215.00,0.0433
3214.00,0.0433
3213.00,0.0433
3212.00,0.0432
3211.00,0.0432
3210.00,0.0432
3209.00,0.0432
3208.00,0.0432
3207.00,0.0433
3206.00,0.0433
3205.00,0.0432
3204.00,0.0432
3203.00,0.0431
3202.00,0.0431
3201.00,0.0430
3200.00,0.0429
3199.00,0.0429
3198.00,0.0428
3197.00,0.0427
3196.00,0.0426
3195.00,0.0425
3194.00,0.0424
3193.00,0.0424
3192.00,0.0423
3191.00,0.0421
3190.00,0.0420
3189.00,0.0419
3188.00,0.0418
3187.00,0.0417
3186.00,0.0415
3185.00,0.0414
3184.00,0.0413
3183.00,0.0412
3182.00,0.0410
3181.00,0.0409
3180.00,0.0407
3179.00,0.0406
3178.00,0.0404
3177.00,0.0403
3176.00,0.0402
3175.00,0.0400
3174.00,0.0399
3173.00,0.0397
3172.00,0.0396
3171.00,0.0394
3170.00,0.0393
3169.00,0.0391
3168.00,0.0389
3167.00,0.0388
3166.00,0.0386
3165.00,0.0384
3164.00,0.0383
3163.00,0.0381
3162.00,0.0379
3161.00,0.0377
3160.00,0.0375
3159.00,0.0374
3158.00,0.0372
3157.00,0.0370
3156.00,0.0368
3155.00,0.0367
3154.00,0.0365
3153.00,0.0364
3152.00,0.0362
3151.00,0.0361
3150.00,0.0359
3149.00,0.0358
3148.00,0.0356
3147.00,0.0354
3146.00,0.0353
3145.00,0.0351
3144.00,0.0349
3143.00,0.0348
3142.00,0.0346
3141.00,0.0345
3140.00,0.0344
3139.00,0.0343
3138.00,0.0342
3137.00,0.0341
3136.00,0.0340
3135.00,0.0338
3134.00,0.0337
3133.00,0.0336
3132.00,0.0335
3131.00,0.0333
3130.00,0.0332
3129.00,0.0331
3128.00,0.0330
3127.00,0.0328
3126.00,0.0327
3125.00,0.0325
3124.00,0.0323
3123.00,0.0322
3122.00,0.0320
3121.00,0.0318
3120.00,0.0316
3119.00,0.0314
3118.00,0.0313
3117.00,0.0311
3116.00,0.0309
3115.00,0.0307
3114.00,0.0305
3113.00,0.0303
3112.00,0.0301
3111.00,0.0300
3110.00,0.0298
3109.00,0.0296
3108.00,0.0294
3107.00,0.0291
3106.00,0.0289
3105.00,0.0287
3104.00,0.0285
3103.00,0.0284
3102.00,0.0282
3101.00,0.0281
3100.00,0.0279
3099.00,0.0277
3098.00,0.0275
3097.00,0.0273
3096.00,0.0271
3095.00,0.0269
3094.00,0.0267
3093.00,0.0266
3092.00,0.0264
3091.00,0.0262
3090.00,0.0261
3089.00,0.0259
3088.00,0.0258
3087.00,0.0256
3086.00,0.0254
3085.00,0.0253
3084.00,0.0251
3083.00,0.0250
3082.00,0.0248
3081.00,0.0247
3080.00,0.0246
3079.00,0.0245
3078.00,0.0243
3077.00,0.0242
3076.00,0.0241
3075.00,0.0240
3074.00,0.0239
3073.00,0.0238
3072.00,0.0237
3071.00,0.0236
3070.00,0.0235
3069.00,0.0234
3068.00,0.0233
3067.00,0.0232
3066.00,0.0231
3065.00,0.0230
3064.00,0.0230
3063.00,0.0229
3062.00,0.0229
3061.00,0.0228
3060.00,0.0228
3059.00,0.0228
3058.00,0.0227
3057.00,0.0227
3056.00,0.0226
3055.00,0.0226
3054.00,0.0225
3053.00,0.0224
3052.00,0.0224
3051.00,0.0223
3050.00,0.0222
3049.00,0.0221
3048.00,0.0220
3047.00,0.0219
3046.00,0.0218
3045.00,0.0217
3044.00,0.0216
3043.00,0.0215
3042.00,0.0215
3041.00,0.0214
3040.00,0.0214
3039.00,0.0213
3038.00,0.0213
3037.00,0.0213
3036.00,0.0213
3035.00,0.0213
3034.00,0.0213
3033.00,0.0214
3032.00,0.0214
3031.00,0.0214
3030.00,0.0214
3029.00,0.0214
3028.00,0.0214
3027.00,0.0214
3026.00,0.0214
3025.00,0.0214
3024.00,0.0213
3023.00,0.0213
3022.00,0.0213
3021.00,0.0212
3020.00,0.0212
3019.00,0.0212
3018.00,0.0212
3017.00,0.0212
3016.00,0.0212
3015.00,0.0212
3014.00,0.0213
3013.00,0.0214
3012.00,0.0215
3011.00,0.0217
3010.00,0.0218
3009.00,0.0220
3008.00,0.0222
3007.00,0.0225
3006.00,0.0228
3005.00,0.0231
3004.00,0.0234
3003.00,0.0238
3002.00,0.0243
3001.00,0.0248
3000.00,0.0253
2999.00,0.0259
2998.00,0.0266
2997.00,0.0273
2996.00,0.0280
2995.00,0.0288
2994.00,0.0296
2993.00,0.0304
2992.00,0.0313
2991.00,0.0322
2990.00,0.0331
2989.00,0.0340
2988.00,0.0348
2987.00,0.0357
2986.00,0.0365
2985.00,0.0372
2984.00,0.0378
2983.00,0.0384
2982.00,0.0391
2981.00,0.0398
2980.00,0.0406
2979.00,0.0415
2978.00,0.0424
2977.00,0.0433
2976.00,0.0443
2975.00,0.0452
2974.00,0.0462
2973.00,0.0472
2972.00,0.0482
2971.00,0.0494
2970.00,0.0507
2969.00,0.0520
2968.00,0.0534
2967.00,0.0548
2966.00,0.0562
2965.00,0.0575
2964.00,0.0588
2963.00,0.0600
2962.00,0.0610
2961.00,0.0620
2960.00,0.0628
2959.00,0.0634
2958.00,0.0639
2957.00,0.0642
2956.00,0.0643
2955.00,0.0643
2954.00,0.0641
2953.00,0.0637
2952.00,0.0632
2951.00,0.0626
2950.00,0.0620
2949.00,0.0615
2948.00,0.0610
2947.00,0.0607
2946.00,0.0607
2945.00,0.0608
2944.00,0.0612
2943.00,0.0619
2942.00,0.0628
2941.00,0.0640
2940.00,0.0654
2939.00,0.0670
2938.00,0.0687
2937.00,0.0706
2936.00,0.0726
2935.00,0.0747
2934.00,0.0767
2933.00,0.0786
2932.00,0.0805
2931.00,0.0822
2930.00,0.0837
2929.00,0.0851
2928.00,0.0862
2927.00,0.0872
2926.00,0.0879
2925.00,0.0885
2924.00,0.0888
2923.00,0.0890
2922.00,0.0890
2921.00,0.0888
2920.00,0.0885
2919.00,0.0880
2918.00,0.0874
2917.00,0.0867
2916.00,0.0857
2915.00,0.0845
2914.00,0.0832
2913.00,0.0818
2912.00,0.0803
2911.00,0.0787
2910.00,0.0771
2909.00,0.0755
2908.00,0.0739
2907.00,0.0724
2906.00,0.0710
2905.00,0.0696
2904.00,0.0682
2903.00,0.0670
2902.00,0.0659
2901.00,0.0649
2900.00,0.0639
2899.00,0.0631
2898.00,0.0623
2897.00,0.0616
2896.00,0.0609
2895.00,0.0603
2894.00,0.0597
2893.00,0.0591
2892.00,0.0585
2891.00,0.0579
2890.00,0.0573
2889.00,0.0567
2888.00,0.0561
2887.00,0.0556
2886.00,0.0551
2885.00,0.0546
2884.00,0.0542
2883.00,0.0539
2882.00,0.0537
2881.00,0.0536
2880.00,0.0536
2879.00,0.0537
2878.00,0.0539
2877.00,0.0541
2876.00,0.0544
2875.00,0.0548
2874.00,0.0552
2873.00,0.0556
2872.00,0.0559
2871.00,0.0562
2870.00,0.0562
2869.00,0.0561
2868.00,0.0560
2867.00,0.0560
2866.00,0.0560
2865.00,0.0563
2864.00,0.0567
2863.00,0.0574
2862.00,0.0582
2861.00,0.0591
2860.00,0.0601
2859.00,0.0610
2858.00,0.0618
2857.00,0.0623
2856.00,0.0624
2855.00,0.0622
2854.00,0.0616
2853.00,0.0607
2852.00,0.0595
2851.00,0.0581
2850.00,0.0565
2849.00,0.0548
2848.00,0.0529
2847.00,0.0510
2846.00,0.0490
2845.00,0.0471
2844.00,0.0452
2843.00,0.0434
2842.00,0.0417
2841.00,0.0400
2840.00,0.0384
2839.00,0.0370
2838.00,0.0357
2837.00,0.0345
2836.00,0.0334
2835.00,0.0324
2834.00,0.0315
2833.00,0.0306
2832.00,0.0297
2831.00,0.0289
2830.00,0.0280
2829.00,0.0272
2828.00,0.0264
2827.00,0.0256
2826.00,0.0249
2825.00,0.0241
2824.00,0.0233
2823.00,0.0226
2822.00,0.0219
2821.00,0.0212
2820.00,0.0206
2819.00,0.0200
2818.00,0.0195
2817.00,0.0190
2816.00,0.0185
2815.00,0.0181
2814.00,0.0177
2813.00,0.0174
2812.00,0.0171
2811.00,0.0168
2810.00,0.0165
2809.00,0.0162
2808.00,0.0160
2807.00,0.0158
2806.00,0.0156
2805.00,0.0154
2804.00,0.0152
2803.00,0.0151
2802.00,0.0149
2801.00,0.0148
2800.00,0.0146
2799.00,0.0144
2798.00,0.0143
2797.00,0.0141
2796.00,0.0140
2795.00,0.0139
2794.00,0.0138
2793.00,0.0137
2792.00,0.0136
2791.00,0.0135
2790.00,0.0134
2789.00,0.0133
2788.00,0.0132
2787.00,0.0132
2786.00,0.0132
2785.00,0.0131
2784.00,0.0131
2783.00,0.0130
2782.00,0.0129
2781.00,0.0129
2780.00,0.0128
2779.00,0.0127
2778.00,0.0127
2777.00,0.0126
2776.00,0.0125
2775.00,0.0125
2774.00,0.0124
2773.00,0.0124
2772.00,0.0123
2771.00,0.0123
2770.00,0.0123
2769.00,0.0123
2768.00,0.0122
2767.00,0.0122
2766.00,0.0122
2765.00,0.0122
2764.00,0.0121
2763.00,0.0121
2762.00,0.0121
2761.00,0.0121
2760.00,0.0121
2759.00,0.0121
2758.00,0.0121
2757.00,0.0121
