Created as New Dataset,Sample 240 By YargerLab Date Sunday, October 05 2025
cm-1,A
4000.00,0.0025
3999.00,0.0025
3998.00,0.0025
3997.00,0.0025
3996.00,0.0025
3995.00,0.0025
3994.00,0.0025
3993.00,0.0025
3992.00,0.0025
3991.00,0.0025
3990.00,0.0025
3989.00,0.0025
3988.00,0.0025
3987.00,0.0025
3986.00,0.0025
3985.00,0.0025
3984.00,0.0025
3983.00,0.0025
3982.00,0.0024
3981.00,0.0024
3980.00,0.0024
3979.00,0.0024
3978.00,0.0024
3977.00,0.0024
3976.00,0.0024
3975.00,0.0024
3974.00,0.0024
3973.00,0.0024
3972.00,0.0024
3971.00,0.0024
3970.00,0.0024
3969.00,0.0024
3968.00,0.0024
3967.00,0.0024
3966.00,0.0024
3965.00,0.0024
3964.00,0.0024
3963.00,0.0024
3962.00,0.0024
3961.00,0.0024
3960.00,0.0024
3959.00,0.0024
3958.00,0.0024
3957.00,0.0024
3956.00,0.0024
3955.00,0.0024
3954.00,0.0024
3953.00,0.0024
3952.00,0.0024
3951.00,0.0024
3950.00,0.0024
3949.00,0.0024
3948.00,0.0024
3947.00,0.0024
3946.00,0.0024
3945.00,0.0024
3944.00,0.0024
3943.00,0.0024
3942.00,0.0024
3941.00,0.0024
3940.00,0.0024
3939.00,0.0024
3938.00,0.0024
3937.00,0.0024
3936.00,0.0024
3935.00,0.0024
3934.00,0.0024
3933.00,0.0024
3932.00,0.0024
3931.00,0.0024
3930.00,0.0024
3929.00,0.0024
3928.00,0.0024
3927.00,0.0024
3926.00,0.0024
3925.00,0.0024
3924.00,0.0024
3923.00,0.0024
3922.00,0.0024
3921.00,0.0024
3920.00,0.0024
3919.00,0.0024
3918.00,0.0024
3917.00,0.0024
3916.00,0.0024
3915.00,0.0023
3914.00,0.0023
3913.00,0.0023
3912.00,0.0023
3911.00,0.0023
3910.00,0.0023
3909.00,0.0023
3908.00,0.0024
3907.00,0.0024
3906.00,0.0024
3905.00,0.0025
3904.00,0.0025
3903.00,0.0025
3902.00,0.0025
3901.00,0.0025
3900.00,0.0025
3899.00,0.0024
3898.00,0.0024
3897.00,0.0024
3896.00,0.0024
3895.00,0.0024
3894.00,0.0024
3893.00,0.0024
3892.00,0.0024
3891.00,0.0024
3890.00,0.0024
3889.00,0.0025
3888.00,0.0024
3887.00,0.0024
3886.00,0.0024
3885.00,0.0024
3884.00,0.0024
3883.00,0.0024
3882.00,0.0024
3881.00,0.0024
3880.00,0.0024
3879.00,0.0024
3878.00,0.0024
3877.00,0.0024
3876.00,0.0024
3875.00,0.0024
3874.00,0.0024
3873.00,0.0024
3872.00,0.0024
3871.00,0.0024
3870.00,0.0024
3869.00,0.0024
3868.00,0.0025
3867.00,0.0025
3866.00,0.0025
3865.00,0.0025
3864.00,0.0025
3863.00,0.0025
3862.00,0.0025
3861.00,0.0024
3860.00,0.0024
3859.00,0.0024
3858.00,0.0024
3857.00,0.0025
3856.00,0.0025
3855.00,0.0026
3854.00,0.0025
3853.00,0.0025
3852.00,0.0025
3851.00,0.0025
3850.00,0.0025
3849.00,0.0024
3848.00,0.0023
3847.00,0.0023
3846.00,0.0023
3845.00,0.0023
3844.00,0.0024
3843.00,0.0024
3842.00,0.0025
3841.00,0.0025
3840.00,0.0025
3839.00,0.0026
3838.00,0.0026
3837.00,0.0026
3836.00,0.0026
3835.00,0.0025
3834.00,0.0025
3833.00,0.0025
3832.00,0.0024
3831.00,0.0024
3830.00,0.0024
3829.00,0.0024
3828.00,0.0024
3827.00,0.0024
3826.00,0.0024
3825.00,0.0024
3824.00,0.0024
3823.00,0.0024
3822.00,0.0024
3821.00,0.0024
3820.00,0.0025
3819.00,0.0025
3818.00,0.0026
3817.00,0.0025
3816.00,0.0024
3815.00,0.0024
3814.00,0.0024
3813.00,0.0024
3812.00,0.0024
3811.00,0.0024
3810.00,0.0024
3809.00,0.0024
3808.00,0.0024
3807.00,0.0024
3806.00,0.0024
3805.00,0.0025
3804.00,0.0025
3803.00,0.0025
3802.00,0.0024
3801.00,0.0024
3800.00,0.0024
3799.00,0.0024
3798.00,0.0024
3797.00,0.0023
3796.00,0.0023
3795.00,0.0023
3794.00,0.0023
3793.00,0.0023
3792.00,0.0022
3791.00,0.0022
3790.00,0.0022
3789.00,0.0022
3788.00,0.0022
3787.00,0.0022
3786.00,0.0022
3785.00,0.0022
3784.00,0.0023
3783.00,0.0023
3782.00,0.0023
3781.00,0.0023
3780.00,0.0023
3779.00,0.0022
3778.00,0.0022
3777.00,0.0022
3776.00,0.0022
3775.00,0.0022
3774.00,0.0022
3773.00,0.0022
3772.00,0.0022
3771.00,0.0022
3770.00,0.0022
3769.00,0.0022
3768.00,0.0022
3767.00,0.0023
3766.00,0.0023
3765.00,0.0023
3764.00,0.0023
3763.00,0.0023
3762.00,0.0023
3761.00,0.0023
3760.00,0.0023
3759.00,0.0023
3758.00,0.0023
3757.00,0.0023
3756.00,0.0023
3755.00,0.0024
3754.00,0.0024
3753.00,0.0024
3752.00,0.0024
3751.00,0.0024
3750.00,0.0024
3749.00,0.0024
3748.00,0.0024
3747.00,0.0025
3746.00,0.0024
3745.00,0.0024
3744.00,0.0023
3743.00,0.0023
3742.00,0.0023
3741.00,0.0023
3740.00,0.0023
3739.00,0.0022
3738.00,0.0023
3737.00,0.0023
3736.00,0.0023
3735.00,0.0023
3734.00,0.0023
3733.00,0.0023
3732.00,0.0022
3731.00,0.0022
3730.00,0.0022
3729.00,0.0022
3728.00,0.0022
3727.00,0.0021
3726.00,0.0021
3725.00,0.0021
3724.00,0.0021
3723.00,0.0021
3722.00,0.0020
3721.00,0.0020
3720.00,0.0020
3719.00,0.0021
3718.00,0.0021
3717.00,0.0021
3716.00,0.0021
3715.00,0.0021
3714.00,0.0021
3713.00,0.0021
3712.00,0.0021
3711.00,0.0022
3710.00,0.0022
3709.00,0.0022
3708.00,0.0022
3707.00,0.0022
3706.00,0.0022
3705.00,0.0021
3704.00,0.0021
3703.00,0.0020
3702.00,0.0020
3701.00,0.0020
3700.00,0.0020
3699.00,0.0020
3698.00,0.0020
3697.00,0.0020
3696.00,0.0020
3695.00,0.0020
3694.00,0.0021
3693.00,0.0021
3692.00,0.0022
3691.00,0.0022
3690.00,0.0022
3689.00,0.0022
3688.00,0.0022
3687.00,0.0022
3686.00,0.0022
3685.00,0.0022
3684.00,0.0022
3683.00,0.0022
3682.00,0.0022
3681.00,0.0022
3680.00,0.0022
3679.00,0.0023
3678.00,0.0024
3677.00,0.0024
3676.00,0.0024
3675.00,0.0024
3674.00,0.0025
3673.00,0.0025
3672.00,0.0024
3671.00,0.0023
3670.00,0.0023
3669.00,0.0023
3668.00,0.0023
3667.00,0.0023
3666.00,0.0023
3665.00,0.0022
3664.00,0.0022
3663.00,0.0022
3662.00,0.0022
3661.00,0.0022
3660.00,0.0022
3659.00,0.0023
3658.00,0.0023
3657.00,0.0023
3656.00,0.0024
3655.00,0.0024
3654.00,0.0024
3653.00,0.0024
3652.00,0.0025
3651.00,0.0025
3650.00,0.0025
3649.00,0.0025
3648.00,0.0025
3647.00,0.0025
3646.00,0.0025
3645.00,0.0025
3644.00,0.0025
3643.00,0.0025
3642.00,0.0025
3641.00,0.0025
3640.00,0.0025
3639.00,0.0025
3638.00,0.0025
3637.00,0.0025
3636.00,0.0025
3635.00,0.0025
3634.00,0.0026
3633.00,0.0027
3632.00,0.0027
3631.00,0.0028
3630.00,0.0028
3629.00,0.0028
3628.00,0.0029
3627.00,0.0029
3626.00,0.0030
3625.00,0.0030
3624.00,0.0030
3623.00,0.0030
3622.00,0.0030
3621.00,0.0031
3620.00,0.0031
3619.00,0.0031
3618.00,0.0031
3617.00,0.0032
3616.00,0.0032
3615.00,0.0032
3614.00,0.0032
3613.00,0.0033
3612.00,0.0033
3611.00,0.0034
3610.00,0.0034
3609.00,0.0034
3608.00,0.0034
3607.00,0.0034
3606.00,0.0034
3605.00,0.0034
3604.00,0.0034
3603.00,0.0034
3602.00,0.0034
3601.00,0.0034
3600.00,0.0035
3599.00,0.0035
3598.00,0.0035
3597.00,0.0036
3596.00,0.0036
3595.00,0.0037
3594.00,0.0037
3593.00,0.0038
3592.00,0.0038
3591.00,0.0039
3590.00,0.0039
3589.00,0.0039
3588.00,0.0040
3587.00,0.0040
3586.00,0.0041
3585.00,0.0041
3584.00,0.0041
3583.00,0.0042
3582.00,0.0042
3581.00,0.0042
3580.00,0.0043
3579.00,0.0043
3578.00,0.0043
3577.00,0.0044
3576.00,0.0044
3575.00,0.0044
3574.00,0.0045
3573.00,0.0046
3572.00,0.0046
3571.00,0.0047
3570.00,0.0048
3569.00,0.0049
3568.00,0.0049
3567.00,0.0049
3566.00,0.0050
3565.00,0.0050
3564.00,0.0051
3563.00,0.0051
3562.00,0.0052
3561.00,0.0052
3560.00,0.0053
3559.00,0.0053
3558.00,0.0054
3557.00,0.0054
3556.00,0.0055
3555.00,0.0055
3554.00,0.0056
3553.00,0.0056
3552.00,0.0057
3551.00,0.0057
3550.00,0.0058
3549.00,0.0059
3548.00,0.0060
3547.00,0.0060
3546.00,0.0061
3545.00,0.0061
3544.00,0.0062
3543.00,0.0062
3542.00,0.0063
3541.00,0.0064
3540.00,0.0064
3539.00,0.0065
3538.00,0.0066
3537.00,0.0067
3536.00,0.0067
3535.00,0.0068
3534.00,0.0069
3533.00,0.0070
3532.00,0.0071
3531.00,0.0072
3530.00,0.0072
3529.00,0.0073
3528.00,0.0074
3527.00,0.0074
3526.00,0.0075
3525.00,0.0076
3524.00,0.0077
3523.00,0.0077
3522.00,0.0078
3521.00,0.0079
3520.00,0.0080
3519.00,0.0080
3518.00,0.0081
3517.00,0.0082
3516.00,0.0083
3515.00,0.0084
3514.00,0.0086
3513.00,0.0087
3512.00,0.0088
3511.00,0.0089
3510.00,0.0090
3509.00,0.0091
3508.00,0.0092
3507.00,0.0093
3506.00,0.0094
3505.00,0.0094
3504.00,0.0095
3503.00,0.0097
3502.00,0.0098
3501.00,0.0099
3500.00,0.0100
3499.00,0.0101
3498.00,0.0101
3497.00,0.0102
3496.00,0.0103
3495.00,0.0104
3494.00,0.0105
3493.00,0.0106
3492.00,0.0107
3491.00,0.0109
3490.00,0.0110
3489.00,0.0111
3488.00,0.0112
3487.00,0.0113
3486.00,0.0114
3485.00,0.0115
3484.00,0.0117
3483.00,0.0118
3482.00,0.0119
3481.00,0.0120
3480.00,0.0121
3479.00,0.0122
3478.00,0.0123
3477.00,0.0124
3476.00,0.0126
3475.00,0.0127
3474.00,0.0128
3473.00,0.0129
3472.00,0.0131
3471.00,0.0132
3470.00,0.0133
3469.00,0.0134
3468.00,0.0135
3467.00,0.0136
3466.00,0.0138
3465.00,0.0139
3464.00,0.0140
3463.00,0.0142
3462.00,0.0143
3461.00,0.0144
3460.00,0.0146
3459.00,0.0147
3458.00,0.0149
3457.00,0.0150
3456.00,0.0151
3455.00,0.0152
3454.00,0.0154
3453.00,0.0155
3452.00,0.0156
3451.00,0.0158
3450.00,0.0159
3449.00,0.0161
3448.00,0.0162
3447.00,0.0163
3446.00,0.0165
3445.00,0.0166
3444.00,0.0168
3443.00,0.0169
3442.00,0.0170
3441.00,0.0172
3440.00,0.0173
3439.00,0.0175
3438.00,0.0177
3437.00,0.0178
3436.00,0.0180
3435.00,0.0181
3434.00,0.0183
3433.00,0.0184
3432.00,0.0186
3431.00,0.0187
3430.00,0.0189
3429.00,0.0191
3428.00,0.0192
3427.00,0.0194
3426.00,0.0195
3425.00,0.0197
3424.00,0.0198
3423.00,0.0200
3422.00,0.0202
3421.00,0.0204
3420.00,0.0206
3419.00,0.0208
3418.00,0.0210
3417.00,0.0211
3416.00,0.0213
3415.00,0.0215
3414.00,0.0217
3413.00,0.0219
3412.00,0.0220
3411.00,0.0222
3410.00,0.0224
3409.00,0.0226
3408.00,0.0228
3407.00,0.0230
3406.00,0.0232
3405.00,0.0234
3404.00,0.0236
3403.00,0.0238
3402.00,0.0240
3401.00,0.0242
3400.00,0.0244
3399.00,0.0246
3398.00,0.0248
3397.00,0.0250
3396.00,0.0253
3395.00,0.0255
3394.00,0.0257
3393.00,0.0259
3392.00,0.0261
3391.00,0.0263
3390.00,0.0265
3389.00,0.0268
3388.00,0.0270
3387.00,0.0273
3386.00,0.0275
3385.00,0.0278
3384.00,0.0280
3383.00,0.0282
3382.00,0.0284
3381.00,0.0286
3380.00,0.0288
3379.00,0.0290
3378.00,0.0293
3377.00,0.0295
3376.00,0.0297
3375.00,0.0300
3374.00,0.0302
3373.00,0.0303
3372.00,0.0305
3371.00,0.0306
3370.00,0.0307
3369.00,0.0309
3368.00,0.0312
3367.00,0.0314
3366.00,0.0317
3365.00,0.0320
3364.00,0.0322
3363.00,0.0325
3362.00,0.0326
3361.00,0.0328
3360.00,0.0330
3359.00,0.0332
3358.00,0.0335
3357.00,0.0337
3356.00,0.0339
3355.00,0.0341
3354.00,0.0343
3353.00,0.0344
3352.00,0.0345
3351.00,0.0347
3350.00,0.0349
3349.00,0.0351
3348.00,0.0353
3347.00,0.0355
3346.00,0.0357
3345.00,0.0359
3344.00,0.0360
3343.00,0.0361
3342.00,0.0363
3341.00,0.0364
3340.00,0.0365
3339.00,0.0367
3338.00,0.0369
3337.00,0.0371
3336.00,0.0373
3335.00,0.0375
3334.00,0.0377
3333.00,0.0379
3332.00,0.0381
3331.00,0.0383
3330.00,0.0384
3329.00,0.0385
3328.00,0.0386
3327.00,0.0386
3326.00,0.0387
3325.00,0.0389
3324.00,0.0391
3323.00,0.0393
3322.00,0.0395
3321.00,0.0397
3320.00,0.0398
3319.00,0.0400
3318.00,0.0401
3317.00,0.0403
3316.00,0.0404
3315.00,0.0405
3314.00,0.0406
3313.00,0.0406
3312.00,0.0407
3311.00,0.0407
3310.00,0.0407
3309.00,0.0406
3308.00,0.0406
3307.00,0.0407
3306.00,0.0408
3305.00,0.0410
3304.00,0.0413
3303.00,0.0415
3302.00,0.0417
3301.00,0.0419
3300.00,0.0420
3299.00,0.0420
3298.00,0.0420
3297.00,0.0420
3296.00,0.0420
3295.00,0.0420
3294.00,0.0420
3293.00,0.0420
3292.00,0.0421
3291.00,0.0423
3290.00,0.0424
3289.00,0.0426
3288.00,0.0427
3287.00,0.0427
3286.00,0.0428
3285.00,0.0428
3284.00,0.0428
3283.00,0.0428
3282.00,0.0429
3281.00,0.0429
3280.00,0.0429
3279.00,0.0430
3278.00,0.0430
3277.00,0.0430
3276.00,0.0430
3275.00,0.0429
3274.00,0.0429
3273.00,0.0429
3272.00,0.0429
3271.00,0.0429
3270.00,0.0429
3269.00,0.0430
3268.00,0.0431
3267.00,0.0431
3266.00,0.0431
3265.00,0.0431
3264.00,0.0431
3263.00,0.0431
3262.00,0.0431
3261.00,0.0431
3260.00,0.0431
3259.00,0.0431
3258.00,0.0431
3257.00,0.0431
3256.00,0.0431
3255.00,0.0431
3254.00,0.0431
3253.00,0.0431
3252.00,0.0431
3251.00,0.0431
3250.00,0.0430
3249.00,0.0430
3248.00,0.0430
3247.00,0.0429
3246.00,0.0429
3245.00,0.0429
3244.00,0.0429
3243.00,0.0429
3242.00,0.0429
3241.00,0.0429
3240.00,0.0429
3239.00,0.0429
3238.00,0.0428
3237.00,0.0427
3236.00,0.0427
3235.00,0.0426
3234.00,0.0425
3233.00,0.0424
3232.00,0.0424
3231.00,0.0424
3230.00,0.0423
3229.00,0.0423
3228.00,0.0423
3227.00,0.0422
3226.00,0.0422
3225.00,0.0421
3224.00,0.0421
3223.00,0.0420
3222.00,0.0420
3221.00,0.0419
3220.00,0.0419
3219.00,0.0419
3218.00,0.0418
3217.00,0.0418
3216.00,0.0418
3215.00,0.0418
3214.00,0.0418
3213.00,0.0418
3212.00,0.0418
3211.00,0.0418
3210.00,0.0418
3209.00,0.0417
3208.00,0.0417
3207.00,0.0417
3206.00,0.0416
3205.00,0.0416
3204.00,0.0415
3203.00,0.0415
3202.00,0.0414
3201.00,0.0414
3200.00,0.0413
3199.00,0.0412
3198.00,0.0411
3197.00,0.0411
3196.00,0.0410
3195.00,0.0409
3194.00,0.0408
3193.00,0.0407
3192.00,0.0406
3191.00,0.0405
3190.00,0.0403
3189.00,0.0402
3188.00,0.0401
3187.00,0.0400
3186.00,0.0399
3185.00,0.0398
3184.00,0.0396
3183.00,0.0395
3182.00,0.0393
3181.00,0.0392
3180.00,0.0390
3179.00,0.0389
3178.00,0.0387
3177.00,0.0386
3176.00,0.0384
3175.00,0.0383
3174.00,0.0381
3173.00,0.0379
3172.00,0.0378
3171.00,0.0377
3170.00,0.0375
3169.00,0.0374
3168.00,0.0372
3167.00,0.0371
3166.00,0.0369
3165.00,0.0367
3164.00,0.0365
3163.00,0.0363
3162.00,0.0361
3161.00,0.0359
3160.00,0.0358
3159.00,0.0356
3158.00,0.0355
3157.00,0.0353
3156.00,0.0352
3155.00,0.0350
3154.00,0.0348
3153.00,0.0346
3152.00,0.0344
3151.00,0.0343
3150.00,0.0341
3149.00,0.0339
3148.00,0.0338
3147.00,0.0336
3146.00,0.0334
3145.00,0.0333
3144.00,0.0331
3143.00,0.0330
3142.00,0.0329
3141.00,0.0328
3140.00,0.0327
3139.00,0.0325
3138.00,0.0324
3137.00,0.0323
3136.00,0.0322
3135.00,0.0321
3134.00,0.0319
3133.00,0.0318
3132.00,0.0317
3131.00,0.0316
3130.00,0.0314
3129.00,0.0313
3128.00,0.0311
3127.00,0.0310
3126.00,0.0308
3125.00,0.0307
3124.00,0.0305
3123.00,0.0304
3122.00,0.0302
3121.00,0.0301
3120.00,0.0299
3119.00,0.0298
3118.00,0.0296
3117.00,0.0294
3116.00,0.0292
3115.00,0.0290
3114.00,0.0288
3113.00,0.0286
3112.00,0.0284
3111.00,0.0282
3110.00,0.0281
3109.00,0.0279
3108.00,0.0277
3107.00,0.0275
3106.00,0.0273
3105.00,0.0272
3104.00,0.0270
3103.00,0.0268
3102.00,0.0266
3101.00,0.0264
3100.00,0.0262
3099.00,0.0260
3098.00,0.0259
3097.00,0.0257
3096.00,0.0255
3095.00,0.0254
3094.00,0.0252
3093.00,0.0250
3092.00,0.0248
3091.00,0.0247
3090.00,0.0245
3089.00,0.0244
3088.00,0.0243
3087.00,0.0241
3086.00,0.0240
3085.00,0.0239
3084.00,0.0237
3083.00,0.0236
3082.00,0.0234
3081.00,0.0233
3080.00,0.0231
3079.00,0.0230
3078.00,0.0229
3077.00,0.0228
3076.00,0.0227
3075.00,0.0226
3074.00,0.0224
3073.00,0.0223
3072.00,0.0222
3071.00,0.0221
3070.00,0.0220
3069.00,0.0219
3068.00,0.0219
3067.00,0.0218
3066.00,0.0217
3065.00,0.0216
3064.00,0.0215
3063.00,0.0215
3062.00,0.0214
3061.00,0.0214
3060.00,0.0213
3059.00,0.0213
3058.00,0.0212
3057.00,0.0212
3056.00,0.0211
3055.00,0.0211
3054.00,0.0210
3053.00,0.0209
3052.00,0.0209
3051.00,0.0208
3050.00,0.0207
3049.00,0.0207
3048.00,0.0206
3047.00,0.0205
3046.00,0.0204
3045.00,0.0203
3044.00,0.0202
3043.00,0.0201
3042.00,0.0200
3041.00,0.0200
3040.00,0.0199
3039.00,0.0199
3038.00,0.0199
3037.00,0.0198
3036.00,0.0198
3035.00,0.0198
3034.00,0.0198
3033.00,0.0198
3032.00,0.0199
3031.00,0.0199
3030.00,0.0199
3029.00,0.0199
3028.00,0.0199
3027.00,0.0199
3026.00,0.0199
3025.00,0.0198
3024.00,0.0198
3023.00,0.0197
3022.00,0.0197
3021.00,0.0197
3020.00,0.0196
3019.00,0.0196
3018.00,0.0196
3017.00,0.0196
3016.00,0.0197
3015.00,0.0197
3014.00,0.0198
3013.00,0.0199
3012.00,0.0200
3011.00,0.0202
3010.00,0.0203
3009.00,0.0205
3008.00,0.0208
3007.00,0.0210
3006.00,0.0213
3005.00,0.0216
3004.00,0.0220
3003.00,0.0224
3002.00,0.0228
3001.00,0.0233
3000.00,0.0238
2999.00,0.0244
2998.00,0.0250
2997.00,0.0257
2996.00,0.0265
2995.00,0.0272
2994.00,0.0280
2993.00,0.0289
2992.00,0.0298
2991.00,0.0307
2990.00,0.0316
2989.00,0.0326
2988.00,0.0335
2987.00,0.0344
2986.00,0.0353
2985.00,0.0362
2984.00,0.0370
2983.00,0.0378
2982.00,0.0386
2981.00,0.0395
2980.00,0.0405
2979.00,0.0415
2978.00,0.0426
2977.00,0.0436
2976.00,0.0447
2975.00,0.0458
2974.00,0.0469
2973.00,0.0481
2972.00,0.0493
2971.00,0.0506
2970.00,0.0519
2969.00,0.0532
2968.00,0.0545
2967.00,0.0557
2966.00,0.0569
2965.00,0.0579
2964.00,0.0589
2963.00,0.0598
2962.00,0.0606
2961.00,0.0612
2960.00,0.0617
2959.00,0.0621
2958.00,0.0623
2957.00,0.0623
2956.00,0.0622
2955.00,0.0620
2954.00,0.0616
2953.00,0.0611
2952.00,0.0604
2951.00,0.0597
2950.00,0.0590
2949.00,0.0584
2948.00,0.0579
2947.00,0.0575
2946.00,0.0574
2945.00,0.0575
2944.00,0.0578
2943.00,0.0585
2942.00,0.0593
2941.00,0.0605
2940.00,0.0618
2939.00,0.0633
2938.00,0.0650
2937.00,0.0668
2936.00,0.0687
2935.00,0.0706
2934.00,0.0725
2933.00,0.0744
2932.00,0.0761
2931.00,0.0777
2930.00,0.0791
2929.00,0.0804
2928.00,0.0815
2927.00,0.0823
2926.00,0.0829
2925.00,0.0833
2924.00,0.0835
2923.00,0.0835
2922.00,0.0833
2921.00,0.0831
2920.00,0.0826
2919.00,0.0820
2918.00,0.0813
2917.00,0.0805
2916.00,0.0796
2915.00,0.0785
2914.00,0.0773
2913.00,0.0760
2912.00,0.0746
2911.00,0.0731
2910.00,0.0717
2909.00,0.0702
2908.00,0.0687
2907.00,0.0673
2906.00,0.0660
2905.00,0.0647
2904.00,0.0635
2903.00,0.0624
2902.00,0.0614
2901.00,0.0604
2900.00,0.0596
2899.00,0.0588
2898.00,0.0581
2897.00,0.0575
2896.00,0.0569
2895.00,0.0563
2894.00,0.0558
2893.00,0.0552
2892.00,0.0547
2891.00,0.0542
2890.00,0.0536
2889.00,0.0531
2888.00,0.0526
2887.00,0.0522
2886.00,0.0517
2885.00,0.0513
2884.00,0.0510
2883.00,0.0507
2882.00,0.0505
2881.00,0.0504
2880.00,0.0503
2879.00,0.0504
2878.00,0.0506
2877.00,0.0508
2876.00,0.0511
2875.00,0.0514
2874.00,0.0518
2873.00,0.0521
2872.00,0.0524
2871.00,0.0525
2870.00,0.0525
2869.00,0.0524
2868.00,0.0523
2867.00,0.0522
2866.00,0.0522
2865.00,0.0525
2864.00,0.0529
2863.00,0.0535
2862.00,0.0543
2861.00,0.0551
2860.00,0.0560
2859.00,0.0568
2858.00,0.0574
2857.00,0.0577
2856.00,0.0578
2855.00,0.0575
2854.00,0.0568
2853.00,0.0559
2852.00,0.0547
2851.00,0.0532
2850.00,0.0516
2849.00,0.0499
2848.00,0.0481
2847.00,0.0463
2846.00,0.0446
2845.00,0.0429
2844.00,0.0412
2843.00,0.0396
2842.00,0.0380
2841.00,0.0365
2840.00,0.0350
2839.00,0.0338
2838.00,0.0326
2837.00,0.0316
2836.00,0.0306
2835.00,0.0297
2834.00,0.0288
2833.00,0.0280
2832.00,0.0273
2831.00,0.0266
2830.00,0.0258
2829.00,0.0251
2828.00,0.0244
2827.00,0.0238
2826.00,0.0231
2825.00,0.0224
2824.00,0.0218
2823.00,0.0211
2822.00,0.0204
2821.00,0.0198
2820.00,0.0192
2819.00,0.0187
2818.00,0.0182
2817.00,0.0177
2816.00,0.0173
2815.00,0.0169
2814.00,0.0165
2813.00,0.0162
2812.00,0.0159
2811.00,0.0156
2810.00,0.0153
2809.00,0.0151
2808.00,0.0149
2807.00,0.0147
2806.00,0.0145
2805.00,0.0143
2804.00,0.0141
2803.00,0.0139
2802.00,0.0137
2801.00,0.0136
2800.00,0.0134
2799.00,0.0133
2798.00,0.0131
2797.00,0.0130
2796.00,0.0129
2795.00,0.0128
2794.00,0.0127
2793.00,0.0125
2792.00,0.0124
2791.00,0.0123
2790.00,0.0122
2789.00,0.0122
2788.00,0.0121
2787.00,0.0121
2786.00,0.0120
2785.00,0.0119
2784.00,0.0118
2783.00,0.0118
2782.00,0.0117
2781.00,0.0117
2780.00,0.0116
2779.00,0.0115
2778.00,0.0114
2777.00,0.0114
2776.00,0.0113
2775.00,0.0112
2774.00,0.0112
2773.00,0.0112
2772.00,0.0111
2771.00,0.0111
2770.00,0.0110
2769.00,0.0110
2768.00,0.0109
2767.00,0.0109
2766.00,0.0109
2765.00,0.0109
2764.00,0.0109
2763.00,0.0109
2762.00,0.0108
2761.00,0.0108
2760.00,0.0108
2759.00,0.0108
2758.00,0.0108
2757.00,0.0108
