Created as New Dataset,Sample 233 By YargerLab Date Sunday, October 05 2025
cm-1,A
4000.00,0.0034
3999.00,0.0034
3998.00,0.0034
3997.00,0.0034
3996.00,0.0034
3995.00,0.0034
3994.00,0.0034
3993.00,0.0034
3992.00,0.0034
3991.00,0.0034
3990.00,0.0033
3989.00,0.0033
3988.00,0.0033
3987.00,0.0033
3986.00,0.0034
3985.00,0.0034
3984.00,0.0034
3983.00,0.0034
3982.00,0.0034
3981.00,0.0034
3980.00,0.0034
3979.00,0.0034
3978.00,0.0034
3977.00,0.0034
3976.00,0.0034
3975.00,0.0034
3974.00,0.0034
3973.00,0.0034
3972.00,0.0034
3971.00,0.0034
3970.00,0.0034
3969.00,0.0034
3968.00,0.0034
3967.00,0.0034
3966.00,0.0034
3965.00,0.0034
3964.00,0.0033
3963.00,0.0033
3962.00,0.0033
3961.00,0.0034
3960.00,0.0034
3959.00,0.0034
3958.00,0.0034
3957.00,0.0033
3956.00,0.0033
3955.00,0.0033
3954.00,0.0033
3953.00,0.0034
3952.00,0.0034
3951.00,0.0034
3950.00,0.0034
3949.00,0.0034
3948.00,0.0035
3947.00,0.0035
3946.00,0.0035
3945.00,0.0034
3944.00,0.0034
3943.00,0.0034
3942.00,0.0034
3941.00,0.0034
3940.00,0.0034
3939.00,0.0033
3938.00,0.0033
3937.00,0.0033
3936.00,0.0033
3935.00,0.0033
3934.00,0.0033
3933.00,0.0033
3932.00,0.0033
3931.00,0.0033
3930.00,0.0033
3929.00,0.0033
3928.00,0.0033
3927.00,0.0033
3926.00,0.0033
3925.00,0.0033
3924.00,0.0033
3923.00,0.0033
3922.00,0.0033
3921.00,0.0034
3920.00,0.0034
3919.00,0.0034
3918.00,0.0034
3917.00,0.0034
3916.00,0.0034
3915.00,0.0033
3914.00,0.0033
3913.00,0.0033
3912.00,0.0033
3911.00,0.0033
3910.00,0.0033
3909.00,0.0033
3908.00,0.0033
3907.00,0.0034
3906.00,0.0035
3905.00,0.0035
3904.00,0.0035
3903.00,0.0035
3902.00,0.0035
3901.00,0.0035
3900.00,0.0034
3899.00,0.0034
3898.00,0.0034
3897.00,0.0034
3896.00,0.0033
3895.00,0.0033
3894.00,0.0033
3893.00,0.0033
3892.00,0.0033
3891.00,0.0033
3890.00,0.0034
3889.00,0.0034
3888.00,0.0034
3887.00,0.0034
3886.00,0.0033
3885.00,0.0034
3884.00,0.0034
3883.00,0.0034
3882.00,0.0034
3881.00,0.0034
3880.00,0.0034
3879.00,0.0034
3878.00,0.0034
3877.00,0.0034
3876.00,0.0034
3875.00,0.0033
3874.00,0.0033
3873.00,0.0034
3872.00,0.0034
3871.00,0.0034
3870.00,0.0034
3869.00,0.0034
3868.00,0.0034
3867.00,0.0035
3866.00,0.0034
3865.00,0.0034
3864.00,0.0034
3863.00,0.0034
3862.00,0.0033
3861.00,0.0033
3860.00,0.0033
3859.00,0.0034
3858.00,0.0034
3857.00,0.0035
3856.00,0.0036
3855.00,0.0037
3854.00,0.0037
3853.00,0.0036
3852.00,0.0036
3851.00,0.0036
3850.00,0.0035
3849.00,0.0034
3848.00,0.0034
3847.00,0.0033
3846.00,0.0033
3845.00,0.0033
3844.00,0.0033
3843.00,0.0034
3842.00,0.0034
3841.00,0.0035
3840.00,0.0035
3839.00,0.0035
3838.00,0.0035
3837.00,0.0035
3836.00,0.0035
3835.00,0.0035
3834.00,0.0035
3833.00,0.0034
3832.00,0.0034
3831.00,0.0034
3830.00,0.0034
3829.00,0.0034
3828.00,0.0034
3827.00,0.0034
3826.00,0.0034
3825.00,0.0034
3824.00,0.0034
3823.00,0.0034
3822.00,0.0034
3821.00,0.0034
3820.00,0.0034
3819.00,0.0035
3818.00,0.0035
3817.00,0.0035
3816.00,0.0034
3815.00,0.0034
3814.00,0.0034
3813.00,0.0034
3812.00,0.0034
3811.00,0.0034
3810.00,0.0034
3809.00,0.0034
3808.00,0.0034
3807.00,0.0034
3806.00,0.0034
3805.00,0.0034
3804.00,0.0035
3803.00,0.0034
3802.00,0.0034
3801.00,0.0034
3800.00,0.0034
3799.00,0.0034
3798.00,0.0034
3797.00,0.0033
3796.00,0.0033
3795.00,0.0032
3794.00,0.0032
3793.00,0.0032
3792.00,0.0032
3791.00,0.0032
3790.00,0.0032
3789.00,0.0032
3788.00,0.0032
3787.00,0.0032
3786.00,0.0032
3785.00,0.0033
3784.00,0.0033
3783.00,0.0033
3782.00,0.0033
3781.00,0.0033
3780.00,0.0033
3779.00,0.0032
3778.00,0.0032
3777.00,0.0032
3776.00,0.0032
3775.00,0.0032
3774.00,0.0032
3773.00,0.0033
3772.00,0.0033
3771.00,0.0033
3770.00,0.0033
3769.00,0.0033
3768.00,0.0033
3767.00,0.0033
3766.00,0.0033
3765.00,0.0033
3764.00,0.0033
3763.00,0.0033
3762.00,0.0033
3761.00,0.0033
3760.00,0.0033
3759.00,0.0033
3758.00,0.0033
3757.00,0.0033
3756.00,0.0034
3755.00,0.0034
3754.00,0.0034
3753.00,0.0035
3752.00,0.0035
3751.00,0.0035
3750.00,0.0035
3749.00,0.0035
3748.00,0.0035
3747.00,0.0035
3746.00,0.0034
3745.00,0.0034
3744.00,0.0033
3743.00,0.0033
3742.00,0.0034
3741.00,0.0033
3740.00,0.0033
3739.00,0.0033
3738.00,0.0033
3737.00,0.0033
3736.00,0.0033
3735.00,0.0033
3734.00,0.0033
3733.00,0.0033
3732.00,0.0032
3731.00,0.0032
3730.00,0.0032
3729.00,0.0032
3728.00,0.0032
3727.00,0.0032
3726.00,0.0032
3725.00,0.0032
3724.00,0.0033
3723.00,0.0032
3722.00,0.0032
3721.00,0.0031
3720.00,0.0031
3719.00,0.0031
3718.00,0.0031
3717.00,0.0031
3716.00,0.0031
3715.00,0.0032
3714.00,0.0032
3713.00,0.0032
3712.00,0.0032
3711.00,0.0032
3710.00,0.0032
3709.00,0.0032
3708.00,0.0032
3707.00,0.0032
3706.00,0.0031
3705.00,0.0031
3704.00,0.0031
3703.00,0.0031
3702.00,0.0031
3701.00,0.0031
3700.00,0.0031
3699.00,0.0031
3698.00,0.0030
3697.00,0.0030
3696.00,0.0030
3695.00,0.0031
3694.00,0.0031
3693.00,0.0031
3692.00,0.0032
3691.00,0.0032
3690.00,0.0032
3689.00,0.0032
3688.00,0.0032
3687.00,0.0032
3686.00,0.0032
3685.00,0.0032
3684.00,0.0032
3683.00,0.0032
3682.00,0.0032
3681.00,0.0032
3680.00,0.0032
3679.00,0.0033
3678.00,0.0033
3677.00,0.0034
3676.00,0.0034
3675.00,0.0034
3674.00,0.0034
3673.00,0.0034
3672.00,0.0033
3671.00,0.0032
3670.00,0.0032
3669.00,0.0032
3668.00,0.0031
3667.00,0.0031
3666.00,0.0031
3665.00,0.0031
3664.00,0.0031
3663.00,0.0031
3662.00,0.0031
3661.00,0.0031
3660.00,0.0031
3659.00,0.0032
3658.00,0.0032
3657.00,0.0032
3656.00,0.0032
3655.00,0.0032
3654.00,0.0033
3653.00,0.0033
3652.00,0.0034
3651.00,0.0034
3650.00,0.0034
3649.00,0.0034
3648.00,0.0034
3647.00,0.0034
3646.00,0.0033
3645.00,0.0033
3644.00,0.0033
3643.00,0.0033
3642.00,0.0033
3641.00,0.0033
3640.00,0.0033
3639.00,0.0033
3638.00,0.0033
3637.00,0.0033
3636.00,0.0033
3635.00,0.0034
3634.00,0.0035
3633.00,0.0036
3632.00,0.0037
3631.00,0.0037
3630.00,0.0038
3629.00,0.0037
3628.00,0.0037
3627.00,0.0037
3626.00,0.0037
3625.00,0.0037
3624.00,0.0037
3623.00,0.0038
3622.00,0.0038
3621.00,0.0039
3620.00,0.0039
3619.00,0.0040
3618.00,0.0040
3617.00,0.0040
3616.00,0.0041
3615.00,0.0041
3614.00,0.0041
3613.00,0.0041
3612.00,0.0041
3611.00,0.0042
3610.00,0.0042
3609.00,0.0041
3608.00,0.0041
3607.00,0.0042
3606.00,0.0042
3605.00,0.0042
3604.00,0.0042
3603.00,0.0042
3602.00,0.0042
3601.00,0.0042
3600.00,0.0042
3599.00,0.0043
3598.00,0.0043
3597.00,0.0043
3596.00,0.0043
3595.00,0.0044
3594.00,0.0044
3593.00,0.0045
3592.00,0.0045
3591.00,0.0046
3590.00,0.0046
3589.00,0.0046
3588.00,0.0046
3587.00,0.0046
3586.00,0.0046
3585.00,0.0047
3584.00,0.0047
3583.00,0.0047
3582.00,0.0047
3581.00,0.0047
3580.00,0.0048
3579.00,0.0048
3578.00,0.0048
3577.00,0.0048
3576.00,0.0049
3575.00,0.0049
3574.00,0.0050
3573.00,0.0050
3572.00,0.0051
3571.00,0.0051
3570.00,0.0052
3569.00,0.0053
3568.00,0.0053
3567.00,0.0053
3566.00,0.0054
3565.00,0.0054
3564.00,0.0055
3563.00,0.0055
3562.00,0.0055
3561.00,0.0055
3560.00,0.0056
3559.00,0.0056
3558.00,0.0056
3557.00,0.0056
3556.00,0.0057
3555.00,0.0057
3554.00,0.0058
3553.00,0.0059
3552.00,0.0059
3551.00,0.0060
3550.00,0.0060
3549.00,0.0061
3548.00,0.0061
3547.00,0.0062
3546.00,0.0062
3545.00,0.0063
3544.00,0.0063
3543.00,0.0064
3542.00,0.0064
3541.00,0.0064
3540.00,0.0065
3539.00,0.0065
3538.00,0.0066
3537.00,0.0067
3536.00,0.0068
3535.00,0.0068
3534.00,0.0069
3533.00,0.0069
3532.00,0.0069
3531.00,0.0070
3530.00,0.0070
3529.00,0.0071
3528.00,0.0071
3527.00,0.0072
3526.00,0.0073
3525.00,0.0073
3524.00,0.0074
3523.00,0.0074
3522.00,0.0075
3521.00,0.0076
3520.00,0.0077
3519.00,0.0077
3518.00,0.0078
3517.00,0.0079
3516.00,0.0080
3515.00,0.0080
3514.00,0.0081
3513.00,0.0081
3512.00,0.0082
3511.00,0.0083
3510.00,0.0083
3509.00,0.0084
3508.00,0.0085
3507.00,0.0085
3506.00,0.0086
3505.00,0.0087
3504.00,0.0088
3503.00,0.0088
3502.00,0.0089
3501.00,0.0090
3500.00,0.0091
3499.00,0.0092
3498.00,0.0092
3497.00,0.0093
3496.00,0.0094
3495.00,0.0094
3494.00,0.0095
3493.00,0.0096
3492.00,0.0097
3491.00,0.0098
3490.00,0.0099
3489.00,0.0100
3488.00,0.0101
3487.00,0.0102
3486.00,0.0103
3485.00,0.0104
3484.00,0.0105
3483.00,0.0105
3482.00,0.0106
3481.00,0.0107
3480.00,0.0108
3479.00,0.0109
3478.00,0.0110
3477.00,0.0111
3476.00,0.0111
3475.00,0.0112
3474.00,0.0113
3473.00,0.0114
3472.00,0.0115
3471.00,0.0116
3470.00,0.0117
3469.00,0.0118
3468.00,0.0119
3467.00,0.0120
3466.00,0.0121
3465.00,0.0122
3464.00,0.0123
3463.00,0.0125
3462.00,0.0126
3461.00,0.0127
3460.00,0.0128
3459.00,0.0129
3458.00,0.0130
3457.00,0.0131
3456.00,0.0132
3455.00,0.0133
3454.00,0.0134
3453.00,0.0135
3452.00,0.0136
3451.00,0.0138
3450.00,0.0139
3449.00,0.0140
3448.00,0.0142
3447.00,0.0143
3446.00,0.0144
3445.00,0.0145
3444.00,0.0147
3443.00,0.0148
3442.00,0.0149
3441.00,0.0150
3440.00,0.0152
3439.00,0.0153
3438.00,0.0154
3437.00,0.0156
3436.00,0.0157
3435.00,0.0159
3434.00,0.0160
3433.00,0.0161
3432.00,0.0162
3431.00,0.0164
3430.00,0.0165
3429.00,0.0166
3428.00,0.0168
3427.00,0.0170
3426.00,0.0171
3425.00,0.0173
3424.00,0.0174
3423.00,0.0175
3422.00,0.0177
3421.00,0.0178
3420.00,0.0180
3419.00,0.0182
3418.00,0.0183
3417.00,0.0185
3416.00,0.0187
3415.00,0.0188
3414.00,0.0189
3413.00,0.0191
3412.00,0.0193
3411.00,0.0195
3410.00,0.0197
3409.00,0.0199
3408.00,0.0200
3407.00,0.0202
3406.00,0.0204
3405.00,0.0205
3404.00,0.0207
3403.00,0.0209
3402.00,0.0211
3401.00,0.0213
3400.00,0.0216
3399.00,0.0218
3398.00,0.0220
3397.00,0.0222
3396.00,0.0224
3395.00,0.0226
3394.00,0.0228
3393.00,0.0230
3392.00,0.0232
3391.00,0.0234
3390.00,0.0236
3389.00,0.0239
3388.00,0.0241
3387.00,0.0243
3386.00,0.0245
3385.00,0.0247
3384.00,0.0249
3383.00,0.0251
3382.00,0.0253
3381.00,0.0255
3380.00,0.0257
3379.00,0.0259
3378.00,0.0261
3377.00,0.0263
3376.00,0.0265
3375.00,0.0267
3374.00,0.0269
3373.00,0.0271
3372.00,0.0273
3371.00,0.0274
3370.00,0.0276
3369.00,0.0278
3368.00,0.0280
3367.00,0.0282
3366.00,0.0285
3365.00,0.0287
3364.00,0.0290
3363.00,0.0292
3362.00,0.0294
3361.00,0.0296
3360.00,0.0298
3359.00,0.0300
3358.00,0.0302
3357.00,0.0304
3356.00,0.0306
3355.00,0.0307
3354.00,0.0309
3353.00,0.0310
3352.00,0.0311
3351.00,0.0313
3350.00,0.0315
3349.00,0.0317
3348.00,0.0319
3347.00,0.0321
3346.00,0.0323
3345.00,0.0324
3344.00,0.0325
3343.00,0.0327
3342.00,0.0328
3341.00,0.0329
3340.00,0.0331
3339.00,0.0332
3338.00,0.0334
3337.00,0.0336
3336.00,0.0338
3335.00,0.0340
3334.00,0.0342
3333.00,0.0344
3332.00,0.0345
3331.00,0.0347
3330.00,0.0348
3329.00,0.0349
3328.00,0.0350
3327.00,0.0351
3326.00,0.0352
3325.00,0.0354
3324.00,0.0356
3323.00,0.0357
3322.00,0.0359
3321.00,0.0360
3320.00,0.0362
3319.00,0.0363
3318.00,0.0364
3317.00,0.0365
3316.00,0.0366
3315.00,0.0367
3314.00,0.0368
3313.00,0.0369
3312.00,0.0369
3311.00,0.0369
3310.00,0.0369
3309.00,0.0369
3308.00,0.0368
3307.00,0.0369
3306.00,0.0370
3305.00,0.0372
3304.00,0.0375
3303.00,0.0377
3302.00,0.0379
3301.00,0.0380
3300.00,0.0380
3299.00,0.0381
3298.00,0.0381
3297.00,0.0381
3296.00,0.0381
3295.00,0.0382
3294.00,0.0382
3293.00,0.0382
3292.00,0.0383
3291.00,0.0385
3290.00,0.0386
3289.00,0.0387
3288.00,0.0388
3287.00,0.0388
3286.00,0.0389
3285.00,0.0389
3284.00,0.0389
3283.00,0.0389
3282.00,0.0390
3281.00,0.0390
3280.00,0.0390
3279.00,0.0390
3278.00,0.0390
3277.00,0.0390
3276.00,0.0390
3275.00,0.0389
3274.00,0.0389
3273.00,0.0389
3272.00,0.0389
3271.00,0.0389
3270.00,0.0389
3269.00,0.0390
3268.00,0.0390
3267.00,0.0391
3266.00,0.0391
3265.00,0.0391
3264.00,0.0392
3263.00,0.0392
3262.00,0.0392
3261.00,0.0392
3260.00,0.0392
3259.00,0.0391
3258.00,0.0391
3257.00,0.0391
3256.00,0.0391
3255.00,0.0391
3254.00,0.0391
3253.00,0.0392
3252.00,0.0392
3251.00,0.0391
3250.00,0.0391
3249.00,0.0391
3248.00,0.0391
3247.00,0.0391
3246.00,0.0391
3245.00,0.0391
3244.00,0.0391
3243.00,0.0391
3242.00,0.0390
3241.00,0.0390
3240.00,0.0389
3239.00,0.0389
3238.00,0.0389
3237.00,0.0389
3236.00,0.0389
3235.00,0.0388
3234.00,0.0388
3233.00,0.0387
3232.00,0.0387
3231.00,0.0387
3230.00,0.0387
3229.00,0.0386
3228.00,0.0386
3227.00,0.0385
3226.00,0.0385
3225.00,0.0384
3224.00,0.0384
3223.00,0.0384
3222.00,0.0383
3221.00,0.0383
3220.00,0.0382
3219.00,0.0382
3218.00,0.0382
3217.00,0.0382
3216.00,0.0382
3215.00,0.0382
3214.00,0.0382
3213.00,0.0382
3212.00,0.0382
3211.00,0.0382
3210.00,0.0382
3209.00,0.0382
3208.00,0.0382
3207.00,0.0382
3206.00,0.0382
3205.00,0.0381
3204.00,0.0381
3203.00,0.0380
3202.00,0.0380
3201.00,0.0380
3200.00,0.0379
3199.00,0.0379
3198.00,0.0378
3197.00,0.0377
3196.00,0.0377
3195.00,0.0376
3194.00,0.0375
3193.00,0.0374
3192.00,0.0373
3191.00,0.0372
3190.00,0.0371
3189.00,0.0370
3188.00,0.0369
3187.00,0.0368
3186.00,0.0367
3185.00,0.0366
3184.00,0.0365
3183.00,0.0364
3182.00,0.0363
3181.00,0.0362
3180.00,0.0360
3179.00,0.0359
3178.00,0.0358
3177.00,0.0357
3176.00,0.0356
3175.00,0.0354
3174.00,0.0353
3173.00,0.0352
3172.00,0.0351
3171.00,0.0349
3170.00,0.0348
3169.00,0.0346
3168.00,0.0345
3167.00,0.0343
3166.00,0.0342
3165.00,0.0340
3164.00,0.0339
3163.00,0.0337
3162.00,0.0336
3161.00,0.0334
3160.00,0.0333
3159.00,0.0331
3158.00,0.0330
3157.00,0.0328
3156.00,0.0327
3155.00,0.0326
3154.00,0.0324
3153.00,0.0323
3152.00,0.0321
3151.00,0.0320
3150.00,0.0319
3149.00,0.0317
3148.00,0.0316
3147.00,0.0314
3146.00,0.0313
3145.00,0.0312
3144.00,0.0310
3143.00,0.0309
3142.00,0.0308
3141.00,0.0307
3140.00,0.0306
3139.00,0.0305
3138.00,0.0304
3137.00,0.0303
3136.00,0.0302
3135.00,0.0301
3134.00,0.0300
3133.00,0.0299
3132.00,0.0298
3131.00,0.0297
3130.00,0.0295
3129.00,0.0294
3128.00,0.0293
3127.00,0.0292
3126.00,0.0290
3125.00,0.0289
3124.00,0.0287
3123.00,0.0286
3122.00,0.0285
3121.00,0.0283
3120.00,0.0282
3119.00,0.0280
3118.00,0.0279
3117.00,0.0277
3116.00,0.0276
3115.00,0.0274
3114.00,0.0272
3113.00,0.0270
3112.00,0.0269
3111.00,0.0267
3110.00,0.0265
3109.00,0.0263
3108.00,0.0261
3107.00,0.0259
3106.00,0.0257
3105.00,0.0256
3104.00,0.0254
3103.00,0.0253
3102.00,0.0251
3101.00,0.0250
3100.00,0.0248
3099.00,0.0247
3098.00,0.0245
3097.00,0.0243
3096.00,0.0242
3095.00,0.0241
3094.00,0.0239
3093.00,0.0237
3092.00,0.0236
3091.00,0.0234
3090.00,0.0233
3089.00,0.0232
3088.00,0.0230
3087.00,0.0229
3086.00,0.0227
3085.00,0.0226
3084.00,0.0225
3083.00,0.0224
3082.00,0.0223
3081.00,0.0221
3080.00,0.0220
3079.00,0.0219
3078.00,0.0218
3077.00,0.0217
3076.00,0.0216
3075.00,0.0215
3074.00,0.0214
3073.00,0.0213
3072.00,0.0212
3071.00,0.0211
3070.00,0.0210
3069.00,0.0209
3068.00,0.0208
3067.00,0.0208
3066.00,0.0207
3065.00,0.0206
3064.00,0.0205
3063.00,0.0205
3062.00,0.0204
3061.00,0.0204
3060.00,0.0204
3059.00,0.0204
3058.00,0.0203
3057.00,0.0203
3056.00,0.0202
3055.00,0.0202
3054.00,0.0201
3053.00,0.0201
3052.00,0.0200
3051.00,0.0199
3050.00,0.0199
3049.00,0.0198
3048.00,0.0197
3047.00,0.0196
3046.00,0.0196
3045.00,0.0195
3044.00,0.0194
3043.00,0.0193
3042.00,0.0193
3041.00,0.0192
3040.00,0.0192
3039.00,0.0191
3038.00,0.0191
3037.00,0.0191
3036.00,0.0191
3035.00,0.0191
3034.00,0.0191
3033.00,0.0191
3032.00,0.0192
3031.00,0.0192
3030.00,0.0192
3029.00,0.0192
3028.00,0.0192
3027.00,0.0192
3026.00,0.0191
3025.00,0.0191
3024.00,0.0191
3023.00,0.0190
3022.00,0.0190
3021.00,0.0190
3020.00,0.0189
3019.00,0.0189
3018.00,0.0189
3017.00,0.0189
3016.00,0.0189
3015.00,0.0190
3014.00,0.0190
3013.00,0.0191
3012.00,0.0192
3011.00,0.0193
3010.00,0.0194
3009.00,0.0196
3008.00,0.0198
3007.00,0.0200
3006.00,0.0202
3005.00,0.0205
3004.00,0.0208
3003.00,0.0212
3002.00,0.0216
3001.00,0.0220
3000.00,0.0225
2999.00,0.0230
2998.00,0.0235
2997.00,0.0241
2996.00,0.0247
2995.00,0.0254
2994.00,0.0261
2993.00,0.0268
2992.00,0.0276
2991.00,0.0284
2990.00,0.0291
2989.00,0.0299
2988.00,0.0307
2987.00,0.0314
2986.00,0.0321
2985.00,0.0328
2984.00,0.0333
2983.00,0.0338
2982.00,0.0344
2981.00,0.0350
2980.00,0.0357
2979.00,0.0365
2978.00,0.0372
2977.00,0.0381
2976.00,0.0389
2975.00,0.0397
2974.00,0.0405
2973.00,0.0414
2972.00,0.0423
2971.00,0.0433
2970.00,0.0444
2969.00,0.0456
2968.00,0.0468
2967.00,0.0480
2966.00,0.0492
2965.00,0.0504
2964.00,0.0515
2963.00,0.0525
2962.00,0.0534
2961.00,0.0542
2960.00,0.0549
2959.00,0.0555
2958.00,0.0559
2957.00,0.0562
2956.00,0.0563
2955.00,0.0563
2954.00,0.0562
2953.00,0.0559
2952.00,0.0554
2951.00,0.0549
2950.00,0.0544
2949.00,0.0539
2948.00,0.0535
2947.00,0.0532
2946.00,0.0531
2945.00,0.0533
2944.00,0.0536
2943.00,0.0542
2942.00,0.0550
2941.00,0.0560
2940.00,0.0572
2939.00,0.0586
2938.00,0.0601
2937.00,0.0617
2936.00,0.0634
2935.00,0.0651
2934.00,0.0668
2933.00,0.0685
2932.00,0.0701
2931.00,0.0716
2930.00,0.0729
2929.00,0.0741
2928.00,0.0752
2927.00,0.0760
2926.00,0.0767
2925.00,0.0772
2924.00,0.0775
2923.00,0.0777
2922.00,0.0777
2921.00,0.0775
2920.00,0.0773
2919.00,0.0769
2918.00,0.0764
2917.00,0.0758
2916.00,0.0750
2915.00,0.0740
2914.00,0.0729
2913.00,0.0717
2912.00,0.0703
2911.00,0.0689
2910.00,0.0676
2909.00,0.0662
2908.00,0.0648
2907.00,0.0635
2906.00,0.0622
2905.00,0.0610
2904.00,0.0598
2903.00,0.0588
2902.00,0.0578
2901.00,0.0570
2900.00,0.0561
2899.00,0.0554
2898.00,0.0547
2897.00,0.0541
2896.00,0.0535
2895.00,0.0530
2894.00,0.0524
2893.00,0.0519
2892.00,0.0514
2891.00,0.0509
2890.00,0.0503
2889.00,0.0498
2888.00,0.0493
2887.00,0.0489
2886.00,0.0484
2885.00,0.0480
2884.00,0.0477
2883.00,0.0474
2882.00,0.0472
2881.00,0.0471
2880.00,0.0471
2879.00,0.0472
2878.00,0.0474
2877.00,0.0476
2876.00,0.0479
2875.00,0.0482
2874.00,0.0486
2873.00,0.0489
2872.00,0.0492
2871.00,0.0494
2870.00,0.0494
2869.00,0.0494
2868.00,0.0493
2867.00,0.0492
2866.00,0.0493
2865.00,0.0495
2864.00,0.0499
2863.00,0.0504
2862.00,0.0511
2861.00,0.0519
2860.00,0.0528
2859.00,0.0536
2858.00,0.0542
2857.00,0.0546
2856.00,0.0548
2855.00,0.0546
2854.00,0.0541
2853.00,0.0534
2852.00,0.0524
2851.00,0.0513
2850.00,0.0499
2849.00,0.0484
2848.00,0.0468
2847.00,0.0451
2846.00,0.0434
2845.00,0.0417
2844.00,0.0401
2843.00,0.0385
2842.00,0.0370
2841.00,0.0355
2840.00,0.0342
2839.00,0.0329
2838.00,0.0318
2837.00,0.0308
2836.00,0.0298
2835.00,0.0289
2834.00,0.0281
2833.00,0.0273
2832.00,0.0265
2831.00,0.0258
2830.00,0.0251
2829.00,0.0244
2828.00,0.0237
2827.00,0.0231
2826.00,0.0224
2825.00,0.0217
2824.00,0.0211
2823.00,0.0204
2822.00,0.0198
2821.00,0.0192
2820.00,0.0187
2819.00,0.0181
2818.00,0.0177
2817.00,0.0172
2816.00,0.0168
2815.00,0.0165
2814.00,0.0161
2813.00,0.0158
2812.00,0.0155
2811.00,0.0153
2810.00,0.0150
2809.00,0.0148
2808.00,0.0146
2807.00,0.0145
2806.00,0.0143
2805.00,0.0141
2804.00,0.0140
2803.00,0.0138
2802.00,0.0137
2801.00,0.0135
2800.00,0.0134
2799.00,0.0132
2798.00,0.0131
2797.00,0.0130
2796.00,0.0129
2795.00,0.0128
2794.00,0.0127
2793.00,0.0126
2792.00,0.0125
2791.00,0.0124
2790.00,0.0123
2789.00,0.0123
2788.00,0.0122
2787.00,0.0122
2786.00,0.0121
2785.00,0.0120
2784.00,0.0120
2783.00,0.0119
2782.00,0.0119
2781.00,0.0118
2780.00,0.0118
2779.00,0.0117
2778.00,0.0117
2777.00,0.0116
2776.00,0.0115
2775.00,0.0115
2774.00,0.0114
2773.00,0.0114
2772.00,0.0114
2771.00,0.0113
2770.00,0.0113
2769.00,0.0113
2768.00,0.0112
2767.00,0.0112
2766.00,0.0112
2765.00,0.0111
2764.00,0.0111
2763.00,0.0111
2762.00,0.0111
2761.00,0.0111
2760.00,0.0111
2759.00,0.0112
2758.00,0.0112
2757.00,0.0112
