Created as New Dataset,Sample 235 By YargerLab Date Sunday, October 05 2025
cm-1,A
4000.00,0.0014
3999.00,0.0014
3998.00,0.0014
3997.00,0.0013
3996.00,0.0013
3995.00,0.0013
3994.00,0.0013
3993.00,0.0013
3992.00,0.0013
3991.00,0.0013
3990.00,0.0013
3989.00,0.0013
3988.00,0.0013
3987.00,0.0013
3986.00,0.0013
3985.00,0.0013
3984.00,0.0013
3983.00,0.0013
3982.00,0.0013
3981.00,0.0013
3980.00,0.0013
3979.00,0.0013
3978.00,0.0013
3977.00,0.0013
3976.00,0.0013
3975.00,0.0014
3974.00,0.0014
3973.00,0.0014
3972.00,0.0013
3971.00,0.0013
3970.00,0.0013
3969.00,0.0013
3968.00,0.0013
3967.00,0.0013
3966.00,0.0013
3965.00,0.0013
3964.00,0.0013
3963.00,0.0013
3962.00,0.0013
3961.00,0.0013
3960.00,0.0013
3959.00,0.0013
3958.00,0.0013
3957.00,0.0013
3956.00,0.0013
3955.00,0.0013
3954.00,0.0013
3953.00,0.0013
3952.00,0.0013
3951.00,0.0013
3950.00,0.0013
3949.00,0.0013
3948.00,0.0013
3947.00,0.0013
3946.00,0.0013
3945.00,0.0013
3944.00,0.0012
3943.00,0.0012
3942.00,0.0012
3941.00,0.0012
3940.00,0.0012
3939.00,0.0012
3938.00,0.0012
3937.00,0.0012
3936.00,0.0012
3935.00,0.0012
3934.00,0.0012
3933.00,0.0012
3932.00,0.0012
3931.00,0.0012
3930.00,0.0012
3929.00,0.0012
3928.00,0.0012
3927.00,0.0012
3926.00,0.0012
3925.00,0.0012
3924.00,0.0012
3923.00,0.0012
3922.00,0.0012
3921.00,0.0012
3920.00,0.0012
3919.00,0.0012
3918.00,0.0012
3917.00,0.0012
3916.00,0.0012
3915.00,0.0012
3914.00,0.0012
3913.00,0.0012
3912.00,0.0012
3911.00,0.0012
3910.00,0.0012
3909.00,0.0012
3908.00,0.0012
3907.00,0.0012
3906.00,0.0012
3905.00,0.0012
3904.00,0.0012
3903.00,0.0012
3902.00,0.0012
3901.00,0.0012
3900.00,0.0012
3899.00,0.0011
3898.00,0.0011
3897.00,0.0011
3896.00,0.0011
3895.00,0.0011
3894.00,0.0011
3893.00,0.0012
3892.00,0.0012
3891.00,0.0012
3890.00,0.0012
3889.00,0.0012
3888.00,0.0012
3887.00,0.0012
3886.00,0.0012
3885.00,0.0012
3884.00,0.0012
3883.00,0.0012
3882.00,0.0012
3881.00,0.0012
3880.00,0.0012
3879.00,0.0012
3878.00,0.0012
3877.00,0.0012
3876.00,0.0012
3875.00,0.0012
3874.00,0.0012
3873.00,0.0012
3872.00,0.0012
3871.00,0.0012
3870.00,0.0012
3869.00,0.0012
3868.00,0.0012
3867.00,0.0012
3866.00,0.0012
3865.00,0.0011
3864.00,0.0011
3863.00,0.0011
3862.00,0.0011
3861.00,0.0011
3860.00,0.0011
3859.00,0.0012
3858.00,0.0012
3857.00,0.0013
3856.00,0.0014
3855.00,0.0014
3854.00,0.0014
3853.00,0.0013
3852.00,0.0013
3851.00,0.0013
3850.00,0.0013
3849.00,0.0012
3848.00,0.0012
3847.00,0.0012
3846.00,0.0012
3845.00,0.0012
3844.00,0.0012
3843.00,0.0012
3842.00,0.0012
3841.00,0.0013
3840.00,0.0013
3839.00,0.0013
3838.00,0.0012
3837.00,0.0013
3836.00,0.0013
3835.00,0.0013
3834.00,0.0013
3833.00,0.0012
3832.00,0.0012
3831.00,0.0012
3830.00,0.0012
3829.00,0.0012
3828.00,0.0012
3827.00,0.0012
3826.00,0.0012
3825.00,0.0012
3824.00,0.0013
3823.00,0.0013
3822.00,0.0013
3821.00,0.0013
3820.00,0.0013
3819.00,0.0013
3818.00,0.0013
3817.00,0.0012
3816.00,0.0012
3815.00,0.0012
3814.00,0.0012
3813.00,0.0012
3812.00,0.0012
3811.00,0.0011
3810.00,0.0011
3809.00,0.0011
3808.00,0.0011
3807.00,0.0011
3806.00,0.0011
3805.00,0.0012
3804.00,0.0012
3803.00,0.0012
3802.00,0.0012
3801.00,0.0012
3800.00,0.0012
3799.00,0.0012
3798.00,0.0011
3797.00,0.0011
3796.00,0.0011
3795.00,0.0011
3794.00,0.0011
3793.00,0.0011
3792.00,0.0011
3791.00,0.0011
3790.00,0.0011
3789.00,0.0010
3788.00,0.0010
3787.00,0.0010
3786.00,0.0010
3785.00,0.0010
3784.00,0.0010
3783.00,0.0010
3782.00,0.0010
3781.00,0.0010
3780.00,0.0010
3779.00,0.0010
3778.00,0.0010
3777.00,0.0010
3776.00,0.0010
3775.00,0.0010
3774.00,0.0010
3773.00,0.0010
3772.00,0.0011
3771.00,0.0011
3770.00,0.0011
3769.00,0.0011
3768.00,0.0011
3767.00,0.0010
3766.00,0.0010
3765.00,0.0010
3764.00,0.0010
3763.00,0.0010
3762.00,0.0010
3761.00,0.0010
3760.00,0.0010
3759.00,0.0010
3758.00,0.0010
3757.00,0.0010
3756.00,0.0010
3755.00,0.0011
3754.00,0.0011
3753.00,0.0011
3752.00,0.0011
3751.00,0.0012
3750.00,0.0012
3749.00,0.0012
3748.00,0.0013
3747.00,0.0013
3746.00,0.0013
3745.00,0.0012
3744.00,0.0012
3743.00,0.0012
3742.00,0.0011
3741.00,0.0011
3740.00,0.0011
3739.00,0.0010
3738.00,0.0010
3737.00,0.0010
3736.00,0.0010
3735.00,0.0010
3734.00,0.0010
3733.00,0.0010
3732.00,0.0010
3731.00,0.0009
3730.00,0.0009
3729.00,0.0009
3728.00,0.0009
3727.00,0.0009
3726.00,0.0009
3725.00,0.0009
3724.00,0.0009
3723.00,0.0009
3722.00,0.0009
3721.00,0.0009
3720.00,0.0009
3719.00,0.0009
3718.00,0.0009
3717.00,0.0009
3716.00,0.0009
3715.00,0.0009
3714.00,0.0009
3713.00,0.0009
3712.00,0.0009
3711.00,0.0009
3710.00,0.0009
3709.00,0.0009
3708.00,0.0009
3707.00,0.0009
3706.00,0.0009
3705.00,0.0009
3704.00,0.0008
3703.00,0.0009
3702.00,0.0009
3701.00,0.0009
3700.00,0.0009
3699.00,0.0010
3698.00,0.0009
3697.00,0.0009
3696.00,0.0010
3695.00,0.0010
3694.00,0.0010
3693.00,0.0010
3692.00,0.0011
3691.00,0.0011
3690.00,0.0011
3689.00,0.0011
3688.00,0.0011
3687.00,0.0012
3686.00,0.0012
3685.00,0.0012
3684.00,0.0012
3683.00,0.0012
3682.00,0.0012
3681.00,0.0012
3680.00,0.0012
3679.00,0.0012
3678.00,0.0013
3677.00,0.0013
3676.00,0.0013
3675.00,0.0013
3674.00,0.0014
3673.00,0.0014
3672.00,0.0014
3671.00,0.0013
3670.00,0.0013
3669.00,0.0013
3668.00,0.0013
3667.00,0.0013
3666.00,0.0013
3665.00,0.0013
3664.00,0.0013
3663.00,0.0013
3662.00,0.0013
3661.00,0.0013
3660.00,0.0013
3659.00,0.0013
3658.00,0.0013
3657.00,0.0013
3656.00,0.0013
3655.00,0.0014
3654.00,0.0014
3653.00,0.0015
3652.00,0.0015
3651.00,0.0015
3650.00,0.0016
3649.00,0.0016
3648.00,0.0017
3647.00,0.0017
3646.00,0.0017
3645.00,0.0017
3644.00,0.0017
3643.00,0.0017
3642.00,0.0017
3641.00,0.0017
3640.00,0.0018
3639.00,0.0018
3638.00,0.0018
3637.00,0.0019
3636.00,0.0019
3635.00,0.0020
3634.00,0.0020
3633.00,0.0021
3632.00,0.0022
3631.00,0.0023
3630.00,0.0023
3629.00,0.0023
3628.00,0.0023
3627.00,0.0024
3626.00,0.0024
3625.00,0.0025
3624.00,0.0025
3623.00,0.0026
3622.00,0.0026
3621.00,0.0027
3620.00,0.0027
3619.00,0.0028
3618.00,0.0028
3617.00,0.0029
3616.00,0.0029
3615.00,0.0029
3614.00,0.0029
3613.00,0.0030
3612.00,0.0030
3611.00,0.0031
3610.00,0.0032
3609.00,0.0032
3608.00,0.0033
3607.00,0.0033
3606.00,0.0034
3605.00,0.0034
3604.00,0.0035
3603.00,0.0035
3602.00,0.0036
3601.00,0.0036
3600.00,0.0037
3599.00,0.0037
3598.00,0.0037
3597.00,0.0038
3596.00,0.0038
3595.00,0.0039
3594.00,0.0040
3593.00,0.0040
3592.00,0.0041
3591.00,0.0042
3590.00,0.0042
3589.00,0.0043
3588.00,0.0043
3587.00,0.0044
3586.00,0.0044
3585.00,0.0045
3584.00,0.0045
3583.00,0.0046
3582.00,0.0047
3581.00,0.0048
3580.00,0.0049
3579.00,0.0050
3578.00,0.0050
3577.00,0.0051
3576.00,0.0052
3575.00,0.0053
3574.00,0.0054
3573.00,0.0054
3572.00,0.0055
3571.00,0.0056
3570.00,0.0057
3569.00,0.0058
3568.00,0.0059
3567.00,0.0059
3566.00,0.0060
3565.00,0.0061
3564.00,0.0062
3563.00,0.0063
3562.00,0.0064
3561.00,0.0065
3560.00,0.0066
3559.00,0.0067
3558.00,0.0068
3557.00,0.0069
3556.00,0.0069
3555.00,0.0070
3554.00,0.0071
3553.00,0.0072
3552.00,0.0073
3551.00,0.0075
3550.00,0.0076
3549.00,0.0077
3548.00,0.0077
3547.00,0.0078
3546.00,0.0079
3545.00,0.0080
3544.00,0.0081
3543.00,0.0083
3542.00,0.0084
3541.00,0.0085
3540.00,0.0086
3539.00,0.0087
3538.00,0.0089
3537.00,0.0090
3536.00,0.0091
3535.00,0.0092
3534.00,0.0093
3533.00,0.0094
3532.00,0.0096
3531.00,0.0097
3530.00,0.0098
3529.00,0.0100
3528.00,0.0101
3527.00,0.0102
3526.00,0.0104
3525.00,0.0105
3524.00,0.0106
3523.00,0.0107
3522.00,0.0109
3521.00,0.0110
3520.00,0.0111
3519.00,0.0113
3518.00,0.0114
3517.00,0.0115
3516.00,0.0117
3515.00,0.0118
3514.00,0.0119
3513.00,0.0120
3512.00,0.0122
3511.00,0.0123
3510.00,0.0125
3509.00,0.0126
3508.00,0.0128
3507.00,0.0129
3506.00,0.0131
3505.00,0.0132
3504.00,0.0134
3503.00,0.0135
3502.00,0.0137
3501.00,0.0138
3500.00,0.0140
3499.00,0.0141
3498.00,0.0143
3497.00,0.0144
3496.00,0.0146
3495.00,0.0148
3494.00,0.0150
3493.00,0.0151
3492.00,0.0152
3491.00,0.0153
3490.00,0.0155
3489.00,0.0156
3488.00,0.0158
3487.00,0.0160
3486.00,0.0162
3485.00,0.0164
3484.00,0.0165
3483.00,0.0167
3482.00,0.0169
3481.00,0.0171
3480.00,0.0173
3479.00,0.0175
3478.00,0.0176
3477.00,0.0178
3476.00,0.0179
3475.00,0.0181
3474.00,0.0182
3473.00,0.0184
3472.00,0.0186
3471.00,0.0188
3470.00,0.0190
3469.00,0.0192
3468.00,0.0194
3467.00,0.0195
3466.00,0.0197
3465.00,0.0199
3464.00,0.0201
3463.00,0.0203
3462.00,0.0205
3461.00,0.0207
3460.00,0.0209
3459.00,0.0211
3458.00,0.0213
3457.00,0.0215
3456.00,0.0217
3455.00,0.0219
3454.00,0.0221
3453.00,0.0223
3452.00,0.0225
3451.00,0.0227
3450.00,0.0230
3449.00,0.0232
3448.00,0.0234
3447.00,0.0237
3446.00,0.0239
3445.00,0.0241
3444.00,0.0243
3443.00,0.0245
3442.00,0.0247
3441.00,0.0250
3440.00,0.0252
3439.00,0.0255
3438.00,0.0257
3437.00,0.0259
3436.00,0.0261
3435.00,0.0264
3434.00,0.0266
3433.00,0.0268
3432.00,0.0270
3431.00,0.0273
3430.00,0.0275
3429.00,0.0278
3428.00,0.0280
3427.00,0.0283
3426.00,0.0285
3425.00,0.0288
3424.00,0.0291
3423.00,0.0294
3422.00,0.0296
3421.00,0.0299
3420.00,0.0302
3419.00,0.0304
3418.00,0.0307
3417.00,0.0310
3416.00,0.0313
3415.00,0.0316
3414.00,0.0318
3413.00,0.0321
3412.00,0.0324
3411.00,0.0327
3410.00,0.0330
3409.00,0.0333
3408.00,0.0336
3407.00,0.0339
3406.00,0.0341
3405.00,0.0345
3404.00,0.0348
3403.00,0.0351
3402.00,0.0354
3401.00,0.0357
3400.00,0.0360
3399.00,0.0363
3398.00,0.0366
3397.00,0.0369
3396.00,0.0372
3395.00,0.0375
3394.00,0.0378
3393.00,0.0381
3392.00,0.0384
3391.00,0.0388
3390.00,0.0391
3389.00,0.0394
3388.00,0.0398
3387.00,0.0401
3386.00,0.0404
3385.00,0.0408
3384.00,0.0411
3383.00,0.0414
3382.00,0.0417
3381.00,0.0420
3380.00,0.0424
3379.00,0.0427
3378.00,0.0430
3377.00,0.0433
3376.00,0.0437
3375.00,0.0440
3374.00,0.0443
3373.00,0.0445
3372.00,0.0448
3371.00,0.0450
3370.00,0.0453
3369.00,0.0456
3368.00,0.0459
3367.00,0.0463
3366.00,0.0466
3365.00,0.0470
3364.00,0.0473
3363.00,0.0476
3362.00,0.0479
3361.00,0.0482
3360.00,0.0485
3359.00,0.0488
3358.00,0.0491
3357.00,0.0493
3356.00,0.0496
3355.00,0.0499
3354.00,0.0501
3353.00,0.0503
3352.00,0.0505
3351.00,0.0507
3350.00,0.0511
3349.00,0.0514
3348.00,0.0517
3347.00,0.0520
3346.00,0.0522
3345.00,0.0525
3344.00,0.0527
3343.00,0.0529
3342.00,0.0531
3341.00,0.0533
3340.00,0.0535
3339.00,0.0537
3338.00,0.0540
3337.00,0.0544
3336.00,0.0548
3335.00,0.0551
3334.00,0.0554
3333.00,0.0557
3332.00,0.0559
3331.00,0.0561
3330.00,0.0563
3329.00,0.0564
3328.00,0.0565
3327.00,0.0566
3326.00,0.0568
3325.00,0.0570
3324.00,0.0573
3323.00,0.0576
3322.00,0.0579
3321.00,0.0581
3320.00,0.0584
3319.00,0.0586
3318.00,0.0588
3317.00,0.0590
3316.00,0.0592
3315.00,0.0593
3314.00,0.0595
3313.00,0.0596
3312.00,0.0596
3311.00,0.0596
3310.00,0.0595
3309.00,0.0595
3308.00,0.0595
3307.00,0.0595
3306.00,0.0597
3305.00,0.0600
3304.00,0.0604
3303.00,0.0608
3302.00,0.0611
3301.00,0.0613
3300.00,0.0614
3299.00,0.0615
3298.00,0.0614
3297.00,0.0614
3296.00,0.0614
3295.00,0.0614
3294.00,0.0615
3293.00,0.0616
3292.00,0.0617
3291.00,0.0619
3290.00,0.0622
3289.00,0.0623
3288.00,0.0625
3287.00,0.0626
3286.00,0.0626
3285.00,0.0627
3284.00,0.0627
3283.00,0.0628
3282.00,0.0628
3281.00,0.0629
3280.00,0.0629
3279.00,0.0629
3278.00,0.0629
3277.00,0.0629
3276.00,0.0629
3275.00,0.0628
3274.00,0.0628
3273.00,0.0628
3272.00,0.0627
3271.00,0.0627
3270.00,0.0628
3269.00,0.0629
3268.00,0.0630
3267.00,0.0630
3266.00,0.0631
3265.00,0.0631
3264.00,0.0631
3263.00,0.0631
3262.00,0.0631
3261.00,0.0630
3260.00,0.0630
3259.00,0.0630
3258.00,0.0629
3257.00,0.0629
3256.00,0.0629
3255.00,0.0629
3254.00,0.0630
3253.00,0.0630
3252.00,0.0630
3251.00,0.0629
3250.00,0.0629
3249.00,0.0628
3248.00,0.0627
3247.00,0.0627
3246.00,0.0626
3245.00,0.0626
3244.00,0.0626
3243.00,0.0625
3242.00,0.0625
3241.00,0.0625
3240.00,0.0624
3239.00,0.0623
3238.00,0.0623
3237.00,0.0622
3236.00,0.0620
3235.00,0.0619
3234.00,0.0618
3233.00,0.0617
3232.00,0.0616
3231.00,0.0616
3230.00,0.0615
3229.00,0.0615
3228.00,0.0614
3227.00,0.0613
3226.00,0.0612
3225.00,0.0612
3224.00,0.0611
3223.00,0.0610
3222.00,0.0609
3221.00,0.0608
3220.00,0.0608
3219.00,0.0607
3218.00,0.0606
3217.00,0.0606
3216.00,0.0605
3215.00,0.0605
3214.00,0.0605
3213.00,0.0605
3212.00,0.0604
3211.00,0.0604
3210.00,0.0603
3209.00,0.0603
3208.00,0.0602
3207.00,0.0602
3206.00,0.0601
3205.00,0.0600
3204.00,0.0599
3203.00,0.0598
3202.00,0.0597
3201.00,0.0596
3200.00,0.0595
3199.00,0.0594
3198.00,0.0593
3197.00,0.0591
3196.00,0.0589
3195.00,0.0588
3194.00,0.0586
3193.00,0.0584
3192.00,0.0582
3191.00,0.0580
3190.00,0.0578
3189.00,0.0576
3188.00,0.0574
3187.00,0.0572
3186.00,0.0570
3185.00,0.0568
3184.00,0.0565
3183.00,0.0563
3182.00,0.0561
3181.00,0.0558
3180.00,0.0556
3179.00,0.0554
3178.00,0.0552
3177.00,0.0549
3176.00,0.0547
3175.00,0.0544
3174.00,0.0542
3173.00,0.0540
3172.00,0.0537
3171.00,0.0535
3170.00,0.0532
3169.00,0.0529
3168.00,0.0526
3167.00,0.0523
3166.00,0.0521
3165.00,0.0518
3164.00,0.0515
3163.00,0.0513
3162.00,0.0510
3161.00,0.0507
3160.00,0.0505
3159.00,0.0502
3158.00,0.0499
3157.00,0.0496
3156.00,0.0494
3155.00,0.0491
3154.00,0.0488
3153.00,0.0486
3152.00,0.0483
3151.00,0.0481
3150.00,0.0478
3149.00,0.0476
3148.00,0.0474
3147.00,0.0471
3146.00,0.0469
3145.00,0.0466
3144.00,0.0464
3143.00,0.0462
3142.00,0.0460
3141.00,0.0458
3140.00,0.0456
3139.00,0.0454
3138.00,0.0452
3137.00,0.0450
3136.00,0.0449
3135.00,0.0447
3134.00,0.0445
3133.00,0.0443
3132.00,0.0441
3131.00,0.0439
3130.00,0.0437
3129.00,0.0435
3128.00,0.0433
3127.00,0.0431
3126.00,0.0428
3125.00,0.0426
3124.00,0.0423
3123.00,0.0421
3122.00,0.0418
3121.00,0.0415
3120.00,0.0413
3119.00,0.0410
3118.00,0.0407
3117.00,0.0405
3116.00,0.0402
3115.00,0.0399
3114.00,0.0397
3113.00,0.0394
3112.00,0.0391
3111.00,0.0388
3110.00,0.0386
3109.00,0.0383
3108.00,0.0380
3107.00,0.0377
3106.00,0.0375
3105.00,0.0372
3104.00,0.0369
3103.00,0.0367
3102.00,0.0364
3101.00,0.0361
3100.00,0.0359
3099.00,0.0356
3098.00,0.0353
3097.00,0.0350
3096.00,0.0348
3095.00,0.0345
3094.00,0.0343
3093.00,0.0340
3092.00,0.0338
3091.00,0.0336
3090.00,0.0333
3089.00,0.0331
3088.00,0.0329
3087.00,0.0327
3086.00,0.0325
3085.00,0.0323
3084.00,0.0321
3083.00,0.0319
3082.00,0.0317
3081.00,0.0315
3080.00,0.0314
3079.00,0.0312
3078.00,0.0310
3077.00,0.0308
3076.00,0.0307
3075.00,0.0305
3074.00,0.0304
3073.00,0.0302
3072.00,0.0301
3071.00,0.0299
3070.00,0.0298
3069.00,0.0296
3068.00,0.0295
3067.00,0.0294
3066.00,0.0293
3065.00,0.0292
3064.00,0.0292
3063.00,0.0291
3062.00,0.0290
3061.00,0.0290
3060.00,0.0289
3059.00,0.0288
3058.00,0.0288
3057.00,0.0287
3056.00,0.0287
3055.00,0.0286
3054.00,0.0285
3053.00,0.0284
3052.00,0.0283
3051.00,0.0282
3050.00,0.0281
3049.00,0.0280
3048.00,0.0279
3047.00,0.0277
3046.00,0.0275
3045.00,0.0274
3044.00,0.0272
3043.00,0.0271
3042.00,0.0271
3041.00,0.0270
3040.00,0.0270
3039.00,0.0270
3038.00,0.0269
3037.00,0.0269
3036.00,0.0269
3035.00,0.0269
3034.00,0.0270
3033.00,0.0270
3032.00,0.0270
3031.00,0.0270
3030.00,0.0271
3029.00,0.0271
3028.00,0.0271
3027.00,0.0271
3026.00,0.0271
3025.00,0.0270
3024.00,0.0270
3023.00,0.0270
3022.00,0.0269
3021.00,0.0269
3020.00,0.0268
3019.00,0.0268
3018.00,0.0268
3017.00,0.0268
3016.00,0.0268
3015.00,0.0269
3014.00,0.0270
3013.00,0.0271
3012.00,0.0273
3011.00,0.0275
3010.00,0.0278
3009.00,0.0281
3008.00,0.0284
3007.00,0.0288
3006.00,0.0292
3005.00,0.0296
3004.00,0.0301
3003.00,0.0306
3002.00,0.0312
3001.00,0.0318
3000.00,0.0325
2999.00,0.0333
2998.00,0.0341
2997.00,0.0350
2996.00,0.0359
2995.00,0.0369
2994.00,0.0379
2993.00,0.0390
2992.00,0.0401
2991.00,0.0412
2990.00,0.0423
2989.00,0.0434
2988.00,0.0445
2987.00,0.0455
2986.00,0.0465
2985.00,0.0473
2984.00,0.0481
2983.00,0.0489
2982.00,0.0496
2981.00,0.0504
2980.00,0.0514
2979.00,0.0524
2978.00,0.0534
2977.00,0.0546
2976.00,0.0557
2975.00,0.0570
2974.00,0.0583
2973.00,0.0597
2972.00,0.0612
2971.00,0.0629
2970.00,0.0647
2969.00,0.0666
2968.00,0.0686
2967.00,0.0706
2966.00,0.0725
2965.00,0.0744
2964.00,0.0762
2963.00,0.0779
2962.00,0.0794
2961.00,0.0807
2960.00,0.0818
2959.00,0.0826
2958.00,0.0832
2957.00,0.0836
2956.00,0.0837
2955.00,0.0835
2954.00,0.0830
2953.00,0.0824
2952.00,0.0816
2951.00,0.0807
2950.00,0.0799
2949.00,0.0791
2948.00,0.0786
2947.00,0.0783
2946.00,0.0784
2945.00,0.0789
2944.00,0.0798
2943.00,0.0811
2942.00,0.0827
2941.00,0.0846
2940.00,0.0868
2939.00,0.0893
2938.00,0.0920
2937.00,0.0948
2936.00,0.0977
2935.00,0.1006
2934.00,0.1035
2933.00,0.1063
2932.00,0.1089
2931.00,0.1113
2930.00,0.1134
2929.00,0.1153
2928.00,0.1170
2927.00,0.1183
2926.00,0.1193
2925.00,0.1201
2924.00,0.1207
2923.00,0.1211
2922.00,0.1214
2921.00,0.1215
2920.00,0.1215
2919.00,0.1212
2918.00,0.1207
2917.00,0.1196
2916.00,0.1181
2915.00,0.1161
2914.00,0.1137
2913.00,0.1110
2912.00,0.1083
2911.00,0.1057
2910.00,0.1032
2909.00,0.1008
2908.00,0.0985
2907.00,0.0963
2906.00,0.0942
2905.00,0.0922
2904.00,0.0903
2903.00,0.0886
2902.00,0.0870
2901.00,0.0855
2900.00,0.0841
2899.00,0.0828
2898.00,0.0816
2897.00,0.0804
2896.00,0.0793
2895.00,0.0783
2894.00,0.0773
2893.00,0.0763
2892.00,0.0754
2891.00,0.0744
2890.00,0.0734
2889.00,0.0725
2888.00,0.0716
2887.00,0.0707
2886.00,0.0699
2885.00,0.0691
2884.00,0.0685
2883.00,0.0680
2882.00,0.0676
2881.00,0.0673
2880.00,0.0673
2879.00,0.0674
2878.00,0.0676
2877.00,0.0680
2876.00,0.0684
2875.00,0.0689
2874.00,0.0694
2873.00,0.0699
2872.00,0.0703
2871.00,0.0705
2870.00,0.0705
2869.00,0.0703
2868.00,0.0701
2867.00,0.0701
2866.00,0.0703
2865.00,0.0708
2864.00,0.0716
2863.00,0.0728
2862.00,0.0741
2861.00,0.0756
2860.00,0.0772
2859.00,0.0786
2858.00,0.0798
2857.00,0.0806
2856.00,0.0810
2855.00,0.0810
2854.00,0.0805
2853.00,0.0798
2852.00,0.0787
2851.00,0.0774
2850.00,0.0755
2849.00,0.0732
2848.00,0.0705
2847.00,0.0674
2846.00,0.0643
2845.00,0.0613
2844.00,0.0584
2843.00,0.0558
2842.00,0.0535
2841.00,0.0513
2840.00,0.0494
2839.00,0.0477
2838.00,0.0462
2837.00,0.0449
2836.00,0.0437
2835.00,0.0427
2834.00,0.0417
2833.00,0.0407
2832.00,0.0399
2831.00,0.0390
2830.00,0.0382
2829.00,0.0373
2828.00,0.0364
2827.00,0.0355
2826.00,0.0346
2825.00,0.0336
2824.00,0.0325
2823.00,0.0315
2822.00,0.0305
2821.00,0.0295
2820.00,0.0286
2819.00,0.0277
2818.00,0.0268
2817.00,0.0260
2816.00,0.0253
2815.00,0.0245
2814.00,0.0239
2813.00,0.0233
2812.00,0.0227
2811.00,0.0222
2810.00,0.0217
2809.00,0.0212
2808.00,0.0208
2807.00,0.0204
2806.00,0.0200
2805.00,0.0197
2804.00,0.0194
2803.00,0.0191
2802.00,0.0187
2801.00,0.0184
2800.00,0.0181
2799.00,0.0178
2798.00,0.0175
2797.00,0.0173
2796.00,0.0171
2795.00,0.0169
2794.00,0.0167
2793.00,0.0165
2792.00,0.0163
2791.00,0.0161
2790.00,0.0159
2789.00,0.0157
2788.00,0.0156
2787.00,0.0155
2786.00,0.0154
2785.00,0.0153
2784.00,0.0152
2783.00,0.0150
2782.00,0.0149
2781.00,0.0148
2780.00,0.0147
2779.00,0.0145
2778.00,0.0144
2777.00,0.0143
2776.00,0.0142
2775.00,0.0141
2774.00,0.0140
2773.00,0.0139
2772.00,0.0138
2771.00,0.0138
2770.00,0.0137
2769.00,0.0136
2768.00,0.0136
2767.00,0.0135
2766.00,0.0135
2765.00,0.0134
2764.00,0.0134
2763.00,0.0134
2762.00,0.0133
2761.00,0.0133
2760.00,0.0133
2759.00,0.0132
2758.00,0.0132
2757.00,0.0132
