Created as New Dataset,Sample 237 By YargerLab Date Sunday, October 05 2025
cm-1,A
4000.00,0.0026
3999.00,0.0026
3998.00,0.0026
3997.00,0.0026
3996.00,0.0026
3995.00,0.0026
3994.00,0.0026
3993.00,0.0026
3992.00,0.0026
3991.00,0.0026
3990.00,0.0026
3989.00,0.0026
3988.00,0.0026
3987.00,0.0025
3986.00,0.0026
3985.00,0.0026
3984.00,0.0025
3983.00,0.0025
3982.00,0.0025
3981.00,0.0025
3980.00,0.0025
3979.00,0.0025
3978.00,0.0025
3977.00,0.0025
3976.00,0.0025
3975.00,0.0025
3974.00,0.0025
3973.00,0.0025
3972.00,0.0025
3971.00,0.0025
3970.00,0.0025
3969.00,0.0025
3968.00,0.0025
3967.00,0.0025
3966.00,0.0025
3965.00,0.0025
3964.00,0.0025
3963.00,0.0025
3962.00,0.0025
3961.00,0.0025
3960.00,0.0025
3959.00,0.0025
3958.00,0.0025
3957.00,0.0025
3956.00,0.0025
3955.00,0.0025
3954.00,0.0025
3953.00,0.0025
3952.00,0.0025
3951.00,0.0025
3950.00,0.0025
3949.00,0.0025
3948.00,0.0024
3947.00,0.0024
3946.00,0.0024
3945.00,0.0025
3944.00,0.0025
3943.00,0.0025
3942.00,0.0024
3941.00,0.0024
3940.00,0.0024
3939.00,0.0024
3938.00,0.0024
3937.00,0.0024
3936.00,0.0024
3935.00,0.0024
3934.00,0.0024
3933.00,0.0024
3932.00,0.0024
3931.00,0.0024
3930.00,0.0024
3929.00,0.0024
3928.00,0.0024
3927.00,0.0024
3926.00,0.0024
3925.00,0.0024
3924.00,0.0024
3923.00,0.0024
3922.00,0.0024
3921.00,0.0024
3920.00,0.0024
3919.00,0.0024
3918.00,0.0024
3917.00,0.0024
3916.00,0.0024
3915.00,0.0024
3914.00,0.0024
3913.00,0.0024
3912.00,0.0024
3911.00,0.0024
3910.00,0.0024
3909.00,0.0024
3908.00,0.0024
3907.00,0.0024
3906.00,0.0024
3905.00,0.0024
3904.00,0.0024
3903.00,0.0024
3902.00,0.0024
3901.00,0.0024
3900.00,0.0024
3899.00,0.0023
3898.00,0.0023
3897.00,0.0023
3896.00,0.0023
3895.00,0.0023
3894.00,0.0024
3893.00,0.0024
3892.00,0.0024
3891.00,0.0024
3890.00,0.0024
3889.00,0.0024
3888.00,0.0024
3887.00,0.0024
3886.00,0.0024
3885.00,0.0024
3884.00,0.0024
3883.00,0.0025
3882.00,0.0024
3881.00,0.0024
3880.00,0.0024
3879.00,0.0023
3878.00,0.0023
3877.00,0.0024
3876.00,0.0024
3875.00,0.0024
3874.00,0.0024
3873.00,0.0024
3872.00,0.0024
3871.00,0.0024
3870.00,0.0024
3869.00,0.0024
3868.00,0.0024
3867.00,0.0024
3866.00,0.0024
3865.00,0.0024
3864.00,0.0024
3863.00,0.0024
3862.00,0.0024
3861.00,0.0024
3860.00,0.0024
3859.00,0.0024
3858.00,0.0024
3857.00,0.0024
3856.00,0.0025
3855.00,0.0025
3854.00,0.0025
3853.00,0.0025
3852.00,0.0025
3851.00,0.0025
3850.00,0.0025
3849.00,0.0024
3848.00,0.0024
3847.00,0.0023
3846.00,0.0023
3845.00,0.0024
3844.00,0.0024
3843.00,0.0024
3842.00,0.0024
3841.00,0.0024
3840.00,0.0024
3839.00,0.0024
3838.00,0.0024
3837.00,0.0025
3836.00,0.0025
3835.00,0.0025
3834.00,0.0024
3833.00,0.0024
3832.00,0.0024
3831.00,0.0024
3830.00,0.0024
3829.00,0.0024
3828.00,0.0023
3827.00,0.0023
3826.00,0.0023
3825.00,0.0024
3824.00,0.0024
3823.00,0.0024
3822.00,0.0024
3821.00,0.0024
3820.00,0.0024
3819.00,0.0024
3818.00,0.0025
3817.00,0.0024
3816.00,0.0024
3815.00,0.0024
3814.00,0.0024
3813.00,0.0024
3812.00,0.0024
3811.00,0.0024
3810.00,0.0023
3809.00,0.0023
3808.00,0.0023
3807.00,0.0023
3806.00,0.0024
3805.00,0.0024
3804.00,0.0024
3803.00,0.0024
3802.00,0.0023
3801.00,0.0023
3800.00,0.0023
3799.00,0.0023
3798.00,0.0023
3797.00,0.0023
3796.00,0.0023
3795.00,0.0023
3794.00,0.0023
3793.00,0.0023
3792.00,0.0023
3791.00,0.0023
3790.00,0.0023
3789.00,0.0023
3788.00,0.0023
3787.00,0.0023
3786.00,0.0022
3785.00,0.0022
3784.00,0.0022
3783.00,0.0022
3782.00,0.0022
3781.00,0.0022
3780.00,0.0022
3779.00,0.0022
3778.00,0.0022
3777.00,0.0022
3776.00,0.0022
3775.00,0.0022
3774.00,0.0022
3773.00,0.0023
3772.00,0.0023
3771.00,0.0023
3770.00,0.0023
3769.00,0.0022
3768.00,0.0022
3767.00,0.0022
3766.00,0.0022
3765.00,0.0022
3764.00,0.0022
3763.00,0.0022
3762.00,0.0022
3761.00,0.0022
3760.00,0.0022
3759.00,0.0022
3758.00,0.0022
3757.00,0.0022
3756.00,0.0022
3755.00,0.0023
3754.00,0.0023
3753.00,0.0023
3752.00,0.0023
3751.00,0.0023
3750.00,0.0023
3749.00,0.0023
3748.00,0.0023
3747.00,0.0024
3746.00,0.0024
3745.00,0.0023
3744.00,0.0023
3743.00,0.0023
3742.00,0.0023
3741.00,0.0023
3740.00,0.0022
3739.00,0.0022
3738.00,0.0022
3737.00,0.0022
3736.00,0.0021
3735.00,0.0021
3734.00,0.0021
3733.00,0.0021
3732.00,0.0021
3731.00,0.0021
3730.00,0.0021
3729.00,0.0021
3728.00,0.0021
3727.00,0.0021
3726.00,0.0021
3725.00,0.0021
3724.00,0.0021
3723.00,0.0021
3722.00,0.0021
3721.00,0.0020
3720.00,0.0020
3719.00,0.0021
3718.00,0.0021
3717.00,0.0021
3716.00,0.0021
3715.00,0.0021
3714.00,0.0021
3713.00,0.0021
3712.00,0.0021
3711.00,0.0021
3710.00,0.0021
3709.00,0.0021
3708.00,0.0021
3707.00,0.0021
3706.00,0.0021
3705.00,0.0021
3704.00,0.0021
3703.00,0.0021
3702.00,0.0021
3701.00,0.0021
3700.00,0.0021
3699.00,0.0021
3698.00,0.0021
3697.00,0.0021
3696.00,0.0021
3695.00,0.0021
3694.00,0.0021
3693.00,0.0021
3692.00,0.0022
3691.00,0.0022
3690.00,0.0022
3689.00,0.0022
3688.00,0.0022
3687.00,0.0022
3686.00,0.0023
3685.00,0.0023
3684.00,0.0023
3683.00,0.0023
3682.00,0.0023
3681.00,0.0023
3680.00,0.0023
3679.00,0.0023
3678.00,0.0023
3677.00,0.0023
3676.00,0.0023
3675.00,0.0023
3674.00,0.0024
3673.00,0.0024
3672.00,0.0024
3671.00,0.0024
3670.00,0.0024
3669.00,0.0023
3668.00,0.0023
3667.00,0.0023
3666.00,0.0023
3665.00,0.0023
3664.00,0.0023
3663.00,0.0023
3662.00,0.0023
3661.00,0.0023
3660.00,0.0023
3659.00,0.0023
3658.00,0.0023
3657.00,0.0023
3656.00,0.0023
3655.00,0.0023
3654.00,0.0024
3653.00,0.0024
3652.00,0.0024
3651.00,0.0024
3650.00,0.0023
3649.00,0.0024
3648.00,0.0024
3647.00,0.0024
3646.00,0.0025
3645.00,0.0025
3644.00,0.0025
3643.00,0.0025
3642.00,0.0026
3641.00,0.0026
3640.00,0.0026
3639.00,0.0026
3638.00,0.0027
3637.00,0.0027
3636.00,0.0027
3635.00,0.0028
3634.00,0.0028
3633.00,0.0029
3632.00,0.0030
3631.00,0.0031
3630.00,0.0031
3629.00,0.0031
3628.00,0.0031
3627.00,0.0032
3626.00,0.0032
3625.00,0.0032
3624.00,0.0032
3623.00,0.0033
3622.00,0.0033
3621.00,0.0034
3620.00,0.0034
3619.00,0.0034
3618.00,0.0035
3617.00,0.0035
3616.00,0.0035
3615.00,0.0035
3614.00,0.0036
3613.00,0.0036
3612.00,0.0037
3611.00,0.0037
3610.00,0.0038
3609.00,0.0038
3608.00,0.0038
3607.00,0.0039
3606.00,0.0039
3605.00,0.0039
3604.00,0.0040
3603.00,0.0040
3602.00,0.0040
3601.00,0.0040
3600.00,0.0041
3599.00,0.0041
3598.00,0.0042
3597.00,0.0042
3596.00,0.0043
3595.00,0.0043
3594.00,0.0043
3593.00,0.0044
3592.00,0.0045
3591.00,0.0045
3590.00,0.0046
3589.00,0.0046
3588.00,0.0046
3587.00,0.0046
3586.00,0.0046
3585.00,0.0047
3584.00,0.0047
3583.00,0.0048
3582.00,0.0049
3581.00,0.0050
3580.00,0.0050
3579.00,0.0051
3578.00,0.0051
3577.00,0.0052
3576.00,0.0053
3575.00,0.0053
3574.00,0.0054
3573.00,0.0055
3572.00,0.0055
3571.00,0.0056
3570.00,0.0056
3569.00,0.0057
3568.00,0.0057
3567.00,0.0058
3566.00,0.0059
3565.00,0.0059
3564.00,0.0060
3563.00,0.0060
3562.00,0.0061
3561.00,0.0062
3560.00,0.0063
3559.00,0.0064
3558.00,0.0065
3557.00,0.0066
3556.00,0.0067
3555.00,0.0067
3554.00,0.0068
3553.00,0.0069
3552.00,0.0070
3551.00,0.0071
3550.00,0.0071
3549.00,0.0072
3548.00,0.0073
3547.00,0.0073
3546.00,0.0074
3545.00,0.0075
3544.00,0.0076
3543.00,0.0077
3542.00,0.0078
3541.00,0.0079
3540.00,0.0080
3539.00,0.0081
3538.00,0.0082
3537.00,0.0083
3536.00,0.0084
3535.00,0.0085
3534.00,0.0086
3533.00,0.0087
3532.00,0.0088
3531.00,0.0089
3530.00,0.0090
3529.00,0.0091
3528.00,0.0092
3527.00,0.0093
3526.00,0.0094
3525.00,0.0095
3524.00,0.0096
3523.00,0.0097
3522.00,0.0098
3521.00,0.0099
3520.00,0.0100
3519.00,0.0101
3518.00,0.0102
3517.00,0.0104
3516.00,0.0105
3515.00,0.0106
3514.00,0.0107
3513.00,0.0108
3512.00,0.0109
3511.00,0.0110
3510.00,0.0112
3509.00,0.0113
3508.00,0.0114
3507.00,0.0116
3506.00,0.0117
3505.00,0.0118
3504.00,0.0119
3503.00,0.0121
3502.00,0.0122
3501.00,0.0123
3500.00,0.0124
3499.00,0.0125
3498.00,0.0127
3497.00,0.0128
3496.00,0.0130
3495.00,0.0131
3494.00,0.0132
3493.00,0.0133
3492.00,0.0135
3491.00,0.0136
3490.00,0.0137
3489.00,0.0138
3488.00,0.0140
3487.00,0.0142
3486.00,0.0143
3485.00,0.0145
3484.00,0.0146
3483.00,0.0148
3482.00,0.0149
3481.00,0.0151
3480.00,0.0153
3479.00,0.0154
3478.00,0.0156
3477.00,0.0158
3476.00,0.0159
3475.00,0.0160
3474.00,0.0162
3473.00,0.0163
3472.00,0.0164
3471.00,0.0166
3470.00,0.0167
3469.00,0.0169
3468.00,0.0171
3467.00,0.0173
3466.00,0.0174
3465.00,0.0176
3464.00,0.0177
3463.00,0.0179
3462.00,0.0180
3461.00,0.0182
3460.00,0.0184
3459.00,0.0186
3458.00,0.0188
3457.00,0.0190
3456.00,0.0192
3455.00,0.0193
3454.00,0.0195
3453.00,0.0197
3452.00,0.0198
3451.00,0.0200
3450.00,0.0202
3449.00,0.0204
3448.00,0.0206
3447.00,0.0209
3446.00,0.0211
3445.00,0.0213
3444.00,0.0215
3443.00,0.0216
3442.00,0.0218
3441.00,0.0220
3440.00,0.0223
3439.00,0.0225
3438.00,0.0227
3437.00,0.0229
3436.00,0.0231
3435.00,0.0233
3434.00,0.0235
3433.00,0.0237
3432.00,0.0239
3431.00,0.0242
3430.00,0.0244
3429.00,0.0246
3428.00,0.0249
3427.00,0.0251
3426.00,0.0253
3425.00,0.0255
3424.00,0.0258
3423.00,0.0261
3422.00,0.0263
3421.00,0.0266
3420.00,0.0268
3419.00,0.0271
3418.00,0.0273
3417.00,0.0276
3416.00,0.0278
3415.00,0.0281
3414.00,0.0283
3413.00,0.0286
3412.00,0.0289
3411.00,0.0291
3410.00,0.0294
3409.00,0.0296
3408.00,0.0299
3407.00,0.0302
3406.00,0.0304
3405.00,0.0307
3404.00,0.0310
3403.00,0.0313
3402.00,0.0316
3401.00,0.0319
3400.00,0.0322
3399.00,0.0324
3398.00,0.0327
3397.00,0.0330
3396.00,0.0333
3395.00,0.0335
3394.00,0.0338
3393.00,0.0341
3392.00,0.0344
3391.00,0.0347
3390.00,0.0350
3389.00,0.0354
3388.00,0.0357
3387.00,0.0360
3386.00,0.0363
3385.00,0.0366
3384.00,0.0369
3383.00,0.0372
3382.00,0.0375
3381.00,0.0378
3380.00,0.0381
3379.00,0.0384
3378.00,0.0388
3377.00,0.0391
3376.00,0.0394
3375.00,0.0397
3374.00,0.0399
3373.00,0.0402
3372.00,0.0404
3371.00,0.0406
3370.00,0.0409
3369.00,0.0411
3368.00,0.0414
3367.00,0.0418
3366.00,0.0421
3365.00,0.0425
3364.00,0.0428
3363.00,0.0431
3362.00,0.0434
3361.00,0.0436
3360.00,0.0439
3359.00,0.0441
3358.00,0.0444
3357.00,0.0447
3356.00,0.0450
3355.00,0.0452
3354.00,0.0454
3353.00,0.0456
3352.00,0.0458
3351.00,0.0460
3350.00,0.0463
3349.00,0.0466
3348.00,0.0469
3347.00,0.0472
3346.00,0.0474
3345.00,0.0476
3344.00,0.0478
3343.00,0.0480
3342.00,0.0482
3341.00,0.0484
3340.00,0.0485
3339.00,0.0487
3338.00,0.0490
3337.00,0.0493
3336.00,0.0496
3335.00,0.0500
3334.00,0.0502
3333.00,0.0505
3332.00,0.0507
3331.00,0.0509
3330.00,0.0511
3329.00,0.0512
3328.00,0.0513
3327.00,0.0514
3326.00,0.0515
3325.00,0.0518
3324.00,0.0520
3323.00,0.0523
3322.00,0.0526
3321.00,0.0528
3320.00,0.0530
3319.00,0.0532
3318.00,0.0534
3317.00,0.0535
3316.00,0.0537
3315.00,0.0538
3314.00,0.0539
3313.00,0.0540
3312.00,0.0541
3311.00,0.0541
3310.00,0.0540
3309.00,0.0540
3308.00,0.0539
3307.00,0.0540
3306.00,0.0542
3305.00,0.0545
3304.00,0.0548
3303.00,0.0552
3302.00,0.0555
3301.00,0.0556
3300.00,0.0558
3299.00,0.0558
3298.00,0.0558
3297.00,0.0557
3296.00,0.0557
3295.00,0.0557
3294.00,0.0558
3293.00,0.0559
3292.00,0.0560
3291.00,0.0562
3290.00,0.0564
3289.00,0.0566
3288.00,0.0567
3287.00,0.0567
3286.00,0.0568
3285.00,0.0568
3284.00,0.0569
3283.00,0.0569
3282.00,0.0570
3281.00,0.0570
3280.00,0.0570
3279.00,0.0570
3278.00,0.0570
3277.00,0.0570
3276.00,0.0570
3275.00,0.0570
3274.00,0.0569
3273.00,0.0569
3272.00,0.0569
3271.00,0.0569
3270.00,0.0570
3269.00,0.0571
3268.00,0.0571
3267.00,0.0572
3266.00,0.0572
3265.00,0.0572
3264.00,0.0572
3263.00,0.0572
3262.00,0.0572
3261.00,0.0572
3260.00,0.0572
3259.00,0.0571
3258.00,0.0571
3257.00,0.0571
3256.00,0.0571
3255.00,0.0571
3254.00,0.0571
3253.00,0.0571
3252.00,0.0571
3251.00,0.0571
3250.00,0.0570
3249.00,0.0569
3248.00,0.0569
3247.00,0.0568
3246.00,0.0568
3245.00,0.0568
3244.00,0.0568
3243.00,0.0568
3242.00,0.0567
3241.00,0.0567
3240.00,0.0567
3239.00,0.0566
3238.00,0.0566
3237.00,0.0565
3236.00,0.0564
3235.00,0.0562
3234.00,0.0561
3233.00,0.0561
3232.00,0.0561
3231.00,0.0560
3230.00,0.0560
3229.00,0.0559
3228.00,0.0559
3227.00,0.0558
3226.00,0.0558
3225.00,0.0557
3224.00,0.0556
3223.00,0.0555
3222.00,0.0554
3221.00,0.0554
3220.00,0.0554
3219.00,0.0553
3218.00,0.0553
3217.00,0.0552
3216.00,0.0552
3215.00,0.0551
3214.00,0.0551
3213.00,0.0551
3212.00,0.0551
3211.00,0.0551
3210.00,0.0551
3209.00,0.0550
3208.00,0.0550
3207.00,0.0549
3206.00,0.0549
3205.00,0.0548
3204.00,0.0547
3203.00,0.0547
3202.00,0.0546
3201.00,0.0545
3200.00,0.0544
3199.00,0.0543
3198.00,0.0542
3197.00,0.0540
3196.00,0.0539
3195.00,0.0537
3194.00,0.0536
3193.00,0.0535
3192.00,0.0533
3191.00,0.0531
3190.00,0.0530
3189.00,0.0528
3188.00,0.0526
3187.00,0.0524
3186.00,0.0522
3185.00,0.0521
3184.00,0.0519
3183.00,0.0517
3182.00,0.0515
3181.00,0.0513
3180.00,0.0511
3179.00,0.0509
3178.00,0.0507
3177.00,0.0505
3176.00,0.0503
3175.00,0.0501
3174.00,0.0499
3173.00,0.0496
3172.00,0.0494
3171.00,0.0492
3170.00,0.0489
3169.00,0.0487
3168.00,0.0484
3167.00,0.0482
3166.00,0.0480
3165.00,0.0477
3164.00,0.0475
3163.00,0.0473
3162.00,0.0471
3161.00,0.0468
3160.00,0.0466
3159.00,0.0463
3158.00,0.0461
3157.00,0.0458
3156.00,0.0456
3155.00,0.0453
3154.00,0.0451
3153.00,0.0449
3152.00,0.0446
3151.00,0.0444
3150.00,0.0442
3149.00,0.0440
3148.00,0.0438
3147.00,0.0436
3146.00,0.0434
3145.00,0.0432
3144.00,0.0430
3143.00,0.0428
3142.00,0.0426
3141.00,0.0424
3140.00,0.0423
3139.00,0.0421
3138.00,0.0419
3137.00,0.0418
3136.00,0.0416
3135.00,0.0415
3134.00,0.0413
3133.00,0.0411
3132.00,0.0410
3131.00,0.0408
3130.00,0.0406
3129.00,0.0404
3128.00,0.0402
3127.00,0.0400
3126.00,0.0398
3125.00,0.0396
3124.00,0.0394
3123.00,0.0392
3122.00,0.0389
3121.00,0.0387
3120.00,0.0385
3119.00,0.0382
3118.00,0.0380
3117.00,0.0377
3116.00,0.0375
3115.00,0.0372
3114.00,0.0370
3113.00,0.0367
3112.00,0.0365
3111.00,0.0362
3110.00,0.0360
3109.00,0.0357
3108.00,0.0355
3107.00,0.0352
3106.00,0.0350
3105.00,0.0347
3104.00,0.0345
3103.00,0.0342
3102.00,0.0340
3101.00,0.0338
3100.00,0.0335
3099.00,0.0333
3098.00,0.0331
3097.00,0.0329
3096.00,0.0326
3095.00,0.0324
3094.00,0.0322
3093.00,0.0319
3092.00,0.0317
3091.00,0.0315
3090.00,0.0313
3089.00,0.0310
3088.00,0.0308
3087.00,0.0307
3086.00,0.0305
3085.00,0.0303
3084.00,0.0301
3083.00,0.0300
3082.00,0.0298
3081.00,0.0296
3080.00,0.0294
3079.00,0.0293
3078.00,0.0291
3077.00,0.0289
3076.00,0.0288
3075.00,0.0287
3074.00,0.0285
3073.00,0.0284
3072.00,0.0283
3071.00,0.0281
3070.00,0.0280
3069.00,0.0279
3068.00,0.0278
3067.00,0.0277
3066.00,0.0276
3065.00,0.0275
3064.00,0.0275
3063.00,0.0274
3062.00,0.0274
3061.00,0.0273
3060.00,0.0272
3059.00,0.0272
3058.00,0.0271
3057.00,0.0271
3056.00,0.0270
3055.00,0.0270
3054.00,0.0269
3053.00,0.0268
3052.00,0.0268
3051.00,0.0267
3050.00,0.0266
3049.00,0.0265
3048.00,0.0263
3047.00,0.0262
3046.00,0.0260
3045.00,0.0259
3044.00,0.0258
3043.00,0.0257
3042.00,0.0256
3041.00,0.0256
3040.00,0.0255
3039.00,0.0255
3038.00,0.0254
3037.00,0.0254
3036.00,0.0254
3035.00,0.0255
3034.00,0.0255
3033.00,0.0255
3032.00,0.0255
3031.00,0.0255
3030.00,0.0256
3029.00,0.0256
3028.00,0.0256
3027.00,0.0256
3026.00,0.0256
3025.00,0.0255
3024.00,0.0255
3023.00,0.0255
3022.00,0.0254
3021.00,0.0254
3020.00,0.0253
3019.00,0.0253
3018.00,0.0253
3017.00,0.0253
3016.00,0.0253
3015.00,0.0254
3014.00,0.0254
3013.00,0.0255
3012.00,0.0257
3011.00,0.0259
3010.00,0.0261
3009.00,0.0264
3008.00,0.0267
3007.00,0.0270
3006.00,0.0273
3005.00,0.0277
3004.00,0.0281
3003.00,0.0286
3002.00,0.0291
3001.00,0.0297
3000.00,0.0303
2999.00,0.0310
2998.00,0.0317
2997.00,0.0326
2996.00,0.0334
2995.00,0.0344
2994.00,0.0353
2993.00,0.0363
2992.00,0.0373
2991.00,0.0383
2990.00,0.0393
2989.00,0.0404
2988.00,0.0414
2987.00,0.0423
2986.00,0.0432
2985.00,0.0440
2984.00,0.0447
2983.00,0.0454
2982.00,0.0461
2981.00,0.0468
2980.00,0.0477
2979.00,0.0486
2978.00,0.0497
2977.00,0.0507
2976.00,0.0518
2975.00,0.0529
2974.00,0.0541
2973.00,0.0554
2972.00,0.0568
2971.00,0.0583
2970.00,0.0600
2969.00,0.0617
2968.00,0.0635
2967.00,0.0654
2966.00,0.0672
2965.00,0.0689
2964.00,0.0706
2963.00,0.0721
2962.00,0.0735
2961.00,0.0748
2960.00,0.0758
2959.00,0.0766
2958.00,0.0772
2957.00,0.0776
2956.00,0.0777
2955.00,0.0775
2954.00,0.0771
2953.00,0.0765
2952.00,0.0758
2951.00,0.0750
2950.00,0.0742
2949.00,0.0735
2948.00,0.0730
2947.00,0.0727
2946.00,0.0727
2945.00,0.0731
2944.00,0.0738
2943.00,0.0749
2942.00,0.0763
2941.00,0.0780
2940.00,0.0800
2939.00,0.0822
2938.00,0.0846
2937.00,0.0871
2936.00,0.0898
2935.00,0.0925
2934.00,0.0951
2933.00,0.0977
2932.00,0.1001
2931.00,0.1024
2930.00,0.1044
2929.00,0.1061
2928.00,0.1076
2927.00,0.1088
2926.00,0.1098
2925.00,0.1105
2924.00,0.1110
2923.00,0.1113
2922.00,0.1114
2921.00,0.1115
2920.00,0.1113
2919.00,0.1109
2918.00,0.1103
2917.00,0.1093
2916.00,0.1080
2915.00,0.1062
2914.00,0.1042
2913.00,0.1020
2912.00,0.0998
2911.00,0.0976
2910.00,0.0954
2909.00,0.0933
2908.00,0.0912
2907.00,0.0892
2906.00,0.0873
2905.00,0.0855
2904.00,0.0838
2903.00,0.0822
2902.00,0.0807
2901.00,0.0794
2900.00,0.0781
2899.00,0.0770
2898.00,0.0759
2897.00,0.0749
2896.00,0.0739
2895.00,0.0730
2894.00,0.0722
2893.00,0.0713
2892.00,0.0705
2891.00,0.0696
2890.00,0.0687
2889.00,0.0679
2888.00,0.0671
2887.00,0.0664
2886.00,0.0657
2885.00,0.0650
2884.00,0.0644
2883.00,0.0640
2882.00,0.0636
2881.00,0.0634
2880.00,0.0634
2879.00,0.0635
2878.00,0.0637
2877.00,0.0640
2876.00,0.0644
2875.00,0.0649
2874.00,0.0655
2873.00,0.0659
2872.00,0.0663
2871.00,0.0665
2870.00,0.0665
2869.00,0.0664
2868.00,0.0663
2867.00,0.0662
2866.00,0.0664
2865.00,0.0669
2864.00,0.0676
2863.00,0.0687
2862.00,0.0699
2861.00,0.0712
2860.00,0.0726
2859.00,0.0739
2858.00,0.0750
2857.00,0.0757
2856.00,0.0761
2855.00,0.0760
2854.00,0.0755
2853.00,0.0747
2852.00,0.0735
2851.00,0.0721
2850.00,0.0702
2849.00,0.0680
2848.00,0.0655
2847.00,0.0628
2846.00,0.0600
2845.00,0.0574
2844.00,0.0548
2843.00,0.0525
2842.00,0.0502
2841.00,0.0482
2840.00,0.0463
2839.00,0.0446
2838.00,0.0431
2837.00,0.0418
2836.00,0.0406
2835.00,0.0395
2834.00,0.0384
2833.00,0.0374
2832.00,0.0365
2831.00,0.0356
2830.00,0.0348
2829.00,0.0339
2828.00,0.0330
2827.00,0.0321
2826.00,0.0312
2825.00,0.0302
2824.00,0.0293
2823.00,0.0284
2822.00,0.0275
2821.00,0.0266
2820.00,0.0257
2819.00,0.0250
2818.00,0.0242
2817.00,0.0235
2816.00,0.0229
2815.00,0.0223
2814.00,0.0218
2813.00,0.0212
2812.00,0.0207
2811.00,0.0203
2810.00,0.0199
2809.00,0.0196
2808.00,0.0193
2807.00,0.0190
2806.00,0.0187
2805.00,0.0184
2804.00,0.0181
2803.00,0.0179
2802.00,0.0176
2801.00,0.0173
2800.00,0.0171
2799.00,0.0168
2798.00,0.0166
2797.00,0.0165
2796.00,0.0163
2795.00,0.0161
2794.00,0.0159
2793.00,0.0158
2792.00,0.0156
2791.00,0.0155
2790.00,0.0153
2789.00,0.0152
2788.00,0.0151
2787.00,0.0150
2786.00,0.0149
2785.00,0.0148
2784.00,0.0147
2783.00,0.0146
2782.00,0.0145
2781.00,0.0145
2780.00,0.0144
2779.00,0.0143
2778.00,0.0142
2777.00,0.0141
2776.00,0.0140
2775.00,0.0139
2774.00,0.0138
2773.00,0.0137
2772.00,0.0137
2771.00,0.0136
2770.00,0.0136
2769.00,0.0135
2768.00,0.0135
2767.00,0.0135
2766.00,0.0134
2765.00,0.0134
2764.00,0.0134
2763.00,0.0133
2762.00,0.0133
2761.00,0.0133
2760.00,0.0133
2759.00,0.0133
2758.00,0.0133
2757.00,0.0133
