Created as New Dataset,Sample 269 By YargerLab Date Saturday, October 18 2025
cm-1,A
4000.00,0.0045
3999.00,0.0045
3998.00,0.0045
3997.00,0.0045
3996.00,0.0045
3995.00,0.0045
3994.00,0.0045
3993.00,0.0045
3992.00,0.0045
3991.00,0.0045
3990.00,0.0045
3989.00,0.0045
3988.00,0.0044
3987.00,0.0045
3986.00,0.0045
3985.00,0.0045
3984.00,0.0044
3983.00,0.0044
3982.00,0.0044
3981.00,0.0044
3980.00,0.0044
3979.00,0.0044
3978.00,0.0044
3977.00,0.0044
3976.00,0.0044
3975.00,0.0044
3974.00,0.0044
3973.00,0.0044
3972.00,0.0044
3971.00,0.0044
3970.00,0.0044
3969.00,0.0044
3968.00,0.0044
3967.00,0.0044
3966.00,0.0044
3965.00,0.0044
3964.00,0.0044
3963.00,0.0044
3962.00,0.0044
3961.00,0.0044
3960.00,0.0044
3959.00,0.0044
3958.00,0.0044
3957.00,0.0044
3956.00,0.0044
3955.00,0.0044
3954.00,0.0044
3953.00,0.0044
3952.00,0.0044
3951.00,0.0044
3950.00,0.0044
3949.00,0.0043
3948.00,0.0043
3947.00,0.0043
3946.00,0.0043
3945.00,0.0043
3944.00,0.0043
3943.00,0.0043
3942.00,0.0043
3941.00,0.0043
3940.00,0.0043
3939.00,0.0043
3938.00,0.0043
3937.00,0.0043
3936.00,0.0043
3935.00,0.0044
3934.00,0.0044
3933.00,0.0044
3932.00,0.0044
3931.00,0.0044
3930.00,0.0044
3929.00,0.0044
3928.00,0.0044
3927.00,0.0044
3926.00,0.0044
3925.00,0.0044
3924.00,0.0044
3923.00,0.0044
3922.00,0.0044
3921.00,0.0044
3920.00,0.0044
3919.00,0.0044
3918.00,0.0044
3917.00,0.0043
3916.00,0.0043
3915.00,0.0044
3914.00,0.0044
3913.00,0.0044
3912.00,0.0044
3911.00,0.0044
3910.00,0.0044
3909.00,0.0044
3908.00,0.0044
3907.00,0.0044
3906.00,0.0044
3905.00,0.0044
3904.00,0.0044
3903.00,0.0044
3902.00,0.0044
3901.00,0.0044
3900.00,0.0044
3899.00,0.0044
3898.00,0.0043
3897.00,0.0043
3896.00,0.0043
3895.00,0.0043
3894.00,0.0044
3893.00,0.0044
3892.00,0.0043
3891.00,0.0043
3890.00,0.0043
3889.00,0.0044
3888.00,0.0044
3887.00,0.0043
3886.00,0.0043
3885.00,0.0043
3884.00,0.0043
3883.00,0.0043
3882.00,0.0043
3881.00,0.0043
3880.00,0.0044
3879.00,0.0044
3878.00,0.0044
3877.00,0.0044
3876.00,0.0044
3875.00,0.0044
3874.00,0.0044
3873.00,0.0044
3872.00,0.0044
3871.00,0.0044
3870.00,0.0043
3869.00,0.0043
3868.00,0.0044
3867.00,0.0044
3866.00,0.0044
3865.00,0.0044
3864.00,0.0044
3863.00,0.0044
3862.00,0.0044
3861.00,0.0043
3860.00,0.0043
3859.00,0.0043
3858.00,0.0043
3857.00,0.0044
3856.00,0.0044
3855.00,0.0044
3854.00,0.0044
3853.00,0.0044
3852.00,0.0044
3851.00,0.0044
3850.00,0.0044
3849.00,0.0044
3848.00,0.0043
3847.00,0.0043
3846.00,0.0043
3845.00,0.0043
3844.00,0.0044
3843.00,0.0044
3842.00,0.0044
3841.00,0.0044
3840.00,0.0044
3839.00,0.0044
3838.00,0.0044
3837.00,0.0044
3836.00,0.0044
3835.00,0.0044
3834.00,0.0044
3833.00,0.0044
3832.00,0.0044
3831.00,0.0044
3830.00,0.0044
3829.00,0.0044
3828.00,0.0044
3827.00,0.0044
3826.00,0.0044
3825.00,0.0044
3824.00,0.0044
3823.00,0.0044
3822.00,0.0044
3821.00,0.0044
3820.00,0.0044
3819.00,0.0045
3818.00,0.0044
3817.00,0.0044
3816.00,0.0044
3815.00,0.0044
3814.00,0.0044
3813.00,0.0044
3812.00,0.0044
3811.00,0.0043
3810.00,0.0043
3809.00,0.0043
3808.00,0.0043
3807.00,0.0043
3806.00,0.0043
3805.00,0.0044
3804.00,0.0044
3803.00,0.0043
3802.00,0.0043
3801.00,0.0043
3800.00,0.0043
3799.00,0.0043
3798.00,0.0043
3797.00,0.0042
3796.00,0.0042
3795.00,0.0043
3794.00,0.0043
3793.00,0.0043
3792.00,0.0043
3791.00,0.0043
3790.00,0.0043
3789.00,0.0043
3788.00,0.0043
3787.00,0.0042
3786.00,0.0042
3785.00,0.0042
3784.00,0.0042
3783.00,0.0042
3782.00,0.0042
3781.00,0.0042
3780.00,0.0042
3779.00,0.0042
3778.00,0.0042
3777.00,0.0043
3776.00,0.0043
3775.00,0.0043
3774.00,0.0043
3773.00,0.0043
3772.00,0.0043
3771.00,0.0043
3770.00,0.0043
3769.00,0.0043
3768.00,0.0043
3767.00,0.0043
3766.00,0.0043
3765.00,0.0043
3764.00,0.0043
3763.00,0.0043
3762.00,0.0043
3761.00,0.0043
3760.00,0.0043
3759.00,0.0043
3758.00,0.0043
3757.00,0.0043
3756.00,0.0042
3755.00,0.0043
3754.00,0.0043
3753.00,0.0043
3752.00,0.0043
3751.00,0.0043
3750.00,0.0043
3749.00,0.0044
3748.00,0.0044
3747.00,0.0044
3746.00,0.0044
3745.00,0.0043
3744.00,0.0043
3743.00,0.0043
3742.00,0.0043
3741.00,0.0042
3740.00,0.0042
3739.00,0.0042
3738.00,0.0042
3737.00,0.0042
3736.00,0.0042
3735.00,0.0042
3734.00,0.0042
3733.00,0.0041
3732.00,0.0041
3731.00,0.0041
3730.00,0.0041
3729.00,0.0041
3728.00,0.0041
3727.00,0.0041
3726.00,0.0041
3725.00,0.0041
3724.00,0.0041
3723.00,0.0041
3722.00,0.0041
3721.00,0.0041
3720.00,0.0041
3719.00,0.0041
3718.00,0.0041
3717.00,0.0041
3716.00,0.0041
3715.00,0.0041
3714.00,0.0042
3713.00,0.0042
3712.00,0.0042
3711.00,0.0041
3710.00,0.0041
3709.00,0.0041
3708.00,0.0041
3707.00,0.0041
3706.00,0.0041
3705.00,0.0041
3704.00,0.0040
3703.00,0.0040
3702.00,0.0041
3701.00,0.0041
3700.00,0.0041
3699.00,0.0041
3698.00,0.0041
3697.00,0.0041
3696.00,0.0041
3695.00,0.0041
3694.00,0.0041
3693.00,0.0041
3692.00,0.0041
3691.00,0.0041
3690.00,0.0041
3689.00,0.0041
3688.00,0.0041
3687.00,0.0041
3686.00,0.0042
3685.00,0.0042
3684.00,0.0042
3683.00,0.0042
3682.00,0.0042
3681.00,0.0043
3680.00,0.0043
3679.00,0.0043
3678.00,0.0044
3677.00,0.0044
3676.00,0.0044
3675.00,0.0044
3674.00,0.0044
3673.00,0.0044
3672.00,0.0044
3671.00,0.0043
3670.00,0.0043
3669.00,0.0043
3668.00,0.0043
3667.00,0.0043
3666.00,0.0042
3665.00,0.0042
3664.00,0.0042
3663.00,0.0042
3662.00,0.0042
3661.00,0.0042
3660.00,0.0042
3659.00,0.0042
3658.00,0.0043
3657.00,0.0043
3656.00,0.0043
3655.00,0.0044
3654.00,0.0044
3653.00,0.0044
3652.00,0.0044
3651.00,0.0044
3650.00,0.0044
3649.00,0.0045
3648.00,0.0045
3647.00,0.0045
3646.00,0.0044
3645.00,0.0044
3644.00,0.0044
3643.00,0.0044
3642.00,0.0044
3641.00,0.0044
3640.00,0.0044
3639.00,0.0045
3638.00,0.0045
3637.00,0.0045
3636.00,0.0045
3635.00,0.0045
3634.00,0.0045
3633.00,0.0045
3632.00,0.0046
3631.00,0.0046
3630.00,0.0046
3629.00,0.0046
3628.00,0.0046
3627.00,0.0047
3626.00,0.0047
3625.00,0.0047
3624.00,0.0047
3623.00,0.0047
3622.00,0.0048
3621.00,0.0048
3620.00,0.0048
3619.00,0.0048
3618.00,0.0048
3617.00,0.0048
3616.00,0.0048
3615.00,0.0048
3614.00,0.0049
3613.00,0.0049
3612.00,0.0050
3611.00,0.0050
3610.00,0.0050
3609.00,0.0050
3608.00,0.0050
3607.00,0.0050
3606.00,0.0050
3605.00,0.0050
3604.00,0.0050
3603.00,0.0050
3602.00,0.0050
3601.00,0.0050
3600.00,0.0050
3599.00,0.0050
3598.00,0.0050
3597.00,0.0051
3596.00,0.0051
3595.00,0.0051
3594.00,0.0051
3593.00,0.0051
3592.00,0.0052
3591.00,0.0052
3590.00,0.0052
3589.00,0.0052
3588.00,0.0052
3587.00,0.0052
3586.00,0.0053
3585.00,0.0053
3584.00,0.0053
3583.00,0.0054
3582.00,0.0054
3581.00,0.0054
3580.00,0.0054
3579.00,0.0055
3578.00,0.0055
3577.00,0.0055
3576.00,0.0055
3575.00,0.0056
3574.00,0.0056
3573.00,0.0056
3572.00,0.0057
3571.00,0.0058
3570.00,0.0058
3569.00,0.0059
3568.00,0.0059
3567.00,0.0058
3566.00,0.0058
3565.00,0.0058
3564.00,0.0058
3563.00,0.0059
3562.00,0.0059
3561.00,0.0060
3560.00,0.0060
3559.00,0.0061
3558.00,0.0061
3557.00,0.0062
3556.00,0.0062
3555.00,0.0063
3554.00,0.0063
3553.00,0.0064
3552.00,0.0064
3551.00,0.0065
3550.00,0.0065
3549.00,0.0065
3548.00,0.0066
3547.00,0.0066
3546.00,0.0067
3545.00,0.0067
3544.00,0.0067
3543.00,0.0067
3542.00,0.0068
3541.00,0.0069
3540.00,0.0069
3539.00,0.0070
3538.00,0.0071
3537.00,0.0071
3536.00,0.0072
3535.00,0.0072
3534.00,0.0072
3533.00,0.0072
3532.00,0.0073
3531.00,0.0074
3530.00,0.0074
3529.00,0.0075
3528.00,0.0075
3527.00,0.0076
3526.00,0.0077
3525.00,0.0077
3524.00,0.0078
3523.00,0.0078
3522.00,0.0079
3521.00,0.0079
3520.00,0.0080
3519.00,0.0080
3518.00,0.0081
3517.00,0.0082
3516.00,0.0082
3515.00,0.0083
3514.00,0.0083
3513.00,0.0084
3512.00,0.0084
3511.00,0.0085
3510.00,0.0085
3509.00,0.0086
3508.00,0.0086
3507.00,0.0087
3506.00,0.0088
3505.00,0.0089
3504.00,0.0090
3503.00,0.0090
3502.00,0.0091
3501.00,0.0091
3500.00,0.0092
3499.00,0.0092
3498.00,0.0093
3497.00,0.0093
3496.00,0.0094
3495.00,0.0095
3494.00,0.0096
3493.00,0.0097
3492.00,0.0098
3491.00,0.0099
3490.00,0.0099
3489.00,0.0100
3488.00,0.0101
3487.00,0.0101
3486.00,0.0102
3485.00,0.0103
3484.00,0.0104
3483.00,0.0104
3482.00,0.0105
3481.00,0.0105
3480.00,0.0106
3479.00,0.0107
3478.00,0.0108
3477.00,0.0108
3476.00,0.0109
3475.00,0.0110
3474.00,0.0111
3473.00,0.0111
3472.00,0.0112
3471.00,0.0113
3470.00,0.0114
3469.00,0.0115
3468.00,0.0116
3467.00,0.0117
3466.00,0.0118
3465.00,0.0118
3464.00,0.0119
3463.00,0.0120
3462.00,0.0121
3461.00,0.0122
3460.00,0.0123
3459.00,0.0124
3458.00,0.0125
3457.00,0.0126
3456.00,0.0127
3455.00,0.0128
3454.00,0.0129
3453.00,0.0129
3452.00,0.0130
3451.00,0.0131
3450.00,0.0133
3449.00,0.0134
3448.00,0.0135
3447.00,0.0135
3446.00,0.0136
3445.00,0.0138
3444.00,0.0139
3443.00,0.0140
3442.00,0.0141
3441.00,0.0142
3440.00,0.0143
3439.00,0.0144
3438.00,0.0145
3437.00,0.0146
3436.00,0.0147
3435.00,0.0148
3434.00,0.0149
3433.00,0.0150
3432.00,0.0151
3431.00,0.0153
3430.00,0.0154
3429.00,0.0155
3428.00,0.0156
3427.00,0.0157
3426.00,0.0159
3425.00,0.0160
3424.00,0.0161
3423.00,0.0162
3422.00,0.0164
3421.00,0.0165
3420.00,0.0166
3419.00,0.0167
3418.00,0.0168
3417.00,0.0170
3416.00,0.0172
3415.00,0.0173
3414.00,0.0175
3413.00,0.0176
3412.00,0.0177
3411.00,0.0178
3410.00,0.0180
3409.00,0.0181
3408.00,0.0182
3407.00,0.0184
3406.00,0.0185
3405.00,0.0186
3404.00,0.0188
3403.00,0.0190
3402.00,0.0191
3401.00,0.0193
3400.00,0.0195
3399.00,0.0196
3398.00,0.0198
3397.00,0.0199
3396.00,0.0201
3395.00,0.0202
3394.00,0.0203
3393.00,0.0205
3392.00,0.0206
3391.00,0.0208
3390.00,0.0210
3389.00,0.0212
3388.00,0.0214
3387.00,0.0215
3386.00,0.0217
3385.00,0.0219
3384.00,0.0220
3383.00,0.0222
3382.00,0.0224
3381.00,0.0225
3380.00,0.0227
3379.00,0.0229
3378.00,0.0230
3377.00,0.0232
3376.00,0.0233
3375.00,0.0235
3374.00,0.0236
3373.00,0.0238
3372.00,0.0239
3371.00,0.0240
3370.00,0.0241
3369.00,0.0243
3368.00,0.0244
3367.00,0.0246
3366.00,0.0248
3365.00,0.0250
3364.00,0.0252
3363.00,0.0254
3362.00,0.0255
3361.00,0.0256
3360.00,0.0258
3359.00,0.0259
3358.00,0.0261
3357.00,0.0262
3356.00,0.0264
3355.00,0.0265
3354.00,0.0266
3353.00,0.0267
3352.00,0.0268
3351.00,0.0269
3350.00,0.0271
3349.00,0.0272
3348.00,0.0274
3347.00,0.0275
3346.00,0.0277
3345.00,0.0278
3344.00,0.0278
3343.00,0.0279
3342.00,0.0280
3341.00,0.0282
3340.00,0.0283
3339.00,0.0284
3338.00,0.0285
3337.00,0.0287
3336.00,0.0289
3335.00,0.0290
3334.00,0.0291
3333.00,0.0293
3332.00,0.0294
3331.00,0.0295
3330.00,0.0296
3329.00,0.0296
3328.00,0.0297
3327.00,0.0297
3326.00,0.0298
3325.00,0.0299
3324.00,0.0300
3323.00,0.0302
3322.00,0.0303
3321.00,0.0305
3320.00,0.0306
3319.00,0.0307
3318.00,0.0308
3317.00,0.0309
3316.00,0.0310
3315.00,0.0310
3314.00,0.0311
3313.00,0.0311
3312.00,0.0311
3311.00,0.0310
3310.00,0.0309
3309.00,0.0309
3308.00,0.0309
3307.00,0.0309
3306.00,0.0310
3305.00,0.0311
3304.00,0.0313
3303.00,0.0315
3302.00,0.0317
3301.00,0.0318
3300.00,0.0318
3299.00,0.0318
3298.00,0.0318
3297.00,0.0318
3296.00,0.0318
3295.00,0.0318
3294.00,0.0318
3293.00,0.0319
3292.00,0.0320
3291.00,0.0321
3290.00,0.0322
3289.00,0.0322
3288.00,0.0323
3287.00,0.0323
3286.00,0.0324
3285.00,0.0324
3284.00,0.0324
3283.00,0.0324
3282.00,0.0324
3281.00,0.0325
3280.00,0.0325
3279.00,0.0325
3278.00,0.0324
3277.00,0.0324
3276.00,0.0324
3275.00,0.0324
3274.00,0.0324
3273.00,0.0323
3272.00,0.0323
3271.00,0.0323
3270.00,0.0323
3269.00,0.0324
3268.00,0.0325
3267.00,0.0325
3266.00,0.0325
3265.00,0.0325
3264.00,0.0325
3263.00,0.0325
3262.00,0.0324
3261.00,0.0324
3260.00,0.0324
3259.00,0.0324
3258.00,0.0324
3257.00,0.0324
3256.00,0.0324
3255.00,0.0325
3254.00,0.0325
3253.00,0.0325
3252.00,0.0324
3251.00,0.0324
3250.00,0.0324
3249.00,0.0324
3248.00,0.0323
3247.00,0.0323
3246.00,0.0323
3245.00,0.0323
3244.00,0.0323
3243.00,0.0323
3242.00,0.0323
3241.00,0.0323
3240.00,0.0323
3239.00,0.0323
3238.00,0.0322
3237.00,0.0322
3236.00,0.0321
3235.00,0.0321
3234.00,0.0320
3233.00,0.0320
3232.00,0.0320
3231.00,0.0320
3230.00,0.0320
3229.00,0.0320
3228.00,0.0319
3227.00,0.0319
3226.00,0.0319
3225.00,0.0318
3224.00,0.0318
3223.00,0.0318
3222.00,0.0317
3221.00,0.0317
3220.00,0.0317
3219.00,0.0317
3218.00,0.0317
3217.00,0.0316
3216.00,0.0316
3215.00,0.0316
3214.00,0.0316
3213.00,0.0316
3212.00,0.0316
3211.00,0.0316
3210.00,0.0316
3209.00,0.0316
3208.00,0.0316
3207.00,0.0316
3206.00,0.0316
3205.00,0.0316
3204.00,0.0315
3203.00,0.0315
3202.00,0.0315
3201.00,0.0314
3200.00,0.0314
3199.00,0.0314
3198.00,0.0313
3197.00,0.0313
3196.00,0.0312
3195.00,0.0311
3194.00,0.0311
3193.00,0.0310
3192.00,0.0309
3191.00,0.0308
3190.00,0.0308
3189.00,0.0307
3188.00,0.0306
3187.00,0.0305
3186.00,0.0305
3185.00,0.0304
3184.00,0.0303
3183.00,0.0302
3182.00,0.0301
3181.00,0.0300
3180.00,0.0299
3179.00,0.0298
3178.00,0.0297
3177.00,0.0296
3176.00,0.0295
3175.00,0.0294
3174.00,0.0293
3173.00,0.0292
3172.00,0.0291
3171.00,0.0289
3170.00,0.0288
3169.00,0.0287
3168.00,0.0286
3167.00,0.0285
3166.00,0.0284
3165.00,0.0283
3164.00,0.0282
3163.00,0.0281
3162.00,0.0280
3161.00,0.0278
3160.00,0.0277
3159.00,0.0276
3158.00,0.0274
3157.00,0.0273
3156.00,0.0272
3155.00,0.0271
3154.00,0.0270
3153.00,0.0269
3152.00,0.0268
3151.00,0.0267
3150.00,0.0266
3149.00,0.0265
3148.00,0.0264
3147.00,0.0263
3146.00,0.0262
3145.00,0.0261
3144.00,0.0260
3143.00,0.0259
3142.00,0.0258
3141.00,0.0257
3140.00,0.0256
3139.00,0.0255
3138.00,0.0254
3137.00,0.0253
3136.00,0.0253
3135.00,0.0252
3134.00,0.0252
3133.00,0.0251
3132.00,0.0250
3131.00,0.0249
3130.00,0.0248
3129.00,0.0248
3128.00,0.0247
3127.00,0.0246
3126.00,0.0245
3125.00,0.0244
3124.00,0.0243
3123.00,0.0242
3122.00,0.0241
3121.00,0.0239
3120.00,0.0238
3119.00,0.0236
3118.00,0.0235
3117.00,0.0233
3116.00,0.0232
3115.00,0.0231
3114.00,0.0230
3113.00,0.0229
3112.00,0.0228
3111.00,0.0227
3110.00,0.0226
3109.00,0.0225
3108.00,0.0224
3107.00,0.0222
3106.00,0.0221
3105.00,0.0220
3104.00,0.0218
3103.00,0.0217
3102.00,0.0216
3101.00,0.0215
3100.00,0.0213
3099.00,0.0212
3098.00,0.0211
3097.00,0.0210
3096.00,0.0208
3095.00,0.0207
3094.00,0.0206
3093.00,0.0205
3092.00,0.0204
3091.00,0.0203
3090.00,0.0201
3089.00,0.0200
3088.00,0.0199
3087.00,0.0198
3086.00,0.0197
3085.00,0.0196
3084.00,0.0195
3083.00,0.0194
3082.00,0.0194
3081.00,0.0193
3080.00,0.0192
3079.00,0.0191
3078.00,0.0190
3077.00,0.0189
3076.00,0.0188
3075.00,0.0188
3074.00,0.0187
3073.00,0.0186
3072.00,0.0186
3071.00,0.0185
3070.00,0.0184
3069.00,0.0184
3068.00,0.0183
3067.00,0.0183
3066.00,0.0182
3065.00,0.0182
3064.00,0.0181
3063.00,0.0181
3062.00,0.0181
3061.00,0.0180
3060.00,0.0180
3059.00,0.0180
3058.00,0.0179
3057.00,0.0179
3056.00,0.0179
3055.00,0.0178
3054.00,0.0178
3053.00,0.0177
3052.00,0.0177
3051.00,0.0176
3050.00,0.0176
3049.00,0.0175
3048.00,0.0175
3047.00,0.0174
3046.00,0.0173
3045.00,0.0173
3044.00,0.0172
3043.00,0.0171
3042.00,0.0171
3041.00,0.0170
3040.00,0.0170
3039.00,0.0170
3038.00,0.0170
3037.00,0.0170
3036.00,0.0170
3035.00,0.0170
3034.00,0.0170
3033.00,0.0170
3032.00,0.0170
3031.00,0.0171
3030.00,0.0171
3029.00,0.0171
3028.00,0.0171
3027.00,0.0171
3026.00,0.0170
3025.00,0.0170
3024.00,0.0170
3023.00,0.0169
3022.00,0.0169
3021.00,0.0169
3020.00,0.0169
3019.00,0.0169
3018.00,0.0169
3017.00,0.0168
3016.00,0.0168
3015.00,0.0168
3014.00,0.0169
3013.00,0.0170
3012.00,0.0171
3011.00,0.0172
3010.00,0.0173
3009.00,0.0174
3008.00,0.0176
3007.00,0.0178
3006.00,0.0180
3005.00,0.0182
3004.00,0.0184
3003.00,0.0187
3002.00,0.0190
3001.00,0.0193
3000.00,0.0197
2999.00,0.0201
2998.00,0.0205
2997.00,0.0209
2996.00,0.0213
2995.00,0.0218
2994.00,0.0224
2993.00,0.0229
2992.00,0.0235
2991.00,0.0241
2990.00,0.0246
2989.00,0.0251
2988.00,0.0257
2987.00,0.0262
2986.00,0.0268
2985.00,0.0273
2984.00,0.0278
2983.00,0.0282
2982.00,0.0287
2981.00,0.0291
2980.00,0.0296
2979.00,0.0300
2978.00,0.0305
2977.00,0.0309
2976.00,0.0315
2975.00,0.0321
2974.00,0.0327
2973.00,0.0334
2972.00,0.0341
2971.00,0.0349
2970.00,0.0357
2969.00,0.0366
2968.00,0.0375
2967.00,0.0384
2966.00,0.0394
2965.00,0.0403
2964.00,0.0411
2963.00,0.0420
2962.00,0.0427
2961.00,0.0434
2960.00,0.0440
2959.00,0.0445
2958.00,0.0448
2957.00,0.0450
2956.00,0.0451
2955.00,0.0451
2954.00,0.0449
2953.00,0.0446
2952.00,0.0442
2951.00,0.0437
2950.00,0.0432
2949.00,0.0427
2948.00,0.0424
2947.00,0.0421
2946.00,0.0420
2945.00,0.0421
2944.00,0.0423
2943.00,0.0428
2942.00,0.0434
2941.00,0.0443
2940.00,0.0453
2939.00,0.0464
2938.00,0.0476
2937.00,0.0490
2936.00,0.0504
2935.00,0.0519
2934.00,0.0533
2933.00,0.0548
2932.00,0.0561
2931.00,0.0573
2930.00,0.0585
2929.00,0.0594
2928.00,0.0603
2927.00,0.0610
2926.00,0.0616
2925.00,0.0621
2924.00,0.0624
2923.00,0.0627
2922.00,0.0628
2921.00,0.0629
2920.00,0.0629
2919.00,0.0628
2918.00,0.0625
2917.00,0.0620
2916.00,0.0614
2915.00,0.0605
2914.00,0.0595
2913.00,0.0583
2912.00,0.0572
2911.00,0.0560
2910.00,0.0549
2909.00,0.0537
2908.00,0.0527
2907.00,0.0516
2906.00,0.0506
2905.00,0.0497
2904.00,0.0488
2903.00,0.0480
2902.00,0.0472
2901.00,0.0465
2900.00,0.0459
2899.00,0.0453
2898.00,0.0447
2897.00,0.0442
2896.00,0.0437
2895.00,0.0433
2894.00,0.0429
2893.00,0.0424
2892.00,0.0420
2891.00,0.0416
2890.00,0.0411
2889.00,0.0407
2888.00,0.0403
2887.00,0.0399
2886.00,0.0395
2885.00,0.0392
2884.00,0.0389
2883.00,0.0386
2882.00,0.0384
2881.00,0.0383
2880.00,0.0382
2879.00,0.0383
2878.00,0.0383
2877.00,0.0385
2876.00,0.0387
2875.00,0.0389
2874.00,0.0392
2873.00,0.0395
2872.00,0.0398
2871.00,0.0399
2870.00,0.0400
2869.00,0.0400
2868.00,0.0399
2867.00,0.0398
2866.00,0.0399
2865.00,0.0401
2864.00,0.0405
2863.00,0.0410
2862.00,0.0416
2861.00,0.0423
2860.00,0.0431
2859.00,0.0439
2858.00,0.0445
2857.00,0.0450
2856.00,0.0453
2855.00,0.0454
2854.00,0.0452
2853.00,0.0449
2852.00,0.0444
2851.00,0.0437
2850.00,0.0428
2849.00,0.0417
2848.00,0.0404
2847.00,0.0390
2846.00,0.0374
2845.00,0.0359
2844.00,0.0345
2843.00,0.0331
2842.00,0.0317
2841.00,0.0305
2840.00,0.0293
2839.00,0.0283
2838.00,0.0274
2837.00,0.0265
2836.00,0.0258
2835.00,0.0251
2834.00,0.0245
2833.00,0.0238
2832.00,0.0233
2831.00,0.0227
2830.00,0.0222
2829.00,0.0217
2828.00,0.0212
2827.00,0.0206
2826.00,0.0201
2825.00,0.0196
2824.00,0.0191
2823.00,0.0186
2822.00,0.0181
2821.00,0.0176
2820.00,0.0172
2819.00,0.0168
2818.00,0.0164
2817.00,0.0161
2816.00,0.0158
2815.00,0.0155
2814.00,0.0152
2813.00,0.0150
2812.00,0.0148
2811.00,0.0146
2810.00,0.0144
2809.00,0.0142
2808.00,0.0141
2807.00,0.0139
2806.00,0.0138
2805.00,0.0137
2804.00,0.0136
2803.00,0.0134
2802.00,0.0133
2801.00,0.0132
2800.00,0.0131
2799.00,0.0129
2798.00,0.0128
2797.00,0.0127
2796.00,0.0127
2795.00,0.0126
2794.00,0.0125
2793.00,0.0125
2792.00,0.0124
2791.00,0.0123
2790.00,0.0123
2789.00,0.0122
2788.00,0.0122
2787.00,0.0122
2786.00,0.0121
2785.00,0.0121
2784.00,0.0120
2783.00,0.0120
2782.00,0.0119
2781.00,0.0119
2780.00,0.0118
2779.00,0.0118
2778.00,0.0117
2777.00,0.0117
2776.00,0.0117
2775.00,0.0116
2774.00,0.0116
2773.00,0.0115
2772.00,0.0115
2771.00,0.0115
2770.00,0.0115
2769.00,0.0114
2768.00,0.0114
2767.00,0.0114
2766.00,0.0114
2765.00,0.0114
2764.00,0.0114
2763.00,0.0114
2762.00,0.0114
2761.00,0.0114
2760.00,0.0114
2759.00,0.0113
2758.00,0.0113
2757.00,0.0113
