Created as New Dataset,Sample 350 By YargerLab Date Tuesday, November 11 2025
cm-1,A
4000.00,0.0091
3999.00,0.0091
3998.00,0.0091
3997.00,0.0091
3996.00,0.0090
3995.00,0.0090
3994.00,0.0090
3993.00,0.0090
3992.00,0.0090
3991.00,0.0090
3990.00,0.0090
3989.00,0.0090
3988.00,0.0090
3987.00,0.0090
3986.00,0.0090
3985.00,0.0090
3984.00,0.0090
3983.00,0.0090
3982.00,0.0090
3981.00,0.0090
3980.00,0.0090
3979.00,0.0090
3978.00,0.0090
3977.00,0.0090
3976.00,0.0090
3975.00,0.0090
3974.00,0.0090
3973.00,0.0090
3972.00,0.0090
3971.00,0.0090
3970.00,0.0091
3969.00,0.0091
3968.00,0.0091
3967.00,0.0091
3966.00,0.0091
3965.00,0.0090
3964.00,0.0090
3963.00,0.0090
3962.00,0.0090
3961.00,0.0090
3960.00,0.0090
3959.00,0.0090
3958.00,0.0090
3957.00,0.0090
3956.00,0.0090
3955.00,0.0090
3954.00,0.0090
3953.00,0.0090
3952.00,0.0090
3951.00,0.0090
3950.00,0.0090
3949.00,0.0090
3948.00,0.0091
3947.00,0.0091
3946.00,0.0091
3945.00,0.0091
3944.00,0.0091
3943.00,0.0091
3942.00,0.0091
3941.00,0.0090
3940.00,0.0090
3939.00,0.0090
3938.00,0.0090
3937.00,0.0090
3936.00,0.0090
3935.00,0.0090
3934.00,0.0090
3933.00,0.0090
3932.00,0.0090
3931.00,0.0090
3930.00,0.0090
3929.00,0.0090
3928.00,0.0090
3927.00,0.0090
3926.00,0.0090
3925.00,0.0090
3924.00,0.0090
3923.00,0.0090
3922.00,0.0090
3921.00,0.0090
3920.00,0.0090
3919.00,0.0090
3918.00,0.0090
3917.00,0.0090
3916.00,0.0090
3915.00,0.0090
3914.00,0.0090
3913.00,0.0090
3912.00,0.0090
3911.00,0.0090
3910.00,0.0090
3909.00,0.0090
3908.00,0.0090
3907.00,0.0090
3906.00,0.0090
3905.00,0.0091
3904.00,0.0091
3903.00,0.0091
3902.00,0.0090
3901.00,0.0090
3900.00,0.0090
3899.00,0.0090
3898.00,0.0089
3897.00,0.0089
3896.00,0.0089
3895.00,0.0089
3894.00,0.0089
3893.00,0.0089
3892.00,0.0089
3891.00,0.0089
3890.00,0.0090
3889.00,0.0090
3888.00,0.0090
3887.00,0.0090
3886.00,0.0090
3885.00,0.0090
3884.00,0.0090
3883.00,0.0090
3882.00,0.0090
3881.00,0.0090
3880.00,0.0090
3879.00,0.0090
3878.00,0.0090
3877.00,0.0090
3876.00,0.0090
3875.00,0.0090
3874.00,0.0090
3873.00,0.0090
3872.00,0.0090
3871.00,0.0090
3870.00,0.0090
3869.00,0.0090
3868.00,0.0090
3867.00,0.0090
3866.00,0.0090
3865.00,0.0090
3864.00,0.0090
3863.00,0.0090
3862.00,0.0090
3861.00,0.0090
3860.00,0.0090
3859.00,0.0090
3858.00,0.0089
3857.00,0.0089
3856.00,0.0089
3855.00,0.0089
3854.00,0.0089
3853.00,0.0089
3852.00,0.0090
3851.00,0.0090
3850.00,0.0090
3849.00,0.0090
3848.00,0.0090
3847.00,0.0090
3846.00,0.0090
3845.00,0.0089
3844.00,0.0089
3843.00,0.0090
3842.00,0.0090
3841.00,0.0090
3840.00,0.0091
3839.00,0.0091
3838.00,0.0090
3837.00,0.0090
3836.00,0.0090
3835.00,0.0090
3834.00,0.0089
3833.00,0.0089
3832.00,0.0089
3831.00,0.0089
3830.00,0.0089
3829.00,0.0089
3828.00,0.0090
3827.00,0.0090
3826.00,0.0090
3825.00,0.0090
3824.00,0.0090
3823.00,0.0090
3822.00,0.0090
3821.00,0.0090
3820.00,0.0090
3819.00,0.0090
3818.00,0.0090
3817.00,0.0090
3816.00,0.0090
3815.00,0.0090
3814.00,0.0090
3813.00,0.0089
3812.00,0.0090
3811.00,0.0090
3810.00,0.0090
3809.00,0.0090
3808.00,0.0090
3807.00,0.0090
3806.00,0.0090
3805.00,0.0090
3804.00,0.0090
3803.00,0.0090
3802.00,0.0090
3801.00,0.0090
3800.00,0.0090
3799.00,0.0090
3798.00,0.0090
3797.00,0.0089
3796.00,0.0089
3795.00,0.0089
3794.00,0.0089
3793.00,0.0089
3792.00,0.0089
3791.00,0.0089
3790.00,0.0089
3789.00,0.0089
3788.00,0.0089
3787.00,0.0089
3786.00,0.0089
3785.00,0.0089
3784.00,0.0089
3783.00,0.0089
3782.00,0.0089
3781.00,0.0089
3780.00,0.0089
3779.00,0.0089
3778.00,0.0088
3777.00,0.0088
3776.00,0.0088
3775.00,0.0089
3774.00,0.0089
3773.00,0.0089
3772.00,0.0089
3771.00,0.0089
3770.00,0.0089
3769.00,0.0089
3768.00,0.0089
3767.00,0.0089
3766.00,0.0090
3765.00,0.0090
3764.00,0.0090
3763.00,0.0090
3762.00,0.0090
3761.00,0.0089
3760.00,0.0089
3759.00,0.0089
3758.00,0.0089
3757.00,0.0090
3756.00,0.0090
3755.00,0.0090
3754.00,0.0090
3753.00,0.0090
3752.00,0.0090
3751.00,0.0090
3750.00,0.0089
3749.00,0.0089
3748.00,0.0089
3747.00,0.0089
3746.00,0.0088
3745.00,0.0088
3744.00,0.0088
3743.00,0.0088
3742.00,0.0088
3741.00,0.0088
3740.00,0.0088
3739.00,0.0088
3738.00,0.0088
3737.00,0.0088
3736.00,0.0088
3735.00,0.0088
3734.00,0.0088
3733.00,0.0088
3732.00,0.0088
3731.00,0.0088
3730.00,0.0088
3729.00,0.0088
3728.00,0.0088
3727.00,0.0088
3726.00,0.0088
3725.00,0.0088
3724.00,0.0088
3723.00,0.0088
3722.00,0.0088
3721.00,0.0088
3720.00,0.0088
3719.00,0.0088
3718.00,0.0089
3717.00,0.0089
3716.00,0.0088
3715.00,0.0088
3714.00,0.0088
3713.00,0.0088
3712.00,0.0088
3711.00,0.0087
3710.00,0.0087
3709.00,0.0087
3708.00,0.0087
3707.00,0.0087
3706.00,0.0087
3705.00,0.0087
3704.00,0.0087
3703.00,0.0088
3702.00,0.0088
3701.00,0.0088
3700.00,0.0088
3699.00,0.0088
3698.00,0.0088
3697.00,0.0088
3696.00,0.0088
3695.00,0.0088
3694.00,0.0088
3693.00,0.0088
3692.00,0.0088
3691.00,0.0088
3690.00,0.0088
3689.00,0.0088
3688.00,0.0088
3687.00,0.0088
3686.00,0.0088
3685.00,0.0088
3684.00,0.0088
3683.00,0.0088
3682.00,0.0089
3681.00,0.0089
3680.00,0.0090
3679.00,0.0090
3678.00,0.0089
3677.00,0.0089
3676.00,0.0089
3675.00,0.0089
3674.00,0.0089
3673.00,0.0089
3672.00,0.0089
3671.00,0.0089
3670.00,0.0089
3669.00,0.0089
3668.00,0.0089
3667.00,0.0090
3666.00,0.0090
3665.00,0.0090
3664.00,0.0089
3663.00,0.0090
3662.00,0.0090
3661.00,0.0090
3660.00,0.0090
3659.00,0.0090
3658.00,0.0090
3657.00,0.0090
3656.00,0.0090
3655.00,0.0090
3654.00,0.0090
3653.00,0.0090
3652.00,0.0091
3651.00,0.0091
3650.00,0.0091
3649.00,0.0092
3648.00,0.0092
3647.00,0.0092
3646.00,0.0092
3645.00,0.0092
3644.00,0.0092
3643.00,0.0092
3642.00,0.0092
3641.00,0.0092
3640.00,0.0092
3639.00,0.0093
3638.00,0.0093
3637.00,0.0093
3636.00,0.0093
3635.00,0.0093
3634.00,0.0093
3633.00,0.0093
3632.00,0.0093
3631.00,0.0093
3630.00,0.0094
3629.00,0.0094
3628.00,0.0094
3627.00,0.0095
3626.00,0.0095
3625.00,0.0095
3624.00,0.0095
3623.00,0.0095
3622.00,0.0096
3621.00,0.0096
3620.00,0.0097
3619.00,0.0097
3618.00,0.0097
3617.00,0.0098
3616.00,0.0098
3615.00,0.0099
3614.00,0.0099
3613.00,0.0099
3612.00,0.0099
3611.00,0.0099
3610.00,0.0100
3609.00,0.0100
3608.00,0.0100
3607.00,0.0100
3606.00,0.0100
3605.00,0.0100
3604.00,0.0100
3603.00,0.0101
3602.00,0.0101
3601.00,0.0102
3600.00,0.0102
3599.00,0.0103
3598.00,0.0103
3597.00,0.0103
3596.00,0.0103
3595.00,0.0104
3594.00,0.0103
3593.00,0.0104
3592.00,0.0104
3591.00,0.0104
3590.00,0.0105
3589.00,0.0105
3588.00,0.0106
3587.00,0.0107
3586.00,0.0107
3585.00,0.0108
3584.00,0.0108
3583.00,0.0108
3582.00,0.0108
3581.00,0.0109
3580.00,0.0109
3579.00,0.0109
3578.00,0.0110
3577.00,0.0110
3576.00,0.0110
3575.00,0.0111
3574.00,0.0111
3573.00,0.0112
3572.00,0.0113
3571.00,0.0113
3570.00,0.0114
3569.00,0.0114
3568.00,0.0115
3567.00,0.0115
3566.00,0.0115
3565.00,0.0116
3564.00,0.0116
3563.00,0.0117
3562.00,0.0117
3561.00,0.0117
3560.00,0.0118
3559.00,0.0118
3558.00,0.0119
3557.00,0.0119
3556.00,0.0120
3555.00,0.0120
3554.00,0.0120
3553.00,0.0121
3552.00,0.0121
3551.00,0.0121
3550.00,0.0122
3549.00,0.0122
3548.00,0.0122
3547.00,0.0123
3546.00,0.0123
3545.00,0.0124
3544.00,0.0124
3543.00,0.0124
3542.00,0.0124
3541.00,0.0125
3540.00,0.0125
3539.00,0.0126
3538.00,0.0126
3537.00,0.0126
3536.00,0.0127
3535.00,0.0127
3534.00,0.0127
3533.00,0.0127
3532.00,0.0128
3531.00,0.0129
3530.00,0.0129
3529.00,0.0130
3528.00,0.0130
3527.00,0.0130
3526.00,0.0131
3525.00,0.0131
3524.00,0.0131
3523.00,0.0131
3522.00,0.0131
3521.00,0.0132
3520.00,0.0132
3519.00,0.0133
3518.00,0.0133
3517.00,0.0134
3516.00,0.0134
3515.00,0.0135
3514.00,0.0135
3513.00,0.0136
3512.00,0.0136
3511.00,0.0137
3510.00,0.0137
3509.00,0.0138
3508.00,0.0138
3507.00,0.0138
3506.00,0.0139
3505.00,0.0139
3504.00,0.0140
3503.00,0.0140
3502.00,0.0141
3501.00,0.0141
3500.00,0.0142
3499.00,0.0142
3498.00,0.0142
3497.00,0.0143
3496.00,0.0143
3495.00,0.0144
3494.00,0.0144
3493.00,0.0145
3492.00,0.0145
3491.00,0.0146
3490.00,0.0146
3489.00,0.0147
3488.00,0.0148
3487.00,0.0149
3486.00,0.0149
3485.00,0.0150
3484.00,0.0150
3483.00,0.0150
3482.00,0.0150
3481.00,0.0151
3480.00,0.0151
3479.00,0.0152
3478.00,0.0152
3477.00,0.0153
3476.00,0.0153
3475.00,0.0154
3474.00,0.0154
3473.00,0.0155
3472.00,0.0155
3471.00,0.0156
3470.00,0.0156
3469.00,0.0157
3468.00,0.0157
3467.00,0.0158
3466.00,0.0158
3465.00,0.0159
3464.00,0.0160
3463.00,0.0160
3462.00,0.0160
3461.00,0.0161
3460.00,0.0161
3459.00,0.0162
3458.00,0.0162
3457.00,0.0162
3456.00,0.0163
3455.00,0.0163
3454.00,0.0163
3453.00,0.0164
3452.00,0.0165
3451.00,0.0165
3450.00,0.0166
3449.00,0.0167
3448.00,0.0167
3447.00,0.0168
3446.00,0.0168
3445.00,0.0169
3444.00,0.0169
3443.00,0.0169
3442.00,0.0170
3441.00,0.0170
3440.00,0.0171
3439.00,0.0171
3438.00,0.0171
3437.00,0.0172
3436.00,0.0173
3435.00,0.0173
3434.00,0.0174
3433.00,0.0174
3432.00,0.0175
3431.00,0.0175
3430.00,0.0176
3429.00,0.0176
3428.00,0.0177
3427.00,0.0178
3426.00,0.0178
3425.00,0.0179
3424.00,0.0179
3423.00,0.0180
3422.00,0.0181
3421.00,0.0181
3420.00,0.0182
3419.00,0.0182
3418.00,0.0183
3417.00,0.0184
3416.00,0.0184
3415.00,0.0185
3414.00,0.0185
3413.00,0.0186
3412.00,0.0186
3411.00,0.0187
3410.00,0.0187
3409.00,0.0188
3408.00,0.0189
3407.00,0.0189
3406.00,0.0190
3405.00,0.0191
3404.00,0.0192
3403.00,0.0192
3402.00,0.0193
3401.00,0.0194
3400.00,0.0195
3399.00,0.0196
3398.00,0.0197
3397.00,0.0197
3396.00,0.0198
3395.00,0.0199
3394.00,0.0200
3393.00,0.0200
3392.00,0.0201
3391.00,0.0201
3390.00,0.0203
3389.00,0.0204
3388.00,0.0205
3387.00,0.0206
3386.00,0.0207
3385.00,0.0208
3384.00,0.0209
3383.00,0.0210
3382.00,0.0210
3381.00,0.0211
3380.00,0.0212
3379.00,0.0213
3378.00,0.0214
3377.00,0.0215
3376.00,0.0216
3375.00,0.0217
3374.00,0.0217
3373.00,0.0218
3372.00,0.0218
3371.00,0.0218
3370.00,0.0219
3369.00,0.0219
3368.00,0.0221
3367.00,0.0222
3366.00,0.0224
3365.00,0.0226
3364.00,0.0227
3363.00,0.0228
3362.00,0.0229
3361.00,0.0229
3360.00,0.0230
3359.00,0.0231
3358.00,0.0232
3357.00,0.0233
3356.00,0.0234
3355.00,0.0235
3354.00,0.0235
3353.00,0.0236
3352.00,0.0236
3351.00,0.0237
3350.00,0.0238
3349.00,0.0240
3348.00,0.0241
3347.00,0.0241
3346.00,0.0242
3345.00,0.0242
3344.00,0.0243
3343.00,0.0243
3342.00,0.0244
3341.00,0.0244
3340.00,0.0244
3339.00,0.0245
3338.00,0.0246
3337.00,0.0247
3336.00,0.0248
3335.00,0.0250
3334.00,0.0251
3333.00,0.0252
3332.00,0.0252
3331.00,0.0253
3330.00,0.0253
3329.00,0.0253
3328.00,0.0253
3327.00,0.0253
3326.00,0.0253
3325.00,0.0254
3324.00,0.0255
3323.00,0.0256
3322.00,0.0257
3321.00,0.0258
3320.00,0.0259
3319.00,0.0259
3318.00,0.0260
3317.00,0.0261
3316.00,0.0261
3315.00,0.0262
3314.00,0.0262
3313.00,0.0262
3312.00,0.0262
3311.00,0.0261
3310.00,0.0260
3309.00,0.0260
3308.00,0.0259
3307.00,0.0260
3306.00,0.0260
3305.00,0.0262
3304.00,0.0264
3303.00,0.0266
3302.00,0.0267
3301.00,0.0268
3300.00,0.0269
3299.00,0.0268
3298.00,0.0268
3297.00,0.0268
3296.00,0.0267
3295.00,0.0267
3294.00,0.0267
3293.00,0.0267
3292.00,0.0268
3291.00,0.0269
3290.00,0.0271
3289.00,0.0271
3288.00,0.0272
3287.00,0.0272
3286.00,0.0272
3285.00,0.0273
3284.00,0.0273
3283.00,0.0273
3282.00,0.0273
3281.00,0.0273
3280.00,0.0274
3279.00,0.0274
3278.00,0.0274
3277.00,0.0273
3276.00,0.0273
3275.00,0.0272
3274.00,0.0272
3273.00,0.0272
3272.00,0.0272
3271.00,0.0273
3270.00,0.0273
3269.00,0.0274
3268.00,0.0274
3267.00,0.0274
3266.00,0.0275
3265.00,0.0275
3264.00,0.0275
3263.00,0.0276
3262.00,0.0276
3261.00,0.0276
3260.00,0.0275
3259.00,0.0275
3258.00,0.0275
3257.00,0.0275
3256.00,0.0275
3255.00,0.0275
3254.00,0.0276
3253.00,0.0276
3252.00,0.0276
3251.00,0.0275
3250.00,0.0275
3249.00,0.0275
3248.00,0.0275
3247.00,0.0275
3246.00,0.0276
3245.00,0.0276
3244.00,0.0276
3243.00,0.0276
3242.00,0.0276
3241.00,0.0276
3240.00,0.0276
3239.00,0.0276
3238.00,0.0276
3237.00,0.0275
3236.00,0.0275
3235.00,0.0275
3234.00,0.0275
3233.00,0.0275
3232.00,0.0275
3231.00,0.0275
3230.00,0.0275
3229.00,0.0275
3228.00,0.0275
3227.00,0.0274
3226.00,0.0274
3225.00,0.0275
3224.00,0.0275
3223.00,0.0275
3222.00,0.0274
3221.00,0.0274
3220.00,0.0274
3219.00,0.0274
3218.00,0.0274
3217.00,0.0274
3216.00,0.0274
3215.00,0.0274
3214.00,0.0274
3213.00,0.0274
3212.00,0.0274
3211.00,0.0275
3210.00,0.0275
3209.00,0.0275
3208.00,0.0275
3207.00,0.0275
3206.00,0.0274
3205.00,0.0274
3204.00,0.0274
3203.00,0.0274
3202.00,0.0274
3201.00,0.0274
3200.00,0.0274
3199.00,0.0274
3198.00,0.0274
3197.00,0.0274
3196.00,0.0274
3195.00,0.0273
3194.00,0.0273
3193.00,0.0273
3192.00,0.0272
3191.00,0.0272
3190.00,0.0271
3189.00,0.0271
3188.00,0.0270
3187.00,0.0270
3186.00,0.0270
3185.00,0.0269
3184.00,0.0269
3183.00,0.0268
3182.00,0.0268
3181.00,0.0267
3180.00,0.0267
3179.00,0.0266
3178.00,0.0266
3177.00,0.0265
3176.00,0.0265
3175.00,0.0265
3174.00,0.0264
3173.00,0.0264
3172.00,0.0263
3171.00,0.0263
3170.00,0.0262
3169.00,0.0262
3168.00,0.0261
3167.00,0.0260
3166.00,0.0260
3165.00,0.0259
3164.00,0.0258
3163.00,0.0257
3162.00,0.0257
3161.00,0.0256
3160.00,0.0256
3159.00,0.0255
3158.00,0.0255
3157.00,0.0254
3156.00,0.0253
3155.00,0.0252
3154.00,0.0251
3153.00,0.0251
3152.00,0.0250
3151.00,0.0249
3150.00,0.0249
3149.00,0.0248
3148.00,0.0248
3147.00,0.0247
3146.00,0.0247
3145.00,0.0246
3144.00,0.0246
3143.00,0.0245
3142.00,0.0244
3141.00,0.0244
3140.00,0.0243
3139.00,0.0243
3138.00,0.0243
3137.00,0.0242
3136.00,0.0242
3135.00,0.0241
3134.00,0.0241
3133.00,0.0240
3132.00,0.0240
3131.00,0.0239
3130.00,0.0239
3129.00,0.0238
3128.00,0.0238
3127.00,0.0237
3126.00,0.0236
3125.00,0.0236
3124.00,0.0235
3123.00,0.0235
3122.00,0.0234
3121.00,0.0233
3120.00,0.0232
3119.00,0.0231
3118.00,0.0230
3117.00,0.0230
3116.00,0.0229
3115.00,0.0229
3114.00,0.0228
3113.00,0.0227
3112.00,0.0226
3111.00,0.0225
3110.00,0.0224
3109.00,0.0224
3108.00,0.0223
3107.00,0.0222
3106.00,0.0222
3105.00,0.0221
3104.00,0.0220
3103.00,0.0219
3102.00,0.0218
3101.00,0.0217
3100.00,0.0216
3099.00,0.0215
3098.00,0.0215
3097.00,0.0214
3096.00,0.0213
3095.00,0.0212
3094.00,0.0211
3093.00,0.0210
3092.00,0.0210
3091.00,0.0209
3090.00,0.0208
3089.00,0.0207
3088.00,0.0206
3087.00,0.0206
3086.00,0.0205
3085.00,0.0204
3084.00,0.0203
3083.00,0.0202
3082.00,0.0202
3081.00,0.0201
3080.00,0.0200
3079.00,0.0200
3078.00,0.0199
3077.00,0.0198
3076.00,0.0198
3075.00,0.0198
3074.00,0.0197
3073.00,0.0197
3072.00,0.0196
3071.00,0.0195
3070.00,0.0195
3069.00,0.0194
3068.00,0.0194
3067.00,0.0193
3066.00,0.0193
3065.00,0.0192
3064.00,0.0192
3063.00,0.0191
3062.00,0.0191
3061.00,0.0191
3060.00,0.0190
3059.00,0.0190
3058.00,0.0190
3057.00,0.0189
3056.00,0.0189
3055.00,0.0189
3054.00,0.0188
3053.00,0.0188
3052.00,0.0187
3051.00,0.0187
3050.00,0.0186
3049.00,0.0186
3048.00,0.0185
3047.00,0.0185
3046.00,0.0185
3045.00,0.0184
3044.00,0.0183
3043.00,0.0183
3042.00,0.0182
3041.00,0.0182
3040.00,0.0182
3039.00,0.0181
3038.00,0.0181
3037.00,0.0181
3036.00,0.0180
3035.00,0.0180
3034.00,0.0180
3033.00,0.0180
3032.00,0.0180
3031.00,0.0180
3030.00,0.0180
3029.00,0.0180
3028.00,0.0180
3027.00,0.0180
3026.00,0.0180
3025.00,0.0179
3024.00,0.0179
3023.00,0.0180
3022.00,0.0180
3021.00,0.0180
3020.00,0.0179
3019.00,0.0179
3018.00,0.0180
3017.00,0.0180
3016.00,0.0180
3015.00,0.0180
3014.00,0.0180
3013.00,0.0181
3012.00,0.0182
3011.00,0.0183
3010.00,0.0184
3009.00,0.0186
3008.00,0.0187
3007.00,0.0189
3006.00,0.0191
3005.00,0.0192
3004.00,0.0195
3003.00,0.0197
3002.00,0.0200
3001.00,0.0203
3000.00,0.0206
2999.00,0.0210
2998.00,0.0214
2997.00,0.0218
2996.00,0.0222
2995.00,0.0227
2994.00,0.0231
2993.00,0.0236
2992.00,0.0241
2991.00,0.0246
2990.00,0.0252
2989.00,0.0257
2988.00,0.0263
2987.00,0.0268
2986.00,0.0273
2985.00,0.0278
2984.00,0.0283
2983.00,0.0287
2982.00,0.0292
2981.00,0.0296
2980.00,0.0301
2979.00,0.0306
2978.00,0.0310
2977.00,0.0315
2976.00,0.0319
2975.00,0.0323
2974.00,0.0327
2973.00,0.0332
2972.00,0.0337
2971.00,0.0342
2970.00,0.0347
2969.00,0.0353
2968.00,0.0359
2967.00,0.0365
2966.00,0.0370
2965.00,0.0376
2964.00,0.0381
2963.00,0.0387
2962.00,0.0392
2961.00,0.0396
2960.00,0.0400
2959.00,0.0404
2958.00,0.0407
2957.00,0.0409
2956.00,0.0411
2955.00,0.0412
2954.00,0.0412
2953.00,0.0412
2952.00,0.0411
2951.00,0.0410
2950.00,0.0408
2949.00,0.0406
2948.00,0.0404
2947.00,0.0402
2946.00,0.0401
2945.00,0.0401
2944.00,0.0401
2943.00,0.0403
2942.00,0.0405
2941.00,0.0408
2940.00,0.0412
2939.00,0.0416
2938.00,0.0422
2937.00,0.0428
2936.00,0.0435
2935.00,0.0442
2934.00,0.0449
2933.00,0.0456
2932.00,0.0463
2931.00,0.0469
2930.00,0.0476
2929.00,0.0482
2928.00,0.0487
2927.00,0.0492
2926.00,0.0495
2925.00,0.0498
2924.00,0.0500
2923.00,0.0501
2922.00,0.0502
2921.00,0.0502
2920.00,0.0501
2919.00,0.0500
2918.00,0.0497
2917.00,0.0494
2916.00,0.0491
2915.00,0.0487
2914.00,0.0483
2913.00,0.0477
2912.00,0.0471
2911.00,0.0465
2910.00,0.0459
2909.00,0.0452
2908.00,0.0445
2907.00,0.0438
2906.00,0.0432
2905.00,0.0426
2904.00,0.0420
2903.00,0.0415
2902.00,0.0411
2901.00,0.0407
2900.00,0.0403
2899.00,0.0400
2898.00,0.0397
2897.00,0.0395
2896.00,0.0393
2895.00,0.0391
2894.00,0.0389
2893.00,0.0387
2892.00,0.0385
2891.00,0.0383
2890.00,0.0381
2889.00,0.0379
2888.00,0.0378
2887.00,0.0376
2886.00,0.0375
2885.00,0.0374
2884.00,0.0372
2883.00,0.0371
2882.00,0.0371
2881.00,0.0370
2880.00,0.0370
2879.00,0.0370
2878.00,0.0370
2877.00,0.0371
2876.00,0.0372
2875.00,0.0373
2874.00,0.0374
2873.00,0.0375
2872.00,0.0376
2871.00,0.0377
2870.00,0.0377
2869.00,0.0377
2868.00,0.0376
2867.00,0.0375
2866.00,0.0374
2865.00,0.0374
2864.00,0.0375
2863.00,0.0376
2862.00,0.0378
2861.00,0.0380
2860.00,0.0383
2859.00,0.0385
2858.00,0.0387
2857.00,0.0388
2856.00,0.0388
2855.00,0.0387
2854.00,0.0384
2853.00,0.0380
2852.00,0.0374
2851.00,0.0367
2850.00,0.0360
2849.00,0.0353
2848.00,0.0345
2847.00,0.0338
2846.00,0.0330
2845.00,0.0323
2844.00,0.0315
2843.00,0.0308
2842.00,0.0301
2841.00,0.0293
2840.00,0.0287
2839.00,0.0280
2838.00,0.0275
2837.00,0.0270
2836.00,0.0265
2835.00,0.0260
2834.00,0.0255
2833.00,0.0251
2832.00,0.0246
2831.00,0.0242
2830.00,0.0238
2829.00,0.0234
2828.00,0.0230
2827.00,0.0226
2826.00,0.0222
2825.00,0.0218
2824.00,0.0215
2823.00,0.0211
2822.00,0.0207
2821.00,0.0204
2820.00,0.0201
2819.00,0.0198
2818.00,0.0195
2817.00,0.0192
2816.00,0.0190
2815.00,0.0188
2814.00,0.0186
2813.00,0.0184
2812.00,0.0182
2811.00,0.0181
2810.00,0.0179
2809.00,0.0178
2808.00,0.0177
2807.00,0.0175
2806.00,0.0174
2805.00,0.0173
2804.00,0.0173
2803.00,0.0172
2802.00,0.0171
2801.00,0.0170
2800.00,0.0169
2799.00,0.0168
2798.00,0.0167
2797.00,0.0167
2796.00,0.0166
2795.00,0.0165
2794.00,0.0165
2793.00,0.0164
2792.00,0.0164
2791.00,0.0163
2790.00,0.0163
2789.00,0.0162
2788.00,0.0162
2787.00,0.0162
2786.00,0.0161
2785.00,0.0161
2784.00,0.0160
2783.00,0.0160
2782.00,0.0159
2781.00,0.0159
2780.00,0.0158
2779.00,0.0158
2778.00,0.0158
2777.00,0.0157
2776.00,0.0157
2775.00,0.0156
2774.00,0.0156
2773.00,0.0156
2772.00,0.0156
2771.00,0.0155
2770.00,0.0155
2769.00,0.0155
2768.00,0.0154
2767.00,0.0154
2766.00,0.0154
2765.00,0.0153
2764.00,0.0153
2763.00,0.0153
2762.00,0.0153
2761.00,0.0153
2760.00,0.0153
2759.00,0.0153
2758.00,0.0153
2757.00,0.0153
