Created as New Dataset,Sample 238 By YargerLab Date Sunday, October 05 2025
cm-1,A
4000.00,0.0015
3999.00,0.0015
3998.00,0.0015
3997.00,0.0015
3996.00,0.0015
3995.00,0.0015
3994.00,0.0015
3993.00,0.0015
3992.00,0.0015
3991.00,0.0015
3990.00,0.0015
3989.00,0.0014
3988.00,0.0014
3987.00,0.0014
3986.00,0.0014
3985.00,0.0015
3984.00,0.0015
3983.00,0.0015
3982.00,0.0015
3981.00,0.0015
3980.00,0.0015
3979.00,0.0015
3978.00,0.0015
3977.00,0.0014
3976.00,0.0014
3975.00,0.0014
3974.00,0.0015
3973.00,0.0015
3972.00,0.0015
3971.00,0.0015
3970.00,0.0015
3969.00,0.0015
3968.00,0.0015
3967.00,0.0015
3966.00,0.0015
3965.00,0.0015
3964.00,0.0015
3963.00,0.0015
3962.00,0.0015
3961.00,0.0015
3960.00,0.0015
3959.00,0.0015
3958.00,0.0015
3957.00,0.0015
3956.00,0.0015
3955.00,0.0014
3954.00,0.0014
3953.00,0.0014
3952.00,0.0014
3951.00,0.0014
3950.00,0.0014
3949.00,0.0014
3948.00,0.0014
3947.00,0.0014
3946.00,0.0014
3945.00,0.0014
3944.00,0.0014
3943.00,0.0014
3942.00,0.0014
3941.00,0.0014
3940.00,0.0014
3939.00,0.0014
3938.00,0.0014
3937.00,0.0014
3936.00,0.0014
3935.00,0.0014
3934.00,0.0014
3933.00,0.0014
3932.00,0.0014
3931.00,0.0015
3930.00,0.0015
3929.00,0.0015
3928.00,0.0015
3927.00,0.0015
3926.00,0.0015
3925.00,0.0015
3924.00,0.0014
3923.00,0.0014
3922.00,0.0014
3921.00,0.0014
3920.00,0.0014
3919.00,0.0014
3918.00,0.0014
3917.00,0.0014
3916.00,0.0014
3915.00,0.0014
3914.00,0.0014
3913.00,0.0014
3912.00,0.0014
3911.00,0.0014
3910.00,0.0014
3909.00,0.0014
3908.00,0.0014
3907.00,0.0015
3906.00,0.0015
3905.00,0.0016
3904.00,0.0016
3903.00,0.0016
3902.00,0.0016
3901.00,0.0016
3900.00,0.0016
3899.00,0.0016
3898.00,0.0015
3897.00,0.0015
3896.00,0.0015
3895.00,0.0015
3894.00,0.0015
3893.00,0.0015
3892.00,0.0015
3891.00,0.0015
3890.00,0.0015
3889.00,0.0016
3888.00,0.0016
3887.00,0.0016
3886.00,0.0016
3885.00,0.0016
3884.00,0.0016
3883.00,0.0016
3882.00,0.0016
3881.00,0.0016
3880.00,0.0015
3879.00,0.0015
3878.00,0.0015
3877.00,0.0015
3876.00,0.0015
3875.00,0.0015
3874.00,0.0015
3873.00,0.0015
3872.00,0.0016
3871.00,0.0016
3870.00,0.0016
3869.00,0.0016
3868.00,0.0017
3867.00,0.0017
3866.00,0.0017
3865.00,0.0017
3864.00,0.0017
3863.00,0.0016
3862.00,0.0016
3861.00,0.0015
3860.00,0.0015
3859.00,0.0015
3858.00,0.0016
3857.00,0.0017
3856.00,0.0018
3855.00,0.0019
3854.00,0.0019
3853.00,0.0019
3852.00,0.0019
3851.00,0.0020
3850.00,0.0019
3849.00,0.0018
3848.00,0.0017
3847.00,0.0016
3846.00,0.0016
3845.00,0.0015
3844.00,0.0015
3843.00,0.0015
3842.00,0.0016
3841.00,0.0017
3840.00,0.0017
3839.00,0.0018
3838.00,0.0018
3837.00,0.0018
3836.00,0.0018
3835.00,0.0018
3834.00,0.0018
3833.00,0.0018
3832.00,0.0017
3831.00,0.0017
3830.00,0.0016
3829.00,0.0016
3828.00,0.0016
3827.00,0.0015
3826.00,0.0015
3825.00,0.0016
3824.00,0.0016
3823.00,0.0017
3822.00,0.0017
3821.00,0.0017
3820.00,0.0017
3819.00,0.0018
3818.00,0.0018
3817.00,0.0017
3816.00,0.0017
3815.00,0.0017
3814.00,0.0017
3813.00,0.0016
3812.00,0.0016
3811.00,0.0016
3810.00,0.0016
3809.00,0.0016
3808.00,0.0015
3807.00,0.0015
3806.00,0.0015
3805.00,0.0016
3804.00,0.0017
3803.00,0.0017
3802.00,0.0017
3801.00,0.0017
3800.00,0.0017
3799.00,0.0017
3798.00,0.0016
3797.00,0.0016
3796.00,0.0016
3795.00,0.0015
3794.00,0.0014
3793.00,0.0014
3792.00,0.0013
3791.00,0.0013
3790.00,0.0013
3789.00,0.0013
3788.00,0.0013
3787.00,0.0013
3786.00,0.0013
3785.00,0.0013
3784.00,0.0013
3783.00,0.0013
3782.00,0.0013
3781.00,0.0013
3780.00,0.0013
3779.00,0.0013
3778.00,0.0013
3777.00,0.0013
3776.00,0.0013
3775.00,0.0013
3774.00,0.0013
3773.00,0.0013
3772.00,0.0013
3771.00,0.0013
3770.00,0.0013
3769.00,0.0013
3768.00,0.0014
3767.00,0.0014
3766.00,0.0014
3765.00,0.0014
3764.00,0.0014
3763.00,0.0014
3762.00,0.0014
3761.00,0.0014
3760.00,0.0014
3759.00,0.0014
3758.00,0.0014
3757.00,0.0015
3756.00,0.0015
3755.00,0.0016
3754.00,0.0016
3753.00,0.0017
3752.00,0.0017
3751.00,0.0017
3750.00,0.0018
3749.00,0.0018
3748.00,0.0019
3747.00,0.0020
3746.00,0.0020
3745.00,0.0019
3744.00,0.0018
3743.00,0.0018
3742.00,0.0017
3741.00,0.0016
3740.00,0.0016
3739.00,0.0015
3738.00,0.0015
3737.00,0.0014
3736.00,0.0014
3735.00,0.0015
3734.00,0.0015
3733.00,0.0015
3732.00,0.0014
3731.00,0.0014
3730.00,0.0014
3729.00,0.0014
3728.00,0.0014
3727.00,0.0013
3726.00,0.0013
3725.00,0.0013
3724.00,0.0012
3723.00,0.0012
3722.00,0.0012
3721.00,0.0012
3720.00,0.0012
3719.00,0.0012
3718.00,0.0012
3717.00,0.0012
3716.00,0.0012
3715.00,0.0012
3714.00,0.0013
3713.00,0.0013
3712.00,0.0013
3711.00,0.0013
3710.00,0.0014
3709.00,0.0014
3708.00,0.0014
3707.00,0.0014
3706.00,0.0013
3705.00,0.0013
3704.00,0.0012
3703.00,0.0012
3702.00,0.0011
3701.00,0.0011
3700.00,0.0011
3699.00,0.0012
3698.00,0.0012
3697.00,0.0011
3696.00,0.0011
3695.00,0.0011
3694.00,0.0012
3693.00,0.0012
3692.00,0.0013
3691.00,0.0014
3690.00,0.0014
3689.00,0.0015
3688.00,0.0015
3687.00,0.0015
3686.00,0.0015
3685.00,0.0015
3684.00,0.0015
3683.00,0.0015
3682.00,0.0014
3681.00,0.0014
3680.00,0.0015
3679.00,0.0015
3678.00,0.0016
3677.00,0.0017
3676.00,0.0017
3675.00,0.0017
3674.00,0.0017
3673.00,0.0018
3672.00,0.0018
3671.00,0.0018
3670.00,0.0018
3669.00,0.0017
3668.00,0.0017
3667.00,0.0017
3666.00,0.0016
3665.00,0.0016
3664.00,0.0015
3663.00,0.0014
3662.00,0.0014
3661.00,0.0014
3660.00,0.0014
3659.00,0.0014
3658.00,0.0015
3657.00,0.0015
3656.00,0.0015
3655.00,0.0016
3654.00,0.0016
3653.00,0.0017
3652.00,0.0018
3651.00,0.0018
3650.00,0.0019
3649.00,0.0019
3648.00,0.0020
3647.00,0.0020
3646.00,0.0020
3645.00,0.0020
3644.00,0.0019
3643.00,0.0019
3642.00,0.0018
3641.00,0.0018
3640.00,0.0018
3639.00,0.0018
3638.00,0.0017
3637.00,0.0018
3636.00,0.0018
3635.00,0.0018
3634.00,0.0019
3633.00,0.0020
3632.00,0.0021
3631.00,0.0022
3630.00,0.0022
3629.00,0.0023
3628.00,0.0023
3627.00,0.0023
3626.00,0.0024
3625.00,0.0023
3624.00,0.0024
3623.00,0.0024
3622.00,0.0024
3621.00,0.0024
3620.00,0.0025
3619.00,0.0025
3618.00,0.0026
3617.00,0.0026
3616.00,0.0026
3615.00,0.0027
3614.00,0.0027
3613.00,0.0027
3612.00,0.0027
3611.00,0.0028
3610.00,0.0028
3609.00,0.0028
3608.00,0.0029
3607.00,0.0029
3606.00,0.0029
3605.00,0.0029
3604.00,0.0029
3603.00,0.0029
3602.00,0.0029
3601.00,0.0030
3600.00,0.0030
3599.00,0.0030
3598.00,0.0030
3597.00,0.0031
3596.00,0.0031
3595.00,0.0032
3594.00,0.0032
3593.00,0.0033
3592.00,0.0033
3591.00,0.0034
3590.00,0.0034
3589.00,0.0035
3588.00,0.0035
3587.00,0.0036
3586.00,0.0036
3585.00,0.0036
3584.00,0.0037
3583.00,0.0037
3582.00,0.0037
3581.00,0.0038
3580.00,0.0038
3579.00,0.0038
3578.00,0.0039
3577.00,0.0039
3576.00,0.0040
3575.00,0.0040
3574.00,0.0041
3573.00,0.0042
3572.00,0.0043
3571.00,0.0044
3570.00,0.0045
3569.00,0.0046
3568.00,0.0047
3567.00,0.0047
3566.00,0.0047
3565.00,0.0048
3564.00,0.0048
3563.00,0.0049
3562.00,0.0049
3561.00,0.0050
3560.00,0.0050
3559.00,0.0051
3558.00,0.0051
3557.00,0.0052
3556.00,0.0053
3555.00,0.0054
3554.00,0.0054
3553.00,0.0055
3552.00,0.0056
3551.00,0.0056
3550.00,0.0057
3549.00,0.0058
3548.00,0.0059
3547.00,0.0060
3546.00,0.0061
3545.00,0.0061
3544.00,0.0061
3543.00,0.0062
3542.00,0.0063
3541.00,0.0064
3540.00,0.0065
3539.00,0.0066
3538.00,0.0067
3537.00,0.0068
3536.00,0.0068
3535.00,0.0069
3534.00,0.0070
3533.00,0.0071
3532.00,0.0072
3531.00,0.0073
3530.00,0.0074
3529.00,0.0075
3528.00,0.0076
3527.00,0.0077
3526.00,0.0078
3525.00,0.0079
3524.00,0.0080
3523.00,0.0080
3522.00,0.0081
3521.00,0.0082
3520.00,0.0083
3519.00,0.0084
3518.00,0.0085
3517.00,0.0086
3516.00,0.0087
3515.00,0.0089
3514.00,0.0090
3513.00,0.0091
3512.00,0.0092
3511.00,0.0093
3510.00,0.0094
3509.00,0.0095
3508.00,0.0097
3507.00,0.0098
3506.00,0.0099
3505.00,0.0101
3504.00,0.0102
3503.00,0.0103
3502.00,0.0104
3501.00,0.0105
3500.00,0.0106
3499.00,0.0107
3498.00,0.0108
3497.00,0.0109
3496.00,0.0111
3495.00,0.0112
3494.00,0.0113
3493.00,0.0114
3492.00,0.0116
3491.00,0.0117
3490.00,0.0118
3489.00,0.0120
3488.00,0.0121
3487.00,0.0122
3486.00,0.0124
3485.00,0.0125
3484.00,0.0127
3483.00,0.0128
3482.00,0.0129
3481.00,0.0131
3480.00,0.0132
3479.00,0.0133
3478.00,0.0134
3477.00,0.0136
3476.00,0.0137
3475.00,0.0139
3474.00,0.0140
3473.00,0.0141
3472.00,0.0143
3471.00,0.0144
3470.00,0.0146
3469.00,0.0147
3468.00,0.0148
3467.00,0.0149
3466.00,0.0151
3465.00,0.0152
3464.00,0.0154
3463.00,0.0156
3462.00,0.0157
3461.00,0.0159
3460.00,0.0160
3459.00,0.0162
3458.00,0.0163
3457.00,0.0165
3456.00,0.0167
3455.00,0.0168
3454.00,0.0169
3453.00,0.0171
3452.00,0.0172
3451.00,0.0174
3450.00,0.0175
3449.00,0.0177
3448.00,0.0178
3447.00,0.0180
3446.00,0.0182
3445.00,0.0183
3444.00,0.0185
3443.00,0.0187
3442.00,0.0188
3441.00,0.0190
3440.00,0.0192
3439.00,0.0194
3438.00,0.0195
3437.00,0.0197
3436.00,0.0199
3435.00,0.0201
3434.00,0.0203
3433.00,0.0204
3432.00,0.0206
3431.00,0.0208
3430.00,0.0209
3429.00,0.0211
3428.00,0.0213
3427.00,0.0215
3426.00,0.0217
3425.00,0.0218
3424.00,0.0220
3423.00,0.0222
3422.00,0.0224
3421.00,0.0226
3420.00,0.0228
3419.00,0.0230
3418.00,0.0232
3417.00,0.0234
3416.00,0.0236
3415.00,0.0238
3414.00,0.0240
3413.00,0.0242
3412.00,0.0244
3411.00,0.0246
3410.00,0.0248
3409.00,0.0251
3408.00,0.0253
3407.00,0.0255
3406.00,0.0257
3405.00,0.0259
3404.00,0.0261
3403.00,0.0264
3402.00,0.0266
3401.00,0.0268
3400.00,0.0270
3399.00,0.0273
3398.00,0.0275
3397.00,0.0277
3396.00,0.0280
3395.00,0.0282
3394.00,0.0284
3393.00,0.0286
3392.00,0.0288
3391.00,0.0291
3390.00,0.0293
3389.00,0.0296
3388.00,0.0299
3387.00,0.0301
3386.00,0.0304
3385.00,0.0307
3384.00,0.0309
3383.00,0.0312
3382.00,0.0314
3381.00,0.0316
3380.00,0.0318
3379.00,0.0321
3378.00,0.0323
3377.00,0.0326
3376.00,0.0328
3375.00,0.0331
3374.00,0.0333
3373.00,0.0335
3372.00,0.0336
3371.00,0.0337
3370.00,0.0339
3369.00,0.0341
3368.00,0.0343
3367.00,0.0346
3366.00,0.0349
3365.00,0.0353
3364.00,0.0355
3363.00,0.0358
3362.00,0.0360
3361.00,0.0362
3360.00,0.0364
3359.00,0.0366
3358.00,0.0369
3357.00,0.0371
3356.00,0.0374
3355.00,0.0376
3354.00,0.0377
3353.00,0.0378
3352.00,0.0380
3351.00,0.0381
3350.00,0.0383
3349.00,0.0386
3348.00,0.0388
3347.00,0.0390
3346.00,0.0392
3345.00,0.0394
3344.00,0.0396
3343.00,0.0397
3342.00,0.0399
3341.00,0.0400
3340.00,0.0402
3339.00,0.0403
3338.00,0.0405
3337.00,0.0408
3336.00,0.0410
3335.00,0.0413
3334.00,0.0415
3333.00,0.0417
3332.00,0.0419
3331.00,0.0420
3330.00,0.0422
3329.00,0.0423
3328.00,0.0424
3327.00,0.0424
3326.00,0.0425
3325.00,0.0427
3324.00,0.0429
3323.00,0.0431
3322.00,0.0434
3321.00,0.0435
3320.00,0.0437
3319.00,0.0439
3318.00,0.0440
3317.00,0.0441
3316.00,0.0443
3315.00,0.0444
3314.00,0.0445
3313.00,0.0446
3312.00,0.0446
3311.00,0.0446
3310.00,0.0446
3309.00,0.0445
3308.00,0.0445
3307.00,0.0446
3306.00,0.0447
3305.00,0.0449
3304.00,0.0452
3303.00,0.0455
3302.00,0.0457
3301.00,0.0459
3300.00,0.0460
3299.00,0.0460
3298.00,0.0460
3297.00,0.0460
3296.00,0.0460
3295.00,0.0460
3294.00,0.0460
3293.00,0.0461
3292.00,0.0462
3291.00,0.0463
3290.00,0.0465
3289.00,0.0466
3288.00,0.0468
3287.00,0.0468
3286.00,0.0469
3285.00,0.0469
3284.00,0.0469
3283.00,0.0469
3282.00,0.0469
3281.00,0.0470
3280.00,0.0470
3279.00,0.0471
3278.00,0.0471
3277.00,0.0471
3276.00,0.0470
3275.00,0.0470
3274.00,0.0469
3273.00,0.0469
3272.00,0.0469
3271.00,0.0469
3270.00,0.0469
3269.00,0.0470
3268.00,0.0471
3267.00,0.0471
3266.00,0.0472
3265.00,0.0472
3264.00,0.0472
3263.00,0.0472
3262.00,0.0472
3261.00,0.0472
3260.00,0.0472
3259.00,0.0472
3258.00,0.0472
3257.00,0.0471
3256.00,0.0471
3255.00,0.0471
3254.00,0.0471
3253.00,0.0471
3252.00,0.0471
3251.00,0.0470
3250.00,0.0470
3249.00,0.0469
3248.00,0.0469
3247.00,0.0469
3246.00,0.0469
3245.00,0.0469
3244.00,0.0469
3243.00,0.0468
3242.00,0.0468
3241.00,0.0468
3240.00,0.0468
3239.00,0.0467
3238.00,0.0466
3237.00,0.0466
3236.00,0.0465
3235.00,0.0464
3234.00,0.0463
3233.00,0.0463
3232.00,0.0463
3231.00,0.0462
3230.00,0.0462
3229.00,0.0461
3228.00,0.0461
3227.00,0.0460
3226.00,0.0460
3225.00,0.0459
3224.00,0.0458
3223.00,0.0458
3222.00,0.0457
3221.00,0.0457
3220.00,0.0456
3219.00,0.0455
3218.00,0.0455
3217.00,0.0455
3216.00,0.0454
3215.00,0.0454
3214.00,0.0454
3213.00,0.0454
3212.00,0.0454
3211.00,0.0453
3210.00,0.0453
3209.00,0.0453
3208.00,0.0452
3207.00,0.0452
3206.00,0.0452
3205.00,0.0451
3204.00,0.0451
3203.00,0.0450
3202.00,0.0449
3201.00,0.0448
3200.00,0.0448
3199.00,0.0447
3198.00,0.0446
3197.00,0.0445
3196.00,0.0444
3195.00,0.0443
3194.00,0.0442
3193.00,0.0440
3192.00,0.0439
3191.00,0.0438
3190.00,0.0436
3189.00,0.0435
3188.00,0.0433
3187.00,0.0432
3186.00,0.0431
3185.00,0.0430
3184.00,0.0428
3183.00,0.0427
3182.00,0.0425
3181.00,0.0423
3180.00,0.0422
3179.00,0.0420
3178.00,0.0418
3177.00,0.0417
3176.00,0.0415
3175.00,0.0413
3174.00,0.0411
3173.00,0.0409
3172.00,0.0407
3171.00,0.0405
3170.00,0.0404
3169.00,0.0402
3168.00,0.0400
3167.00,0.0398
3166.00,0.0396
3165.00,0.0394
3164.00,0.0392
3163.00,0.0390
3162.00,0.0388
3161.00,0.0386
3160.00,0.0384
3159.00,0.0382
3158.00,0.0380
3157.00,0.0378
3156.00,0.0376
3155.00,0.0374
3154.00,0.0372
3153.00,0.0370
3152.00,0.0368
3151.00,0.0366
3150.00,0.0365
3149.00,0.0363
3148.00,0.0361
3147.00,0.0359
3146.00,0.0357
3145.00,0.0355
3144.00,0.0354
3143.00,0.0352
3142.00,0.0350
3141.00,0.0349
3140.00,0.0348
3139.00,0.0346
3138.00,0.0345
3137.00,0.0344
3136.00,0.0342
3135.00,0.0341
3134.00,0.0339
3133.00,0.0338
3132.00,0.0337
3131.00,0.0335
3130.00,0.0334
3129.00,0.0332
3128.00,0.0331
3127.00,0.0329
3126.00,0.0327
3125.00,0.0325
3124.00,0.0324
3123.00,0.0322
3122.00,0.0320
3121.00,0.0318
3120.00,0.0316
3119.00,0.0315
3118.00,0.0313
3117.00,0.0311
3116.00,0.0309
3115.00,0.0307
3114.00,0.0305
3113.00,0.0303
3112.00,0.0300
3111.00,0.0298
3110.00,0.0296
3109.00,0.0293
3108.00,0.0291
3107.00,0.0289
3106.00,0.0287
3105.00,0.0285
3104.00,0.0283
3103.00,0.0282
3102.00,0.0279
3101.00,0.0277
3100.00,0.0275
3099.00,0.0273
3098.00,0.0272
3097.00,0.0270
3096.00,0.0267
3095.00,0.0265
3094.00,0.0264
3093.00,0.0262
3092.00,0.0260
3091.00,0.0258
3090.00,0.0256
3089.00,0.0255
3088.00,0.0253
3087.00,0.0252
3086.00,0.0250
3085.00,0.0248
3084.00,0.0247
3083.00,0.0245
3082.00,0.0244
3081.00,0.0242
3080.00,0.0240
3079.00,0.0239
3078.00,0.0238
3077.00,0.0236
3076.00,0.0235
3075.00,0.0234
3074.00,0.0233
3073.00,0.0231
3072.00,0.0230
3071.00,0.0229
3070.00,0.0228
3069.00,0.0227
3068.00,0.0227
3067.00,0.0226
3066.00,0.0225
3065.00,0.0224
3064.00,0.0223
3063.00,0.0223
3062.00,0.0222
3061.00,0.0222
3060.00,0.0221
3059.00,0.0221
3058.00,0.0220
3057.00,0.0219
3056.00,0.0218
3055.00,0.0218
3054.00,0.0217
3053.00,0.0217
3052.00,0.0216
3051.00,0.0215
3050.00,0.0214
3049.00,0.0213
3048.00,0.0212
3047.00,0.0211
3046.00,0.0211
3045.00,0.0210
3044.00,0.0208
3043.00,0.0207
3042.00,0.0207
3041.00,0.0206
3040.00,0.0205
3039.00,0.0205
3038.00,0.0205
3037.00,0.0204
3036.00,0.0204
3035.00,0.0204
3034.00,0.0204
3033.00,0.0205
3032.00,0.0205
3031.00,0.0205
3030.00,0.0206
3029.00,0.0206
3028.00,0.0206
3027.00,0.0205
3026.00,0.0205
3025.00,0.0204
3024.00,0.0204
3023.00,0.0204
3022.00,0.0203
3021.00,0.0203
3020.00,0.0203
3019.00,0.0203
3018.00,0.0204
3017.00,0.0204
3016.00,0.0204
3015.00,0.0205
3014.00,0.0206
3013.00,0.0207
3012.00,0.0208
3011.00,0.0210
3010.00,0.0212
3009.00,0.0214
3008.00,0.0217
3007.00,0.0220
3006.00,0.0223
3005.00,0.0227
3004.00,0.0231
3003.00,0.0235
3002.00,0.0240
3001.00,0.0246
3000.00,0.0252
2999.00,0.0258
2998.00,0.0265
2997.00,0.0273
2996.00,0.0281
2995.00,0.0290
2994.00,0.0298
2993.00,0.0308
2992.00,0.0317
2991.00,0.0327
2990.00,0.0338
2989.00,0.0348
2988.00,0.0359
2987.00,0.0369
2986.00,0.0379
2985.00,0.0389
2984.00,0.0398
2983.00,0.0407
2982.00,0.0417
2981.00,0.0427
2980.00,0.0438
2979.00,0.0449
2978.00,0.0461
2977.00,0.0474
2976.00,0.0486
2975.00,0.0499
2974.00,0.0512
2973.00,0.0525
2972.00,0.0539
2971.00,0.0554
2970.00,0.0568
2969.00,0.0582
2968.00,0.0595
2967.00,0.0608
2966.00,0.0620
2965.00,0.0631
2964.00,0.0641
2963.00,0.0650
2962.00,0.0657
2961.00,0.0663
2960.00,0.0668
2959.00,0.0671
2958.00,0.0672
2957.00,0.0672
2956.00,0.0670
2955.00,0.0667
2954.00,0.0662
2953.00,0.0655
2952.00,0.0648
2951.00,0.0640
2950.00,0.0632
2949.00,0.0625
2948.00,0.0620
2947.00,0.0616
2946.00,0.0615
2945.00,0.0617
2944.00,0.0621
2943.00,0.0629
2942.00,0.0639
2941.00,0.0651
2940.00,0.0666
2939.00,0.0683
2938.00,0.0702
2937.00,0.0721
2936.00,0.0742
2935.00,0.0762
2934.00,0.0783
2933.00,0.0803
2932.00,0.0821
2931.00,0.0838
2930.00,0.0853
2929.00,0.0867
2928.00,0.0878
2927.00,0.0886
2926.00,0.0893
2925.00,0.0897
2924.00,0.0899
2923.00,0.0899
2922.00,0.0897
2921.00,0.0893
2920.00,0.0889
2919.00,0.0882
2918.00,0.0875
2917.00,0.0866
2916.00,0.0856
2915.00,0.0844
2914.00,0.0831
2913.00,0.0816
2912.00,0.0801
2911.00,0.0786
2910.00,0.0770
2909.00,0.0754
2908.00,0.0738
2907.00,0.0723
2906.00,0.0708
2905.00,0.0694
2904.00,0.0681
2903.00,0.0670
2902.00,0.0659
2901.00,0.0649
2900.00,0.0640
2899.00,0.0632
2898.00,0.0624
2897.00,0.0617
2896.00,0.0611
2895.00,0.0604
2894.00,0.0598
2893.00,0.0592
2892.00,0.0586
2891.00,0.0581
2890.00,0.0575
2889.00,0.0569
2888.00,0.0564
2887.00,0.0559
2886.00,0.0554
2885.00,0.0549
2884.00,0.0545
2883.00,0.0542
2882.00,0.0540
2881.00,0.0538
2880.00,0.0538
2879.00,0.0539
2878.00,0.0541
2877.00,0.0543
2876.00,0.0546
2875.00,0.0549
2874.00,0.0552
2873.00,0.0555
2872.00,0.0558
2871.00,0.0559
2870.00,0.0559
2869.00,0.0557
2868.00,0.0556
2867.00,0.0555
2866.00,0.0555
2865.00,0.0558
2864.00,0.0563
2863.00,0.0570
2862.00,0.0578
2861.00,0.0587
2860.00,0.0596
2859.00,0.0604
2858.00,0.0610
2857.00,0.0613
2856.00,0.0613
2855.00,0.0609
2854.00,0.0602
2853.00,0.0591
2852.00,0.0578
2851.00,0.0563
2850.00,0.0545
2849.00,0.0527
2848.00,0.0508
2847.00,0.0489
2846.00,0.0470
2845.00,0.0451
2844.00,0.0433
2843.00,0.0416
2842.00,0.0399
2841.00,0.0383
2840.00,0.0368
2839.00,0.0355
2838.00,0.0343
2837.00,0.0332
2836.00,0.0322
2835.00,0.0313
2834.00,0.0304
2833.00,0.0296
2832.00,0.0289
2831.00,0.0281
2830.00,0.0274
2829.00,0.0267
2828.00,0.0260
2827.00,0.0253
2826.00,0.0245
2825.00,0.0238
2824.00,0.0231
2823.00,0.0224
2822.00,0.0217
2821.00,0.0210
2820.00,0.0204
2819.00,0.0198
2818.00,0.0192
2817.00,0.0187
2816.00,0.0182
2815.00,0.0177
2814.00,0.0173
2813.00,0.0169
2812.00,0.0166
2811.00,0.0163
2810.00,0.0160
2809.00,0.0157
2808.00,0.0154
2807.00,0.0152
2806.00,0.0149
2805.00,0.0146
2804.00,0.0144
2803.00,0.0142
2802.00,0.0140
2801.00,0.0138
2800.00,0.0136
2799.00,0.0134
2798.00,0.0132
2797.00,0.0131
2796.00,0.0130
2795.00,0.0128
2794.00,0.0127
2793.00,0.0126
2792.00,0.0124
2791.00,0.0123
2790.00,0.0122
2789.00,0.0121
2788.00,0.0121
2787.00,0.0120
2786.00,0.0119
2785.00,0.0118
2784.00,0.0117
2783.00,0.0117
2782.00,0.0116
2781.00,0.0115
2780.00,0.0115
2779.00,0.0114
2778.00,0.0113
2777.00,0.0112
2776.00,0.0112
2775.00,0.0111
2774.00,0.0110
2773.00,0.0109
2772.00,0.0109
2771.00,0.0108
2770.00,0.0108
2769.00,0.0107
2768.00,0.0107
2767.00,0.0107
2766.00,0.0106
2765.00,0.0106
2764.00,0.0106
2763.00,0.0106
2762.00,0.0106
2761.00,0.0105
2760.00,0.0105
2759.00,0.0105
2758.00,0.0105
2757.00,0.0105
