Created as New Dataset,Sample 307 By YargerLab Date Saturday, October 18 2025
cm-1,A
4000.00,0.0018
3999.00,0.0018
3998.00,0.0018
3997.00,0.0018
3996.00,0.0018
3995.00,0.0018
3994.00,0.0018
3993.00,0.0018
3992.00,0.0018
3991.00,0.0018
3990.00,0.0018
3989.00,0.0018
3988.00,0.0018
3987.00,0.0018
3986.00,0.0018
3985.00,0.0018
3984.00,0.0017
3983.00,0.0017
3982.00,0.0017
3981.00,0.0017
3980.00,0.0018
3979.00,0.0018
3978.00,0.0018
3977.00,0.0018
3976.00,0.0018
3975.00,0.0018
3974.00,0.0018
3973.00,0.0018
3972.00,0.0018
3971.00,0.0018
3970.00,0.0018
3969.00,0.0018
3968.00,0.0017
3967.00,0.0017
3966.00,0.0017
3965.00,0.0017
3964.00,0.0017
3963.00,0.0017
3962.00,0.0017
3961.00,0.0018
3960.00,0.0018
3959.00,0.0018
3958.00,0.0018
3957.00,0.0018
3956.00,0.0018
3955.00,0.0017
3954.00,0.0017
3953.00,0.0017
3952.00,0.0017
3951.00,0.0017
3950.00,0.0017
3949.00,0.0017
3948.00,0.0017
3947.00,0.0017
3946.00,0.0016
3945.00,0.0016
3944.00,0.0016
3943.00,0.0016
3942.00,0.0017
3941.00,0.0017
3940.00,0.0017
3939.00,0.0017
3938.00,0.0017
3937.00,0.0017
3936.00,0.0017
3935.00,0.0017
3934.00,0.0017
3933.00,0.0017
3932.00,0.0017
3931.00,0.0017
3930.00,0.0016
3929.00,0.0016
3928.00,0.0017
3927.00,0.0017
3926.00,0.0017
3925.00,0.0017
3924.00,0.0017
3923.00,0.0016
3922.00,0.0016
3921.00,0.0016
3920.00,0.0016
3919.00,0.0016
3918.00,0.0016
3917.00,0.0016
3916.00,0.0016
3915.00,0.0016
3914.00,0.0016
3913.00,0.0016
3912.00,0.0016
3911.00,0.0017
3910.00,0.0017
3909.00,0.0016
3908.00,0.0016
3907.00,0.0016
3906.00,0.0015
3905.00,0.0015
3904.00,0.0015
3903.00,0.0015
3902.00,0.0015
3901.00,0.0015
3900.00,0.0015
3899.00,0.0015
3898.00,0.0015
3897.00,0.0015
3896.00,0.0015
3895.00,0.0015
3894.00,0.0015
3893.00,0.0015
3892.00,0.0016
3891.00,0.0016
3890.00,0.0016
3889.00,0.0015
3888.00,0.0015
3887.00,0.0015
3886.00,0.0015
3885.00,0.0015
3884.00,0.0015
3883.00,0.0014
3882.00,0.0013
3881.00,0.0013
3880.00,0.0014
3879.00,0.0014
3878.00,0.0014
3877.00,0.0014
3876.00,0.0014
3875.00,0.0015
3874.00,0.0015
3873.00,0.0015
3872.00,0.0014
3871.00,0.0014
3870.00,0.0014
3869.00,0.0014
3868.00,0.0014
3867.00,0.0014
3866.00,0.0013
3865.00,0.0014
3864.00,0.0014
3863.00,0.0014
3862.00,0.0014
3861.00,0.0015
3860.00,0.0015
3859.00,0.0015
3858.00,0.0015
3857.00,0.0015
3856.00,0.0014
3855.00,0.0014
3854.00,0.0014
3853.00,0.0014
3852.00,0.0014
3851.00,0.0013
3850.00,0.0013
3849.00,0.0013
3848.00,0.0014
3847.00,0.0014
3846.00,0.0014
3845.00,0.0014
3844.00,0.0015
3843.00,0.0015
3842.00,0.0015
3841.00,0.0014
3840.00,0.0014
3839.00,0.0014
3838.00,0.0014
3837.00,0.0014
3836.00,0.0013
3835.00,0.0013
3834.00,0.0014
3833.00,0.0014
3832.00,0.0014
3831.00,0.0014
3830.00,0.0014
3829.00,0.0014
3828.00,0.0014
3827.00,0.0014
3826.00,0.0015
3825.00,0.0015
3824.00,0.0014
3823.00,0.0014
3822.00,0.0013
3821.00,0.0013
3820.00,0.0013
3819.00,0.0013
3818.00,0.0013
3817.00,0.0013
3816.00,0.0013
3815.00,0.0013
3814.00,0.0013
3813.00,0.0013
3812.00,0.0014
3811.00,0.0014
3810.00,0.0014
3809.00,0.0014
3808.00,0.0014
3807.00,0.0014
3806.00,0.0014
3805.00,0.0014
3804.00,0.0013
3803.00,0.0013
3802.00,0.0013
3801.00,0.0013
3800.00,0.0013
3799.00,0.0013
3798.00,0.0013
3797.00,0.0013
3796.00,0.0014
3795.00,0.0014
3794.00,0.0014
3793.00,0.0014
3792.00,0.0014
3791.00,0.0015
3790.00,0.0015
3789.00,0.0015
3788.00,0.0015
3787.00,0.0015
3786.00,0.0015
3785.00,0.0015
3784.00,0.0015
3783.00,0.0014
3782.00,0.0014
3781.00,0.0014
3780.00,0.0014
3779.00,0.0014
3778.00,0.0014
3777.00,0.0014
3776.00,0.0014
3775.00,0.0014
3774.00,0.0014
3773.00,0.0014
3772.00,0.0014
3771.00,0.0014
3770.00,0.0015
3769.00,0.0015
3768.00,0.0014
3767.00,0.0014
3766.00,0.0014
3765.00,0.0014
3764.00,0.0014
3763.00,0.0014
3762.00,0.0014
3761.00,0.0014
3760.00,0.0014
3759.00,0.0014
3758.00,0.0014
3757.00,0.0014
3756.00,0.0014
3755.00,0.0014
3754.00,0.0013
3753.00,0.0013
3752.00,0.0013
3751.00,0.0012
3750.00,0.0012
3749.00,0.0012
3748.00,0.0012
3747.00,0.0012
3746.00,0.0012
3745.00,0.0012
3744.00,0.0013
3743.00,0.0012
3742.00,0.0012
3741.00,0.0012
3740.00,0.0012
3739.00,0.0012
3738.00,0.0012
3737.00,0.0012
3736.00,0.0012
3735.00,0.0012
3734.00,0.0012
3733.00,0.0012
3732.00,0.0012
3731.00,0.0012
3730.00,0.0012
3729.00,0.0012
3728.00,0.0013
3727.00,0.0013
3726.00,0.0013
3725.00,0.0013
3724.00,0.0013
3723.00,0.0013
3722.00,0.0013
3721.00,0.0013
3720.00,0.0013
3719.00,0.0013
3718.00,0.0013
3717.00,0.0013
3716.00,0.0013
3715.00,0.0013
3714.00,0.0013
3713.00,0.0013
3712.00,0.0013
3711.00,0.0013
3710.00,0.0013
3709.00,0.0013
3708.00,0.0013
3707.00,0.0013
3706.00,0.0013
3705.00,0.0012
3704.00,0.0013
3703.00,0.0013
3702.00,0.0013
3701.00,0.0013
3700.00,0.0014
3699.00,0.0014
3698.00,0.0014
3697.00,0.0014
3696.00,0.0014
3695.00,0.0014
3694.00,0.0014
3693.00,0.0014
3692.00,0.0014
3691.00,0.0014
3690.00,0.0014
3689.00,0.0014
3688.00,0.0014
3687.00,0.0014
3686.00,0.0014
3685.00,0.0015
3684.00,0.0015
3683.00,0.0016
3682.00,0.0016
3681.00,0.0016
3680.00,0.0016
3679.00,0.0016
3678.00,0.0015
3677.00,0.0015
3676.00,0.0015
3675.00,0.0016
3674.00,0.0016
3673.00,0.0016
3672.00,0.0016
3671.00,0.0017
3670.00,0.0017
3669.00,0.0018
3668.00,0.0018
3667.00,0.0018
3666.00,0.0018
3665.00,0.0018
3664.00,0.0018
3663.00,0.0019
3662.00,0.0019
3661.00,0.0019
3660.00,0.0019
3659.00,0.0019
3658.00,0.0019
3657.00,0.0020
3656.00,0.0020
3655.00,0.0021
3654.00,0.0021
3653.00,0.0021
3652.00,0.0020
3651.00,0.0020
3650.00,0.0021
3649.00,0.0021
3648.00,0.0021
3647.00,0.0021
3646.00,0.0021
3645.00,0.0022
3644.00,0.0022
3643.00,0.0023
3642.00,0.0024
3641.00,0.0025
3640.00,0.0025
3639.00,0.0026
3638.00,0.0026
3637.00,0.0026
3636.00,0.0027
3635.00,0.0027
3634.00,0.0027
3633.00,0.0028
3632.00,0.0027
3631.00,0.0027
3630.00,0.0028
3629.00,0.0028
3628.00,0.0029
3627.00,0.0030
3626.00,0.0030
3625.00,0.0031
3624.00,0.0032
3623.00,0.0033
3622.00,0.0034
3621.00,0.0034
3620.00,0.0035
3619.00,0.0035
3618.00,0.0036
3617.00,0.0036
3616.00,0.0037
3615.00,0.0038
3614.00,0.0038
3613.00,0.0039
3612.00,0.0039
3611.00,0.0040
3610.00,0.0041
3609.00,0.0041
3608.00,0.0042
3607.00,0.0043
3606.00,0.0044
3605.00,0.0045
3604.00,0.0045
3603.00,0.0046
3602.00,0.0047
3601.00,0.0048
3600.00,0.0049
3599.00,0.0049
3598.00,0.0050
3597.00,0.0051
3596.00,0.0051
3595.00,0.0052
3594.00,0.0053
3593.00,0.0054
3592.00,0.0054
3591.00,0.0055
3590.00,0.0055
3589.00,0.0056
3588.00,0.0057
3587.00,0.0058
3586.00,0.0059
3585.00,0.0060
3584.00,0.0061
3583.00,0.0062
3582.00,0.0063
3581.00,0.0064
3580.00,0.0065
3579.00,0.0066
3578.00,0.0066
3577.00,0.0067
3576.00,0.0068
3575.00,0.0069
3574.00,0.0070
3573.00,0.0072
3572.00,0.0073
3571.00,0.0074
3570.00,0.0075
3569.00,0.0076
3568.00,0.0077
3567.00,0.0078
3566.00,0.0079
3565.00,0.0080
3564.00,0.0082
3563.00,0.0083
3562.00,0.0085
3561.00,0.0086
3560.00,0.0088
3559.00,0.0089
3558.00,0.0090
3557.00,0.0092
3556.00,0.0093
3555.00,0.0095
3554.00,0.0096
3553.00,0.0097
3552.00,0.0099
3551.00,0.0100
3550.00,0.0101
3549.00,0.0103
3548.00,0.0104
3547.00,0.0106
3546.00,0.0108
3545.00,0.0110
3544.00,0.0112
3543.00,0.0114
3542.00,0.0116
3541.00,0.0117
3540.00,0.0119
3539.00,0.0121
3538.00,0.0123
3537.00,0.0124
3536.00,0.0126
3535.00,0.0128
3534.00,0.0130
3533.00,0.0131
3532.00,0.0133
3531.00,0.0135
3530.00,0.0137
3529.00,0.0139
3528.00,0.0141
3527.00,0.0143
3526.00,0.0145
3525.00,0.0147
3524.00,0.0149
3523.00,0.0151
3522.00,0.0153
3521.00,0.0155
3520.00,0.0157
3519.00,0.0159
3518.00,0.0161
3517.00,0.0163
3516.00,0.0166
3515.00,0.0168
3514.00,0.0170
3513.00,0.0172
3512.00,0.0174
3511.00,0.0176
3510.00,0.0178
3509.00,0.0181
3508.00,0.0183
3507.00,0.0185
3506.00,0.0188
3505.00,0.0190
3504.00,0.0192
3503.00,0.0195
3502.00,0.0197
3501.00,0.0199
3500.00,0.0201
3499.00,0.0204
3498.00,0.0206
3497.00,0.0209
3496.00,0.0211
3495.00,0.0213
3494.00,0.0215
3493.00,0.0217
3492.00,0.0220
3491.00,0.0222
3490.00,0.0224
3489.00,0.0227
3488.00,0.0229
3487.00,0.0231
3486.00,0.0233
3485.00,0.0235
3484.00,0.0237
3483.00,0.0240
3482.00,0.0241
3481.00,0.0243
3480.00,0.0245
3479.00,0.0247
3478.00,0.0249
3477.00,0.0251
3476.00,0.0253
3475.00,0.0255
3474.00,0.0257
3473.00,0.0259
3472.00,0.0261
3471.00,0.0264
3470.00,0.0266
3469.00,0.0267
3468.00,0.0269
3467.00,0.0270
3466.00,0.0272
3465.00,0.0273
3464.00,0.0275
3463.00,0.0276
3462.00,0.0278
3461.00,0.0279
3460.00,0.0281
3459.00,0.0282
3458.00,0.0284
3457.00,0.0285
3456.00,0.0286
3455.00,0.0287
3454.00,0.0288
3453.00,0.0289
3452.00,0.0290
3451.00,0.0292
3450.00,0.0293
3449.00,0.0294
3448.00,0.0295
3447.00,0.0297
3446.00,0.0298
3445.00,0.0299
3444.00,0.0300
3443.00,0.0301
3442.00,0.0302
3441.00,0.0303
3440.00,0.0304
3439.00,0.0305
3438.00,0.0306
3437.00,0.0307
3436.00,0.0308
3435.00,0.0308
3434.00,0.0309
3433.00,0.0309
3432.00,0.0310
3431.00,0.0311
3430.00,0.0312
3429.00,0.0313
3428.00,0.0313
3427.00,0.0314
3426.00,0.0315
3425.00,0.0315
3424.00,0.0316
3423.00,0.0316
3422.00,0.0317
3421.00,0.0317
3420.00,0.0317
3419.00,0.0317
3418.00,0.0318
3417.00,0.0319
3416.00,0.0319
3415.00,0.0319
3414.00,0.0319
3413.00,0.0320
3412.00,0.0320
3411.00,0.0321
3410.00,0.0321
3409.00,0.0321
3408.00,0.0321
3407.00,0.0321
3406.00,0.0321
3405.00,0.0322
3404.00,0.0322
3403.00,0.0322
3402.00,0.0323
3401.00,0.0323
3400.00,0.0323
3399.00,0.0323
3398.00,0.0323
3397.00,0.0322
3396.00,0.0322
3395.00,0.0323
3394.00,0.0323
3393.00,0.0323
3392.00,0.0323
3391.00,0.0322
3390.00,0.0322
3389.00,0.0322
3388.00,0.0321
3387.00,0.0321
3386.00,0.0321
3385.00,0.0321
3384.00,0.0321
3383.00,0.0321
3382.00,0.0321
3381.00,0.0321
3380.00,0.0321
3379.00,0.0321
3378.00,0.0320
3377.00,0.0320
3376.00,0.0319
3375.00,0.0319
3374.00,0.0319
3373.00,0.0319
3372.00,0.0319
3371.00,0.0319
3370.00,0.0318
3369.00,0.0318
3368.00,0.0318
3367.00,0.0317
3366.00,0.0316
3365.00,0.0315
3364.00,0.0315
3363.00,0.0315
3362.00,0.0314
3361.00,0.0314
3360.00,0.0313
3359.00,0.0313
3358.00,0.0312
3357.00,0.0312
3356.00,0.0312
3355.00,0.0311
3354.00,0.0311
3353.00,0.0310
3352.00,0.0310
3351.00,0.0309
3350.00,0.0308
3349.00,0.0308
3348.00,0.0307
3347.00,0.0306
3346.00,0.0305
3345.00,0.0305
3344.00,0.0304
3343.00,0.0304
3342.00,0.0303
3341.00,0.0303
3340.00,0.0302
3339.00,0.0301
3338.00,0.0300
3337.00,0.0299
3336.00,0.0298
3335.00,0.0297
3334.00,0.0297
3333.00,0.0296
3332.00,0.0295
3331.00,0.0295
3330.00,0.0294
3329.00,0.0293
3328.00,0.0292
3327.00,0.0292
3326.00,0.0291
3325.00,0.0290
3324.00,0.0289
3323.00,0.0288
3322.00,0.0286
3321.00,0.0286
3320.00,0.0285
3319.00,0.0284
3318.00,0.0283
3317.00,0.0282
3316.00,0.0281
3315.00,0.0280
3314.00,0.0279
3313.00,0.0278
3312.00,0.0278
3311.00,0.0277
3310.00,0.0276
3309.00,0.0275
3308.00,0.0275
3307.00,0.0274
3306.00,0.0273
3305.00,0.0272
3304.00,0.0271
3303.00,0.0269
3302.00,0.0268
3301.00,0.0267
3300.00,0.0266
3299.00,0.0265
3298.00,0.0264
3297.00,0.0263
3296.00,0.0262
3295.00,0.0261
3294.00,0.0260
3293.00,0.0259
3292.00,0.0258
3291.00,0.0256
3290.00,0.0255
3289.00,0.0254
3288.00,0.0253
3287.00,0.0252
3286.00,0.0251
3285.00,0.0250
3284.00,0.0249
3283.00,0.0247
3282.00,0.0246
3281.00,0.0245
3280.00,0.0244
3279.00,0.0243
3278.00,0.0242
3277.00,0.0241
3276.00,0.0240
3275.00,0.0239
3274.00,0.0238
3273.00,0.0237
3272.00,0.0236
3271.00,0.0234
3270.00,0.0233
3269.00,0.0231
3268.00,0.0230
3267.00,0.0229
3266.00,0.0228
3265.00,0.0227
3264.00,0.0226
3263.00,0.0225
3262.00,0.0224
3261.00,0.0223
3260.00,0.0222
3259.00,0.0221
3258.00,0.0219
3257.00,0.0218
3256.00,0.0217
3255.00,0.0215
3254.00,0.0214
3253.00,0.0213
3252.00,0.0212
3251.00,0.0211
3250.00,0.0210
3249.00,0.0209
3248.00,0.0208
3247.00,0.0207
3246.00,0.0206
3245.00,0.0205
3244.00,0.0204
3243.00,0.0203
3242.00,0.0201
3241.00,0.0200
3240.00,0.0198
3239.00,0.0197
3238.00,0.0196
3237.00,0.0195
3236.00,0.0193
3235.00,0.0192
3234.00,0.0191
3233.00,0.0190
3232.00,0.0189
3231.00,0.0188
3230.00,0.0187
3229.00,0.0186
3228.00,0.0186
3227.00,0.0185
3226.00,0.0184
3225.00,0.0183
3224.00,0.0182
3223.00,0.0181
3222.00,0.0180
3221.00,0.0179
3220.00,0.0178
3219.00,0.0177
3218.00,0.0176
3217.00,0.0175
3216.00,0.0175
3215.00,0.0174
3214.00,0.0173
3213.00,0.0172
3212.00,0.0171
3211.00,0.0170
3210.00,0.0169
3209.00,0.0168
3208.00,0.0167
3207.00,0.0166
3206.00,0.0164
3205.00,0.0163
3204.00,0.0163
3203.00,0.0162
3202.00,0.0161
3201.00,0.0160
3200.00,0.0159
3199.00,0.0158
3198.00,0.0157
3197.00,0.0155
3196.00,0.0154
3195.00,0.0153
3194.00,0.0152
3193.00,0.0151
3192.00,0.0150
3191.00,0.0149
3190.00,0.0147
3189.00,0.0146
3188.00,0.0145
3187.00,0.0144
3186.00,0.0143
3185.00,0.0142
3184.00,0.0141
3183.00,0.0140
3182.00,0.0139
3181.00,0.0137
3180.00,0.0136
3179.00,0.0135
3178.00,0.0134
3177.00,0.0133
3176.00,0.0133
3175.00,0.0132
3174.00,0.0131
3173.00,0.0130
3172.00,0.0129
3171.00,0.0128
3170.00,0.0126
3169.00,0.0125
3168.00,0.0125
3167.00,0.0124
3166.00,0.0123
3165.00,0.0122
3164.00,0.0121
3163.00,0.0121
3162.00,0.0120
3161.00,0.0119
3160.00,0.0118
3159.00,0.0117
3158.00,0.0116
3157.00,0.0115
3156.00,0.0114
3155.00,0.0113
3154.00,0.0113
3153.00,0.0112
3152.00,0.0112
3151.00,0.0111
3150.00,0.0110
3149.00,0.0109
3148.00,0.0109
3147.00,0.0108
3146.00,0.0107
3145.00,0.0106
3144.00,0.0106
3143.00,0.0105
3142.00,0.0105
3141.00,0.0104
3140.00,0.0103
3139.00,0.0103
3138.00,0.0102
3137.00,0.0102
3136.00,0.0101
3135.00,0.0101
3134.00,0.0100
3133.00,0.0099
3132.00,0.0099
3131.00,0.0098
3130.00,0.0097
3129.00,0.0097
3128.00,0.0096
3127.00,0.0096
3126.00,0.0095
3125.00,0.0095
3124.00,0.0095
3123.00,0.0094
3122.00,0.0093
3121.00,0.0092
3120.00,0.0091
3119.00,0.0091
3118.00,0.0090
3117.00,0.0089
3116.00,0.0089
3115.00,0.0088
3114.00,0.0088
3113.00,0.0087
3112.00,0.0087
3111.00,0.0086
3110.00,0.0086
3109.00,0.0085
3108.00,0.0085
3107.00,0.0084
3106.00,0.0084
3105.00,0.0083
3104.00,0.0082
3103.00,0.0082
3102.00,0.0081
3101.00,0.0081
3100.00,0.0081
3099.00,0.0080
3098.00,0.0080
3097.00,0.0080
3096.00,0.0080
3095.00,0.0079
3094.00,0.0079
3093.00,0.0079
3092.00,0.0078
3091.00,0.0078
3090.00,0.0077
3089.00,0.0077
3088.00,0.0077
3087.00,0.0076
3086.00,0.0076
3085.00,0.0076
3084.00,0.0075
3083.00,0.0075
3082.00,0.0075
3081.00,0.0075
3080.00,0.0075
3079.00,0.0075
3078.00,0.0074
3077.00,0.0074
3076.00,0.0074
3075.00,0.0075
3074.00,0.0075
3073.00,0.0075
3072.00,0.0075
3071.00,0.0075
3070.00,0.0074
3069.00,0.0074
3068.00,0.0074
3067.00,0.0074
3066.00,0.0074
3065.00,0.0074
3064.00,0.0074
3063.00,0.0074
3062.00,0.0074
3061.00,0.0074
3060.00,0.0075
3059.00,0.0075
3058.00,0.0075
3057.00,0.0075
3056.00,0.0076
3055.00,0.0076
3054.00,0.0076
3053.00,0.0076
3052.00,0.0076
3051.00,0.0076
3050.00,0.0076
3049.00,0.0076
3048.00,0.0076
3047.00,0.0076
3046.00,0.0076
3045.00,0.0076
3044.00,0.0076
3043.00,0.0076
3042.00,0.0076
3041.00,0.0076
3040.00,0.0077
3039.00,0.0077
3038.00,0.0077
3037.00,0.0078
3036.00,0.0078
3035.00,0.0079
3034.00,0.0080
3033.00,0.0081
3032.00,0.0081
3031.00,0.0082
3030.00,0.0082
3029.00,0.0082
3028.00,0.0083
3027.00,0.0083
3026.00,0.0083
3025.00,0.0084
3024.00,0.0084
3023.00,0.0085
3022.00,0.0085
3021.00,0.0086
3020.00,0.0086
3019.00,0.0087
3018.00,0.0087
3017.00,0.0088
3016.00,0.0089
3015.00,0.0090
3014.00,0.0092
3013.00,0.0093
3012.00,0.0095
3011.00,0.0097
3010.00,0.0099
3009.00,0.0101
3008.00,0.0104
3007.00,0.0106
3006.00,0.0109
3005.00,0.0112
3004.00,0.0115
3003.00,0.0118
3002.00,0.0122
3001.00,0.0126
3000.00,0.0130
2999.00,0.0135
2998.00,0.0140
2997.00,0.0145
2996.00,0.0150
2995.00,0.0156
2994.00,0.0162
2993.00,0.0167
2992.00,0.0173
2991.00,0.0179
2990.00,0.0185
2989.00,0.0190
2988.00,0.0196
2987.00,0.0201
2986.00,0.0206
2985.00,0.0211
2984.00,0.0215
2983.00,0.0219
2982.00,0.0223
2981.00,0.0227
2980.00,0.0231
2979.00,0.0235
2978.00,0.0239
2977.00,0.0244
2976.00,0.0248
2975.00,0.0252
2974.00,0.0257
2973.00,0.0262
2972.00,0.0267
2971.00,0.0273
2970.00,0.0279
2969.00,0.0286
2968.00,0.0292
2967.00,0.0298
2966.00,0.0304
2965.00,0.0310
2964.00,0.0315
2963.00,0.0320
2962.00,0.0325
2961.00,0.0329
2960.00,0.0332
2959.00,0.0336
2958.00,0.0339
2957.00,0.0341
2956.00,0.0342
2955.00,0.0344
2954.00,0.0344
2953.00,0.0345
2952.00,0.0345
2951.00,0.0345
2950.00,0.0346
2949.00,0.0348
2948.00,0.0351
2947.00,0.0356
2946.00,0.0363
2945.00,0.0371
2944.00,0.0380
2943.00,0.0391
2942.00,0.0403
2941.00,0.0417
2940.00,0.0431
2939.00,0.0445
2938.00,0.0459
2937.00,0.0474
2936.00,0.0487
2935.00,0.0501
2934.00,0.0513
2933.00,0.0524
2932.00,0.0533
2931.00,0.0542
2930.00,0.0548
2929.00,0.0552
2928.00,0.0556
2927.00,0.0558
2926.00,0.0558
2925.00,0.0558
2924.00,0.0557
2923.00,0.0555
2922.00,0.0552
2921.00,0.0549
2920.00,0.0546
2919.00,0.0543
2918.00,0.0540
2917.00,0.0537
2916.00,0.0534
2915.00,0.0530
2914.00,0.0526
2913.00,0.0522
2912.00,0.0517
2911.00,0.0512
2910.00,0.0507
2909.00,0.0502
2908.00,0.0496
2907.00,0.0491
2906.00,0.0486
2905.00,0.0480
2904.00,0.0475
2903.00,0.0470
2902.00,0.0466
2901.00,0.0461
2900.00,0.0456
2899.00,0.0452
2898.00,0.0447
2897.00,0.0443
2896.00,0.0439
2895.00,0.0435
2894.00,0.0431
2893.00,0.0427
2892.00,0.0422
2891.00,0.0418
2890.00,0.0414
2889.00,0.0410
2888.00,0.0406
2887.00,0.0403
2886.00,0.0399
2885.00,0.0397
2884.00,0.0394
2883.00,0.0392
2882.00,0.0391
2881.00,0.0390
2880.00,0.0389
2879.00,0.0389
2878.00,0.0389
2877.00,0.0390
2876.00,0.0391
2875.00,0.0392
2874.00,0.0392
2873.00,0.0392
2872.00,0.0391
2871.00,0.0389
2870.00,0.0386
2869.00,0.0382
2868.00,0.0379
2867.00,0.0376
2866.00,0.0374
2865.00,0.0374
2864.00,0.0375
2863.00,0.0377
2862.00,0.0380
2861.00,0.0384
2860.00,0.0387
2859.00,0.0390
2858.00,0.0392
2857.00,0.0392
2856.00,0.0391
2855.00,0.0388
2854.00,0.0383
2853.00,0.0378
2852.00,0.0372
2851.00,0.0365
2850.00,0.0358
2849.00,0.0352
2848.00,0.0345
2847.00,0.0338
2846.00,0.0332
2845.00,0.0327
2844.00,0.0321
2843.00,0.0316
2842.00,0.0311
2841.00,0.0307
2840.00,0.0302
2839.00,0.0298
2838.00,0.0294
2837.00,0.0290
2836.00,0.0285
2835.00,0.0280
2834.00,0.0274
2833.00,0.0268
2832.00,0.0261
2831.00,0.0254
2830.00,0.0247
2829.00,0.0240
2828.00,0.0233
2827.00,0.0226
2826.00,0.0219
2825.00,0.0213
2824.00,0.0207
2823.00,0.0202
2822.00,0.0197
2821.00,0.0192
2820.00,0.0188
2819.00,0.0184
2818.00,0.0180
2817.00,0.0176
2816.00,0.0171
2815.00,0.0167
2814.00,0.0163
2813.00,0.0159
2812.00,0.0154
2811.00,0.0149
2810.00,0.0144
2809.00,0.0139
2808.00,0.0134
2807.00,0.0129
2806.00,0.0124
2805.00,0.0119
2804.00,0.0114
2803.00,0.0110
2802.00,0.0106
2801.00,0.0102
2800.00,0.0099
2799.00,0.0097
2798.00,0.0094
2797.00,0.0092
2796.00,0.0090
2795.00,0.0088
2794.00,0.0087
2793.00,0.0085
2792.00,0.0084
2791.00,0.0083
2790.00,0.0081
2789.00,0.0080
2788.00,0.0080
2787.00,0.0079
2786.00,0.0078
2785.00,0.0077
2784.00,0.0076
2783.00,0.0075
2782.00,0.0075
2781.00,0.0074
2780.00,0.0073
2779.00,0.0072
2778.00,0.0071
2777.00,0.0071
2776.00,0.0070
2775.00,0.0069
2774.00,0.0069
2773.00,0.0069
2772.00,0.0068
2771.00,0.0068
2770.00,0.0068
2769.00,0.0068
2768.00,0.0068
2767.00,0.0067
2766.00,0.0067
2765.00,0.0067
2764.00,0.0067
2763.00,0.0066
2762.00,0.0066
2761.00,0.0066
2760.00,0.0066
2759.00,0.0065
2758.00,0.0065
2757.00,0.0065
