Created as New Dataset,Sample 239 By YargerLab Date Sunday, October 05 2025
cm-1,A
4000.00,0.0023
3999.00,0.0023
3998.00,0.0023
3997.00,0.0023
3996.00,0.0023
3995.00,0.0023
3994.00,0.0023
3993.00,0.0023
3992.00,0.0023
3991.00,0.0023
3990.00,0.0023
3989.00,0.0023
3988.00,0.0023
3987.00,0.0023
3986.00,0.0023
3985.00,0.0023
3984.00,0.0023
3983.00,0.0023
3982.00,0.0023
3981.00,0.0023
3980.00,0.0023
3979.00,0.0022
3978.00,0.0022
3977.00,0.0023
3976.00,0.0023
3975.00,0.0023
3974.00,0.0023
3973.00,0.0023
3972.00,0.0023
3971.00,0.0023
3970.00,0.0023
3969.00,0.0023
3968.00,0.0022
3967.00,0.0022
3966.00,0.0022
3965.00,0.0022
3964.00,0.0022
3963.00,0.0023
3962.00,0.0023
3961.00,0.0023
3960.00,0.0023
3959.00,0.0022
3958.00,0.0022
3957.00,0.0022
3956.00,0.0022
3955.00,0.0022
3954.00,0.0022
3953.00,0.0022
3952.00,0.0022
3951.00,0.0022
3950.00,0.0022
3949.00,0.0022
3948.00,0.0022
3947.00,0.0022
3946.00,0.0023
3945.00,0.0022
3944.00,0.0022
3943.00,0.0022
3942.00,0.0022
3941.00,0.0023
3940.00,0.0023
3939.00,0.0023
3938.00,0.0022
3937.00,0.0022
3936.00,0.0022
3935.00,0.0022
3934.00,0.0022
3933.00,0.0022
3932.00,0.0023
3931.00,0.0023
3930.00,0.0023
3929.00,0.0023
3928.00,0.0023
3927.00,0.0023
3926.00,0.0023
3925.00,0.0023
3924.00,0.0023
3923.00,0.0022
3922.00,0.0022
3921.00,0.0022
3920.00,0.0023
3919.00,0.0023
3918.00,0.0023
3917.00,0.0023
3916.00,0.0023
3915.00,0.0023
3914.00,0.0022
3913.00,0.0022
3912.00,0.0022
3911.00,0.0022
3910.00,0.0022
3909.00,0.0022
3908.00,0.0022
3907.00,0.0023
3906.00,0.0023
3905.00,0.0023
3904.00,0.0024
3903.00,0.0024
3902.00,0.0024
3901.00,0.0024
3900.00,0.0024
3899.00,0.0024
3898.00,0.0024
3897.00,0.0024
3896.00,0.0023
3895.00,0.0023
3894.00,0.0023
3893.00,0.0023
3892.00,0.0023
3891.00,0.0023
3890.00,0.0023
3889.00,0.0023
3888.00,0.0023
3887.00,0.0023
3886.00,0.0023
3885.00,0.0023
3884.00,0.0023
3883.00,0.0023
3882.00,0.0023
3881.00,0.0023
3880.00,0.0023
3879.00,0.0023
3878.00,0.0023
3877.00,0.0023
3876.00,0.0023
3875.00,0.0023
3874.00,0.0023
3873.00,0.0023
3872.00,0.0023
3871.00,0.0023
3870.00,0.0023
3869.00,0.0023
3868.00,0.0023
3867.00,0.0024
3866.00,0.0024
3865.00,0.0024
3864.00,0.0024
3863.00,0.0023
3862.00,0.0023
3861.00,0.0023
3860.00,0.0023
3859.00,0.0023
3858.00,0.0024
3857.00,0.0025
3856.00,0.0026
3855.00,0.0026
3854.00,0.0026
3853.00,0.0026
3852.00,0.0025
3851.00,0.0025
3850.00,0.0025
3849.00,0.0024
3848.00,0.0023
3847.00,0.0023
3846.00,0.0022
3845.00,0.0022
3844.00,0.0023
3843.00,0.0023
3842.00,0.0023
3841.00,0.0024
3840.00,0.0024
3839.00,0.0024
3838.00,0.0024
3837.00,0.0024
3836.00,0.0024
3835.00,0.0024
3834.00,0.0024
3833.00,0.0024
3832.00,0.0023
3831.00,0.0023
3830.00,0.0023
3829.00,0.0022
3828.00,0.0022
3827.00,0.0022
3826.00,0.0022
3825.00,0.0022
3824.00,0.0023
3823.00,0.0023
3822.00,0.0023
3821.00,0.0023
3820.00,0.0023
3819.00,0.0024
3818.00,0.0024
3817.00,0.0024
3816.00,0.0024
3815.00,0.0023
3814.00,0.0023
3813.00,0.0022
3812.00,0.0022
3811.00,0.0022
3810.00,0.0022
3809.00,0.0022
3808.00,0.0022
3807.00,0.0022
3806.00,0.0022
3805.00,0.0023
3804.00,0.0023
3803.00,0.0023
3802.00,0.0023
3801.00,0.0022
3800.00,0.0022
3799.00,0.0022
3798.00,0.0022
3797.00,0.0021
3796.00,0.0021
3795.00,0.0021
3794.00,0.0021
3793.00,0.0021
3792.00,0.0020
3791.00,0.0020
3790.00,0.0020
3789.00,0.0020
3788.00,0.0020
3787.00,0.0020
3786.00,0.0020
3785.00,0.0020
3784.00,0.0020
3783.00,0.0021
3782.00,0.0021
3781.00,0.0021
3780.00,0.0020
3779.00,0.0020
3778.00,0.0020
3777.00,0.0020
3776.00,0.0020
3775.00,0.0020
3774.00,0.0021
3773.00,0.0021
3772.00,0.0021
3771.00,0.0021
3770.00,0.0021
3769.00,0.0021
3768.00,0.0021
3767.00,0.0021
3766.00,0.0021
3765.00,0.0021
3764.00,0.0022
3763.00,0.0022
3762.00,0.0022
3761.00,0.0022
3760.00,0.0022
3759.00,0.0022
3758.00,0.0022
3757.00,0.0022
3756.00,0.0022
3755.00,0.0023
3754.00,0.0023
3753.00,0.0024
3752.00,0.0024
3751.00,0.0024
3750.00,0.0023
3749.00,0.0024
3748.00,0.0024
3747.00,0.0024
3746.00,0.0024
3745.00,0.0024
3744.00,0.0023
3743.00,0.0023
3742.00,0.0023
3741.00,0.0022
3740.00,0.0022
3739.00,0.0021
3738.00,0.0021
3737.00,0.0021
3736.00,0.0022
3735.00,0.0022
3734.00,0.0022
3733.00,0.0022
3732.00,0.0021
3731.00,0.0021
3730.00,0.0021
3729.00,0.0020
3728.00,0.0020
3727.00,0.0020
3726.00,0.0020
3725.00,0.0020
3724.00,0.0020
3723.00,0.0020
3722.00,0.0020
3721.00,0.0020
3720.00,0.0020
3719.00,0.0020
3718.00,0.0020
3717.00,0.0020
3716.00,0.0020
3715.00,0.0021
3714.00,0.0021
3713.00,0.0021
3712.00,0.0021
3711.00,0.0021
3710.00,0.0021
3709.00,0.0021
3708.00,0.0021
3707.00,0.0020
3706.00,0.0020
3705.00,0.0020
3704.00,0.0019
3703.00,0.0019
3702.00,0.0019
3701.00,0.0019
3700.00,0.0019
3699.00,0.0019
3698.00,0.0019
3697.00,0.0019
3696.00,0.0019
3695.00,0.0019
3694.00,0.0019
3693.00,0.0019
3692.00,0.0020
3691.00,0.0021
3690.00,0.0021
3689.00,0.0021
3688.00,0.0021
3687.00,0.0021
3686.00,0.0021
3685.00,0.0021
3684.00,0.0021
3683.00,0.0021
3682.00,0.0021
3681.00,0.0021
3680.00,0.0021
3679.00,0.0022
3678.00,0.0023
3677.00,0.0023
3676.00,0.0023
3675.00,0.0023
3674.00,0.0023
3673.00,0.0023
3672.00,0.0023
3671.00,0.0023
3670.00,0.0022
3669.00,0.0022
3668.00,0.0022
3667.00,0.0022
3666.00,0.0021
3665.00,0.0021
3664.00,0.0021
3663.00,0.0020
3662.00,0.0020
3661.00,0.0020
3660.00,0.0021
3659.00,0.0021
3658.00,0.0021
3657.00,0.0022
3656.00,0.0022
3655.00,0.0022
3654.00,0.0023
3653.00,0.0023
3652.00,0.0024
3651.00,0.0024
3650.00,0.0025
3649.00,0.0025
3648.00,0.0025
3647.00,0.0025
3646.00,0.0025
3645.00,0.0025
3644.00,0.0025
3643.00,0.0024
3642.00,0.0024
3641.00,0.0023
3640.00,0.0023
3639.00,0.0023
3638.00,0.0023
3637.00,0.0023
3636.00,0.0024
3635.00,0.0024
3634.00,0.0025
3633.00,0.0026
3632.00,0.0027
3631.00,0.0028
3630.00,0.0028
3629.00,0.0029
3628.00,0.0029
3627.00,0.0029
3626.00,0.0029
3625.00,0.0029
3624.00,0.0029
3623.00,0.0029
3622.00,0.0030
3621.00,0.0030
3620.00,0.0030
3619.00,0.0030
3618.00,0.0030
3617.00,0.0030
3616.00,0.0031
3615.00,0.0031
3614.00,0.0031
3613.00,0.0031
3612.00,0.0032
3611.00,0.0032
3610.00,0.0032
3609.00,0.0033
3608.00,0.0033
3607.00,0.0033
3606.00,0.0033
3605.00,0.0034
3604.00,0.0034
3603.00,0.0034
3602.00,0.0034
3601.00,0.0034
3600.00,0.0034
3599.00,0.0034
3598.00,0.0034
3597.00,0.0034
3596.00,0.0035
3595.00,0.0035
3594.00,0.0036
3593.00,0.0036
3592.00,0.0037
3591.00,0.0038
3590.00,0.0038
3589.00,0.0039
3588.00,0.0039
3587.00,0.0040
3586.00,0.0040
3585.00,0.0041
3584.00,0.0041
3583.00,0.0041
3582.00,0.0041
3581.00,0.0041
3580.00,0.0041
3579.00,0.0042
3578.00,0.0042
3577.00,0.0042
3576.00,0.0042
3575.00,0.0043
3574.00,0.0043
3573.00,0.0044
3572.00,0.0045
3571.00,0.0046
3570.00,0.0047
3569.00,0.0048
3568.00,0.0048
3567.00,0.0049
3566.00,0.0050
3565.00,0.0050
3564.00,0.0051
3563.00,0.0051
3562.00,0.0051
3561.00,0.0051
3560.00,0.0051
3559.00,0.0052
3558.00,0.0053
3557.00,0.0053
3556.00,0.0054
3555.00,0.0054
3554.00,0.0054
3553.00,0.0055
3552.00,0.0055
3551.00,0.0056
3550.00,0.0057
3549.00,0.0057
3548.00,0.0058
3547.00,0.0059
3546.00,0.0060
3545.00,0.0060
3544.00,0.0061
3543.00,0.0061
3542.00,0.0062
3541.00,0.0062
3540.00,0.0062
3539.00,0.0063
3538.00,0.0064
3537.00,0.0065
3536.00,0.0065
3535.00,0.0066
3534.00,0.0067
3533.00,0.0068
3532.00,0.0069
3531.00,0.0070
3530.00,0.0071
3529.00,0.0071
3528.00,0.0072
3527.00,0.0073
3526.00,0.0074
3525.00,0.0074
3524.00,0.0075
3523.00,0.0076
3522.00,0.0077
3521.00,0.0078
3520.00,0.0079
3519.00,0.0079
3518.00,0.0080
3517.00,0.0081
3516.00,0.0082
3515.00,0.0083
3514.00,0.0084
3513.00,0.0085
3512.00,0.0086
3511.00,0.0087
3510.00,0.0088
3509.00,0.0089
3508.00,0.0090
3507.00,0.0091
3506.00,0.0092
3505.00,0.0093
3504.00,0.0094
3503.00,0.0094
3502.00,0.0095
3501.00,0.0096
3500.00,0.0097
3499.00,0.0098
3498.00,0.0099
3497.00,0.0100
3496.00,0.0101
3495.00,0.0102
3494.00,0.0103
3493.00,0.0105
3492.00,0.0106
3491.00,0.0107
3490.00,0.0108
3489.00,0.0109
3488.00,0.0110
3487.00,0.0111
3486.00,0.0112
3485.00,0.0113
3484.00,0.0115
3483.00,0.0116
3482.00,0.0117
3481.00,0.0118
3480.00,0.0120
3479.00,0.0121
3478.00,0.0122
3477.00,0.0123
3476.00,0.0124
3475.00,0.0125
3474.00,0.0126
3473.00,0.0128
3472.00,0.0129
3471.00,0.0130
3470.00,0.0131
3469.00,0.0133
3468.00,0.0134
3467.00,0.0135
3466.00,0.0136
3465.00,0.0138
3464.00,0.0139
3463.00,0.0140
3462.00,0.0142
3461.00,0.0143
3460.00,0.0144
3459.00,0.0145
3458.00,0.0147
3457.00,0.0148
3456.00,0.0149
3455.00,0.0150
3454.00,0.0152
3453.00,0.0153
3452.00,0.0154
3451.00,0.0155
3450.00,0.0157
3449.00,0.0158
3448.00,0.0160
3447.00,0.0161
3446.00,0.0163
3445.00,0.0164
3444.00,0.0165
3443.00,0.0167
3442.00,0.0168
3441.00,0.0170
3440.00,0.0171
3439.00,0.0173
3438.00,0.0175
3437.00,0.0176
3436.00,0.0178
3435.00,0.0179
3434.00,0.0181
3433.00,0.0182
3432.00,0.0184
3431.00,0.0185
3430.00,0.0187
3429.00,0.0188
3428.00,0.0190
3427.00,0.0191
3426.00,0.0193
3425.00,0.0195
3424.00,0.0196
3423.00,0.0198
3422.00,0.0200
3421.00,0.0202
3420.00,0.0204
3419.00,0.0205
3418.00,0.0207
3417.00,0.0209
3416.00,0.0211
3415.00,0.0212
3414.00,0.0214
3413.00,0.0216
3412.00,0.0218
3411.00,0.0220
3410.00,0.0222
3409.00,0.0224
3408.00,0.0226
3407.00,0.0228
3406.00,0.0230
3405.00,0.0232
3404.00,0.0234
3403.00,0.0236
3402.00,0.0237
3401.00,0.0239
3400.00,0.0241
3399.00,0.0244
3398.00,0.0246
3397.00,0.0248
3396.00,0.0250
3395.00,0.0253
3394.00,0.0255
3393.00,0.0257
3392.00,0.0259
3391.00,0.0261
3390.00,0.0263
3389.00,0.0266
3388.00,0.0268
3387.00,0.0270
3386.00,0.0273
3385.00,0.0275
3384.00,0.0277
3383.00,0.0279
3382.00,0.0281
3381.00,0.0283
3380.00,0.0286
3379.00,0.0288
3378.00,0.0290
3377.00,0.0292
3376.00,0.0295
3375.00,0.0297
3374.00,0.0299
3373.00,0.0301
3372.00,0.0302
3371.00,0.0303
3370.00,0.0304
3369.00,0.0306
3368.00,0.0309
3367.00,0.0312
3366.00,0.0315
3365.00,0.0317
3364.00,0.0320
3363.00,0.0322
3362.00,0.0324
3361.00,0.0326
3360.00,0.0328
3359.00,0.0330
3358.00,0.0332
3357.00,0.0334
3356.00,0.0336
3355.00,0.0338
3354.00,0.0340
3353.00,0.0341
3352.00,0.0342
3351.00,0.0344
3350.00,0.0346
3349.00,0.0348
3348.00,0.0351
3347.00,0.0353
3346.00,0.0354
3345.00,0.0356
3344.00,0.0358
3343.00,0.0359
3342.00,0.0360
3341.00,0.0361
3340.00,0.0363
3339.00,0.0364
3338.00,0.0366
3337.00,0.0368
3336.00,0.0370
3335.00,0.0372
3334.00,0.0374
3333.00,0.0376
3332.00,0.0378
3331.00,0.0380
3330.00,0.0381
3329.00,0.0382
3328.00,0.0383
3327.00,0.0384
3326.00,0.0384
3325.00,0.0386
3324.00,0.0388
3323.00,0.0390
3322.00,0.0392
3321.00,0.0393
3320.00,0.0395
3319.00,0.0396
3318.00,0.0397
3317.00,0.0399
3316.00,0.0400
3315.00,0.0401
3314.00,0.0402
3313.00,0.0403
3312.00,0.0404
3311.00,0.0404
3310.00,0.0404
3309.00,0.0403
3308.00,0.0403
3307.00,0.0403
3306.00,0.0404
3305.00,0.0406
3304.00,0.0409
3303.00,0.0411
3302.00,0.0413
3301.00,0.0415
3300.00,0.0416
3299.00,0.0416
3298.00,0.0416
3297.00,0.0416
3296.00,0.0416
3295.00,0.0416
3294.00,0.0417
3293.00,0.0417
3292.00,0.0418
3291.00,0.0419
3290.00,0.0421
3289.00,0.0422
3288.00,0.0424
3287.00,0.0424
3286.00,0.0425
3285.00,0.0425
3284.00,0.0425
3283.00,0.0425
3282.00,0.0425
3281.00,0.0425
3280.00,0.0426
3279.00,0.0426
3278.00,0.0426
3277.00,0.0426
3276.00,0.0426
3275.00,0.0425
3274.00,0.0425
3273.00,0.0425
3272.00,0.0425
3271.00,0.0425
3270.00,0.0425
3269.00,0.0426
3268.00,0.0427
3267.00,0.0427
3266.00,0.0428
3265.00,0.0428
3264.00,0.0428
3263.00,0.0428
3262.00,0.0427
3261.00,0.0427
3260.00,0.0427
3259.00,0.0427
3258.00,0.0427
3257.00,0.0427
3256.00,0.0426
3255.00,0.0427
3254.00,0.0427
3253.00,0.0427
3252.00,0.0427
3251.00,0.0427
3250.00,0.0427
3249.00,0.0426
3248.00,0.0426
3247.00,0.0425
3246.00,0.0425
3245.00,0.0425
3244.00,0.0425
3243.00,0.0425
3242.00,0.0425
3241.00,0.0425
3240.00,0.0425
3239.00,0.0425
3238.00,0.0424
3237.00,0.0423
3236.00,0.0423
3235.00,0.0422
3234.00,0.0421
3233.00,0.0421
3232.00,0.0420
3231.00,0.0420
3230.00,0.0419
3229.00,0.0419
3228.00,0.0419
3227.00,0.0418
3226.00,0.0417
3225.00,0.0417
3224.00,0.0416
3223.00,0.0416
3222.00,0.0415
3221.00,0.0415
3220.00,0.0414
3219.00,0.0414
3218.00,0.0414
3217.00,0.0414
3216.00,0.0414
3215.00,0.0414
3214.00,0.0414
3213.00,0.0413
3212.00,0.0413
3211.00,0.0413
3210.00,0.0413
3209.00,0.0413
3208.00,0.0413
3207.00,0.0413
3206.00,0.0413
3205.00,0.0412
3204.00,0.0411
3203.00,0.0410
3202.00,0.0410
3201.00,0.0409
3200.00,0.0408
3199.00,0.0407
3198.00,0.0407
3197.00,0.0406
3196.00,0.0405
3195.00,0.0404
3194.00,0.0403
3193.00,0.0403
3192.00,0.0402
3191.00,0.0400
3190.00,0.0399
3189.00,0.0398
3188.00,0.0397
3187.00,0.0396
3186.00,0.0394
3185.00,0.0393
3184.00,0.0392
3183.00,0.0390
3182.00,0.0389
3181.00,0.0387
3180.00,0.0386
3179.00,0.0385
3178.00,0.0383
3177.00,0.0382
3176.00,0.0380
3175.00,0.0379
3174.00,0.0377
3173.00,0.0375
3172.00,0.0374
3171.00,0.0372
3170.00,0.0371
3169.00,0.0369
3168.00,0.0367
3167.00,0.0366
3166.00,0.0364
3165.00,0.0362
3164.00,0.0361
3163.00,0.0359
3162.00,0.0357
3161.00,0.0355
3160.00,0.0354
3159.00,0.0352
3158.00,0.0350
3157.00,0.0349
3156.00,0.0347
3155.00,0.0345
3154.00,0.0343
3153.00,0.0342
3152.00,0.0340
3151.00,0.0338
3150.00,0.0337
3149.00,0.0335
3148.00,0.0333
3147.00,0.0332
3146.00,0.0330
3145.00,0.0328
3144.00,0.0327
3143.00,0.0325
3142.00,0.0324
3141.00,0.0323
3140.00,0.0322
3139.00,0.0321
3138.00,0.0319
3137.00,0.0318
3136.00,0.0317
3135.00,0.0316
3134.00,0.0315
3133.00,0.0314
3132.00,0.0313
3131.00,0.0311
3130.00,0.0310
3129.00,0.0308
3128.00,0.0307
3127.00,0.0305
3126.00,0.0304
3125.00,0.0302
3124.00,0.0300
3123.00,0.0299
3122.00,0.0297
3121.00,0.0296
3120.00,0.0294
3119.00,0.0293
3118.00,0.0291
3117.00,0.0289
3116.00,0.0288
3115.00,0.0286
3114.00,0.0284
3113.00,0.0282
3112.00,0.0280
3111.00,0.0278
3110.00,0.0276
3109.00,0.0274
3108.00,0.0272
3107.00,0.0270
3106.00,0.0268
3105.00,0.0267
3104.00,0.0265
3103.00,0.0263
3102.00,0.0261
3101.00,0.0259
3100.00,0.0257
3099.00,0.0256
3098.00,0.0254
3097.00,0.0252
3096.00,0.0250
3095.00,0.0248
3094.00,0.0247
3093.00,0.0245
3092.00,0.0244
3091.00,0.0242
3090.00,0.0241
3089.00,0.0239
3088.00,0.0238
3087.00,0.0236
3086.00,0.0235
3085.00,0.0233
3084.00,0.0232
3083.00,0.0231
3082.00,0.0229
3081.00,0.0228
3080.00,0.0226
3079.00,0.0225
3078.00,0.0224
3077.00,0.0222
3076.00,0.0221
3075.00,0.0220
3074.00,0.0219
3073.00,0.0218
3072.00,0.0217
3071.00,0.0216
3070.00,0.0215
3069.00,0.0214
3068.00,0.0214
3067.00,0.0213
3066.00,0.0212
3065.00,0.0211
3064.00,0.0211
3063.00,0.0210
3062.00,0.0209
3061.00,0.0209
3060.00,0.0208
3059.00,0.0208
3058.00,0.0207
3057.00,0.0207
3056.00,0.0206
3055.00,0.0206
3054.00,0.0205
3053.00,0.0205
3052.00,0.0204
3051.00,0.0203
3050.00,0.0203
3049.00,0.0202
3048.00,0.0201
3047.00,0.0200
3046.00,0.0199
3045.00,0.0198
3044.00,0.0197
3043.00,0.0196
3042.00,0.0196
3041.00,0.0195
3040.00,0.0195
3039.00,0.0195
3038.00,0.0194
3037.00,0.0194
3036.00,0.0194
3035.00,0.0194
3034.00,0.0194
3033.00,0.0194
3032.00,0.0194
3031.00,0.0195
3030.00,0.0195
3029.00,0.0195
3028.00,0.0195
3027.00,0.0195
3026.00,0.0195
3025.00,0.0194
3024.00,0.0194
3023.00,0.0193
3022.00,0.0193
3021.00,0.0192
3020.00,0.0192
3019.00,0.0192
3018.00,0.0192
3017.00,0.0192
3016.00,0.0193
3015.00,0.0193
3014.00,0.0194
3013.00,0.0195
3012.00,0.0197
3011.00,0.0198
3010.00,0.0200
3009.00,0.0201
3008.00,0.0204
3007.00,0.0206
3006.00,0.0209
3005.00,0.0212
3004.00,0.0216
3003.00,0.0219
3002.00,0.0224
3001.00,0.0229
3000.00,0.0234
2999.00,0.0240
2998.00,0.0246
2997.00,0.0253
2996.00,0.0260
2995.00,0.0268
2994.00,0.0275
2993.00,0.0284
2992.00,0.0293
2991.00,0.0302
2990.00,0.0311
2989.00,0.0320
2988.00,0.0330
2987.00,0.0339
2986.00,0.0348
2985.00,0.0356
2984.00,0.0364
2983.00,0.0372
2982.00,0.0380
2981.00,0.0389
2980.00,0.0398
2979.00,0.0408
2978.00,0.0418
2977.00,0.0429
2976.00,0.0440
2975.00,0.0450
2974.00,0.0462
2973.00,0.0473
2972.00,0.0485
2971.00,0.0498
2970.00,0.0511
2969.00,0.0524
2968.00,0.0536
2967.00,0.0548
2966.00,0.0560
2965.00,0.0571
2964.00,0.0580
2963.00,0.0589
2962.00,0.0597
2961.00,0.0603
2960.00,0.0608
2959.00,0.0611
2958.00,0.0613
2957.00,0.0614
2956.00,0.0613
2955.00,0.0611
2954.00,0.0607
2953.00,0.0602
2952.00,0.0595
2951.00,0.0588
2950.00,0.0582
2949.00,0.0575
2948.00,0.0570
2947.00,0.0567
2946.00,0.0565
2945.00,0.0566
2944.00,0.0570
2943.00,0.0576
2942.00,0.0585
2941.00,0.0595
2940.00,0.0608
2939.00,0.0623
2938.00,0.0640
2937.00,0.0657
2936.00,0.0676
2935.00,0.0695
2934.00,0.0714
2933.00,0.0732
2932.00,0.0750
2931.00,0.0766
2930.00,0.0780
2929.00,0.0793
2928.00,0.0803
2927.00,0.0811
2926.00,0.0818
2925.00,0.0822
2924.00,0.0824
2923.00,0.0824
2922.00,0.0823
2921.00,0.0821
2920.00,0.0817
2919.00,0.0811
2918.00,0.0805
2917.00,0.0797
2916.00,0.0787
2915.00,0.0777
2914.00,0.0765
2913.00,0.0752
2912.00,0.0738
2911.00,0.0724
2910.00,0.0709
2909.00,0.0695
2908.00,0.0680
2907.00,0.0666
2906.00,0.0652
2905.00,0.0640
2904.00,0.0628
2903.00,0.0617
2902.00,0.0607
2901.00,0.0598
2900.00,0.0590
2899.00,0.0582
2898.00,0.0575
2897.00,0.0569
2896.00,0.0563
2895.00,0.0557
2894.00,0.0552
2893.00,0.0547
2892.00,0.0542
2891.00,0.0536
2890.00,0.0531
2889.00,0.0526
2888.00,0.0521
2887.00,0.0516
2886.00,0.0512
2885.00,0.0508
2884.00,0.0504
2883.00,0.0501
2882.00,0.0499
2881.00,0.0498
2880.00,0.0498
2879.00,0.0498
2878.00,0.0500
2877.00,0.0502
2876.00,0.0504
2875.00,0.0508
2874.00,0.0511
2873.00,0.0514
2872.00,0.0517
2871.00,0.0518
2870.00,0.0518
2869.00,0.0517
2868.00,0.0515
2867.00,0.0514
2866.00,0.0515
2865.00,0.0517
2864.00,0.0521
2863.00,0.0528
2862.00,0.0535
2861.00,0.0543
2860.00,0.0552
2859.00,0.0560
2858.00,0.0566
2857.00,0.0569
2856.00,0.0570
2855.00,0.0567
2854.00,0.0561
2853.00,0.0552
2852.00,0.0540
2851.00,0.0526
2850.00,0.0510
2849.00,0.0494
2848.00,0.0476
2847.00,0.0458
2846.00,0.0441
2845.00,0.0424
2844.00,0.0407
2843.00,0.0391
2842.00,0.0375
2841.00,0.0360
2840.00,0.0346
2839.00,0.0333
2838.00,0.0322
2837.00,0.0312
2836.00,0.0302
2835.00,0.0293
2834.00,0.0285
2833.00,0.0277
2832.00,0.0270
2831.00,0.0262
2830.00,0.0255
2829.00,0.0248
2828.00,0.0242
2827.00,0.0235
2826.00,0.0228
2825.00,0.0221
2824.00,0.0214
2823.00,0.0208
2822.00,0.0201
2821.00,0.0195
2820.00,0.0190
2819.00,0.0184
2818.00,0.0179
2817.00,0.0174
2816.00,0.0170
2815.00,0.0166
2814.00,0.0163
2813.00,0.0159
2812.00,0.0156
2811.00,0.0154
2810.00,0.0151
2809.00,0.0149
2808.00,0.0146
2807.00,0.0144
2806.00,0.0142
2805.00,0.0140
2804.00,0.0138
2803.00,0.0136
2802.00,0.0134
2801.00,0.0132
2800.00,0.0131
2799.00,0.0129
2798.00,0.0128
2797.00,0.0127
2796.00,0.0126
2795.00,0.0125
2794.00,0.0124
2793.00,0.0122
2792.00,0.0121
2791.00,0.0120
2790.00,0.0119
2789.00,0.0119
2788.00,0.0118
2787.00,0.0117
2786.00,0.0117
2785.00,0.0116
2784.00,0.0115
2783.00,0.0115
2782.00,0.0114
2781.00,0.0114
2780.00,0.0113
2779.00,0.0112
2778.00,0.0111
2777.00,0.0111
2776.00,0.0110
2775.00,0.0109
2774.00,0.0109
2773.00,0.0109
2772.00,0.0108
2771.00,0.0108
2770.00,0.0107
2769.00,0.0107
2768.00,0.0106
2767.00,0.0106
2766.00,0.0106
2765.00,0.0106
2764.00,0.0106
2763.00,0.0105
2762.00,0.0105
2761.00,0.0105
2760.00,0.0105
2759.00,0.0105
2758.00,0.0105
2757.00,0.0105
