Created as New Dataset,Sample 354 By YargerLab Date Tuesday, November 11 2025
cm-1,A
4000.00,0.0059
3999.00,0.0059
3998.00,0.0059
3997.00,0.0059
3996.00,0.0058
3995.00,0.0058
3994.00,0.0058
3993.00,0.0059
3992.00,0.0059
3991.00,0.0059
3990.00,0.0059
3989.00,0.0059
3988.00,0.0059
3987.00,0.0059
3986.00,0.0059
3985.00,0.0059
3984.00,0.0059
3983.00,0.0059
3982.00,0.0059
3981.00,0.0059
3980.00,0.0059
3979.00,0.0059
3978.00,0.0059
3977.00,0.0059
3976.00,0.0059
3975.00,0.0059
3974.00,0.0059
3973.00,0.0059
3972.00,0.0059
3971.00,0.0059
3970.00,0.0059
3969.00,0.0059
3968.00,0.0059
3967.00,0.0058
3966.00,0.0058
3965.00,0.0058
3964.00,0.0058
3963.00,0.0058
3962.00,0.0058
3961.00,0.0058
3960.00,0.0059
3959.00,0.0059
3958.00,0.0059
3957.00,0.0059
3956.00,0.0059
3955.00,0.0059
3954.00,0.0059
3953.00,0.0059
3952.00,0.0059
3951.00,0.0059
3950.00,0.0059
3949.00,0.0059
3948.00,0.0059
3947.00,0.0059
3946.00,0.0059
3945.00,0.0059
3944.00,0.0058
3943.00,0.0058
3942.00,0.0058
3941.00,0.0059
3940.00,0.0059
3939.00,0.0059
3938.00,0.0059
3937.00,0.0058
3936.00,0.0058
3935.00,0.0059
3934.00,0.0059
3933.00,0.0059
3932.00,0.0059
3931.00,0.0059
3930.00,0.0059
3929.00,0.0058
3928.00,0.0059
3927.00,0.0059
3926.00,0.0059
3925.00,0.0059
3924.00,0.0058
3923.00,0.0058
3922.00,0.0058
3921.00,0.0058
3920.00,0.0058
3919.00,0.0058
3918.00,0.0058
3917.00,0.0058
3916.00,0.0058
3915.00,0.0058
3914.00,0.0058
3913.00,0.0058
3912.00,0.0058
3911.00,0.0058
3910.00,0.0058
3909.00,0.0058
3908.00,0.0058
3907.00,0.0058
3906.00,0.0058
3905.00,0.0058
3904.00,0.0058
3903.00,0.0058
3902.00,0.0058
3901.00,0.0058
3900.00,0.0058
3899.00,0.0059
3898.00,0.0059
3897.00,0.0059
3896.00,0.0059
3895.00,0.0058
3894.00,0.0058
3893.00,0.0058
3892.00,0.0058
3891.00,0.0058
3890.00,0.0058
3889.00,0.0058
3888.00,0.0058
3887.00,0.0058
3886.00,0.0058
3885.00,0.0058
3884.00,0.0058
3883.00,0.0058
3882.00,0.0058
3881.00,0.0058
3880.00,0.0058
3879.00,0.0058
3878.00,0.0058
3877.00,0.0058
3876.00,0.0059
3875.00,0.0059
3874.00,0.0059
3873.00,0.0058
3872.00,0.0058
3871.00,0.0058
3870.00,0.0058
3869.00,0.0057
3868.00,0.0057
3867.00,0.0057
3866.00,0.0057
3865.00,0.0057
3864.00,0.0058
3863.00,0.0058
3862.00,0.0058
3861.00,0.0058
3860.00,0.0058
3859.00,0.0058
3858.00,0.0057
3857.00,0.0057
3856.00,0.0056
3855.00,0.0057
3854.00,0.0057
3853.00,0.0057
3852.00,0.0057
3851.00,0.0058
3850.00,0.0058
3849.00,0.0058
3848.00,0.0058
3847.00,0.0058
3846.00,0.0059
3845.00,0.0058
3844.00,0.0058
3843.00,0.0058
3842.00,0.0058
3841.00,0.0058
3840.00,0.0058
3839.00,0.0057
3838.00,0.0057
3837.00,0.0057
3836.00,0.0057
3835.00,0.0057
3834.00,0.0058
3833.00,0.0058
3832.00,0.0058
3831.00,0.0058
3830.00,0.0058
3829.00,0.0059
3828.00,0.0059
3827.00,0.0059
3826.00,0.0059
3825.00,0.0059
3824.00,0.0058
3823.00,0.0058
3822.00,0.0058
3821.00,0.0058
3820.00,0.0058
3819.00,0.0058
3818.00,0.0058
3817.00,0.0058
3816.00,0.0058
3815.00,0.0058
3814.00,0.0058
3813.00,0.0058
3812.00,0.0058
3811.00,0.0058
3810.00,0.0058
3809.00,0.0058
3808.00,0.0058
3807.00,0.0057
3806.00,0.0057
3805.00,0.0057
3804.00,0.0057
3803.00,0.0057
3802.00,0.0057
3801.00,0.0057
3800.00,0.0057
3799.00,0.0057
3798.00,0.0058
3797.00,0.0058
3796.00,0.0058
3795.00,0.0058
3794.00,0.0058
3793.00,0.0058
3792.00,0.0058
3791.00,0.0058
3790.00,0.0058
3789.00,0.0058
3788.00,0.0058
3787.00,0.0058
3786.00,0.0058
3785.00,0.0058
3784.00,0.0058
3783.00,0.0058
3782.00,0.0058
3781.00,0.0058
3780.00,0.0058
3779.00,0.0058
3778.00,0.0058
3777.00,0.0058
3776.00,0.0058
3775.00,0.0058
3774.00,0.0058
3773.00,0.0058
3772.00,0.0058
3771.00,0.0058
3770.00,0.0058
3769.00,0.0058
3768.00,0.0058
3767.00,0.0058
3766.00,0.0058
3765.00,0.0058
3764.00,0.0058
3763.00,0.0058
3762.00,0.0058
3761.00,0.0058
3760.00,0.0058
3759.00,0.0058
3758.00,0.0058
3757.00,0.0058
3756.00,0.0057
3755.00,0.0057
3754.00,0.0057
3753.00,0.0057
3752.00,0.0057
3751.00,0.0056
3750.00,0.0056
3749.00,0.0056
3748.00,0.0056
3747.00,0.0056
3746.00,0.0056
3745.00,0.0057
3744.00,0.0057
3743.00,0.0057
3742.00,0.0057
3741.00,0.0058
3740.00,0.0058
3739.00,0.0058
3738.00,0.0058
3737.00,0.0058
3736.00,0.0058
3735.00,0.0057
3734.00,0.0057
3733.00,0.0056
3732.00,0.0057
3731.00,0.0057
3730.00,0.0057
3729.00,0.0057
3728.00,0.0058
3727.00,0.0058
3726.00,0.0058
3725.00,0.0058
3724.00,0.0058
3723.00,0.0058
3722.00,0.0058
3721.00,0.0057
3720.00,0.0057
3719.00,0.0058
3718.00,0.0058
3717.00,0.0057
3716.00,0.0057
3715.00,0.0057
3714.00,0.0057
3713.00,0.0057
3712.00,0.0057
3711.00,0.0057
3710.00,0.0056
3709.00,0.0056
3708.00,0.0057
3707.00,0.0057
3706.00,0.0057
3705.00,0.0057
3704.00,0.0057
3703.00,0.0057
3702.00,0.0057
3701.00,0.0057
3700.00,0.0057
3699.00,0.0057
3698.00,0.0057
3697.00,0.0058
3696.00,0.0057
3695.00,0.0057
3694.00,0.0057
3693.00,0.0057
3692.00,0.0057
3691.00,0.0057
3690.00,0.0057
3689.00,0.0057
3688.00,0.0057
3687.00,0.0057
3686.00,0.0058
3685.00,0.0058
3684.00,0.0058
3683.00,0.0059
3682.00,0.0059
3681.00,0.0059
3680.00,0.0058
3679.00,0.0058
3678.00,0.0058
3677.00,0.0058
3676.00,0.0057
3675.00,0.0057
3674.00,0.0057
3673.00,0.0058
3672.00,0.0058
3671.00,0.0058
3670.00,0.0058
3669.00,0.0059
3668.00,0.0059
3667.00,0.0059
3666.00,0.0059
3665.00,0.0059
3664.00,0.0059
3663.00,0.0059
3662.00,0.0060
3661.00,0.0060
3660.00,0.0060
3659.00,0.0060
3658.00,0.0060
3657.00,0.0060
3656.00,0.0060
3655.00,0.0059
3654.00,0.0059
3653.00,0.0059
3652.00,0.0059
3651.00,0.0060
3650.00,0.0061
3649.00,0.0061
3648.00,0.0061
3647.00,0.0062
3646.00,0.0062
3645.00,0.0062
3644.00,0.0062
3643.00,0.0062
3642.00,0.0063
3641.00,0.0063
3640.00,0.0063
3639.00,0.0063
3638.00,0.0063
3637.00,0.0063
3636.00,0.0063
3635.00,0.0063
3634.00,0.0063
3633.00,0.0063
3632.00,0.0063
3631.00,0.0063
3630.00,0.0064
3629.00,0.0064
3628.00,0.0064
3627.00,0.0064
3626.00,0.0065
3625.00,0.0065
3624.00,0.0065
3623.00,0.0065
3622.00,0.0066
3621.00,0.0066
3620.00,0.0066
3619.00,0.0067
3618.00,0.0067
3617.00,0.0067
3616.00,0.0068
3615.00,0.0069
3614.00,0.0069
3613.00,0.0069
3612.00,0.0070
3611.00,0.0070
3610.00,0.0070
3609.00,0.0070
3608.00,0.0071
3607.00,0.0071
3606.00,0.0071
3605.00,0.0071
3604.00,0.0072
3603.00,0.0072
3602.00,0.0073
3601.00,0.0073
3600.00,0.0073
3599.00,0.0073
3598.00,0.0074
3597.00,0.0074
3596.00,0.0074
3595.00,0.0074
3594.00,0.0075
3593.00,0.0075
3592.00,0.0075
3591.00,0.0075
3590.00,0.0075
3589.00,0.0076
3588.00,0.0077
3587.00,0.0078
3586.00,0.0078
3585.00,0.0079
3584.00,0.0079
3583.00,0.0079
3582.00,0.0079
3581.00,0.0080
3580.00,0.0080
3579.00,0.0080
3578.00,0.0081
3577.00,0.0081
3576.00,0.0082
3575.00,0.0082
3574.00,0.0083
3573.00,0.0083
3572.00,0.0083
3571.00,0.0084
3570.00,0.0085
3569.00,0.0085
3568.00,0.0086
3567.00,0.0087
3566.00,0.0088
3565.00,0.0088
3564.00,0.0088
3563.00,0.0088
3562.00,0.0088
3561.00,0.0088
3560.00,0.0088
3559.00,0.0089
3558.00,0.0089
3557.00,0.0089
3556.00,0.0090
3555.00,0.0090
3554.00,0.0091
3553.00,0.0091
3552.00,0.0092
3551.00,0.0092
3550.00,0.0092
3549.00,0.0093
3548.00,0.0093
3547.00,0.0094
3546.00,0.0094
3545.00,0.0095
3544.00,0.0095
3543.00,0.0095
3542.00,0.0096
3541.00,0.0096
3540.00,0.0096
3539.00,0.0096
3538.00,0.0097
3537.00,0.0097
3536.00,0.0097
3535.00,0.0098
3534.00,0.0098
3533.00,0.0099
3532.00,0.0099
3531.00,0.0100
3530.00,0.0100
3529.00,0.0101
3528.00,0.0101
3527.00,0.0102
3526.00,0.0102
3525.00,0.0102
3524.00,0.0103
3523.00,0.0103
3522.00,0.0103
3521.00,0.0103
3520.00,0.0103
3519.00,0.0104
3518.00,0.0104
3517.00,0.0105
3516.00,0.0105
3515.00,0.0106
3514.00,0.0106
3513.00,0.0107
3512.00,0.0107
3511.00,0.0108
3510.00,0.0108
3509.00,0.0109
3508.00,0.0109
3507.00,0.0110
3506.00,0.0110
3505.00,0.0110
3504.00,0.0111
3503.00,0.0111
3502.00,0.0111
3501.00,0.0112
3500.00,0.0112
3499.00,0.0112
3498.00,0.0113
3497.00,0.0113
3496.00,0.0114
3495.00,0.0114
3494.00,0.0115
3493.00,0.0115
3492.00,0.0116
3491.00,0.0116
3490.00,0.0117
3489.00,0.0117
3488.00,0.0118
3487.00,0.0119
3486.00,0.0119
3485.00,0.0120
3484.00,0.0120
3483.00,0.0120
3482.00,0.0121
3481.00,0.0121
3480.00,0.0121
3479.00,0.0122
3478.00,0.0122
3477.00,0.0123
3476.00,0.0124
3475.00,0.0124
3474.00,0.0124
3473.00,0.0125
3472.00,0.0125
3471.00,0.0125
3470.00,0.0126
3469.00,0.0127
3468.00,0.0128
3467.00,0.0128
3466.00,0.0129
3465.00,0.0129
3464.00,0.0130
3463.00,0.0130
3462.00,0.0131
3461.00,0.0131
3460.00,0.0131
3459.00,0.0132
3458.00,0.0132
3457.00,0.0133
3456.00,0.0133
3455.00,0.0134
3454.00,0.0134
3453.00,0.0134
3452.00,0.0134
3451.00,0.0135
3450.00,0.0135
3449.00,0.0135
3448.00,0.0136
3447.00,0.0136
3446.00,0.0137
3445.00,0.0138
3444.00,0.0139
3443.00,0.0139
3442.00,0.0140
3441.00,0.0140
3440.00,0.0140
3439.00,0.0141
3438.00,0.0141
3437.00,0.0141
3436.00,0.0142
3435.00,0.0142
3434.00,0.0143
3433.00,0.0144
3432.00,0.0144
3431.00,0.0145
3430.00,0.0145
3429.00,0.0145
3428.00,0.0146
3427.00,0.0147
3426.00,0.0147
3425.00,0.0148
3424.00,0.0148
3423.00,0.0149
3422.00,0.0149
3421.00,0.0150
3420.00,0.0151
3419.00,0.0151
3418.00,0.0152
3417.00,0.0152
3416.00,0.0153
3415.00,0.0153
3414.00,0.0154
3413.00,0.0154
3412.00,0.0155
3411.00,0.0156
3410.00,0.0157
3409.00,0.0157
3408.00,0.0158
3407.00,0.0159
3406.00,0.0159
3405.00,0.0160
3404.00,0.0160
3403.00,0.0161
3402.00,0.0161
3401.00,0.0162
3400.00,0.0163
3399.00,0.0164
3398.00,0.0165
3397.00,0.0166
3396.00,0.0167
3395.00,0.0167
3394.00,0.0168
3393.00,0.0168
3392.00,0.0169
3391.00,0.0170
3390.00,0.0171
3389.00,0.0172
3388.00,0.0173
3387.00,0.0175
3386.00,0.0176
3385.00,0.0177
3384.00,0.0177
3383.00,0.0178
3382.00,0.0179
3381.00,0.0180
3380.00,0.0181
3379.00,0.0181
3378.00,0.0182
3377.00,0.0183
3376.00,0.0184
3375.00,0.0185
3374.00,0.0185
3373.00,0.0185
3372.00,0.0185
3371.00,0.0185
3370.00,0.0186
3369.00,0.0186
3368.00,0.0188
3367.00,0.0189
3366.00,0.0191
3365.00,0.0193
3364.00,0.0194
3363.00,0.0195
3362.00,0.0196
3361.00,0.0197
3360.00,0.0198
3359.00,0.0199
3358.00,0.0199
3357.00,0.0200
3356.00,0.0201
3355.00,0.0201
3354.00,0.0201
3353.00,0.0202
3352.00,0.0202
3351.00,0.0203
3350.00,0.0204
3349.00,0.0205
3348.00,0.0206
3347.00,0.0207
3346.00,0.0208
3345.00,0.0208
3344.00,0.0208
3343.00,0.0209
3342.00,0.0209
3341.00,0.0210
3340.00,0.0210
3339.00,0.0210
3338.00,0.0211
3337.00,0.0213
3336.00,0.0214
3335.00,0.0216
3334.00,0.0217
3333.00,0.0217
3332.00,0.0218
3331.00,0.0219
3330.00,0.0219
3329.00,0.0219
3328.00,0.0218
3327.00,0.0218
3326.00,0.0219
3325.00,0.0220
3324.00,0.0221
3323.00,0.0222
3322.00,0.0223
3321.00,0.0224
3320.00,0.0225
3319.00,0.0225
3318.00,0.0226
3317.00,0.0226
3316.00,0.0227
3315.00,0.0227
3314.00,0.0228
3313.00,0.0228
3312.00,0.0228
3311.00,0.0227
3310.00,0.0227
3309.00,0.0226
3308.00,0.0226
3307.00,0.0226
3306.00,0.0226
3305.00,0.0227
3304.00,0.0229
3303.00,0.0231
3302.00,0.0232
3301.00,0.0233
3300.00,0.0234
3299.00,0.0234
3298.00,0.0233
3297.00,0.0233
3296.00,0.0232
3295.00,0.0232
3294.00,0.0232
3293.00,0.0233
3292.00,0.0233
3291.00,0.0234
3290.00,0.0235
3289.00,0.0236
3288.00,0.0237
3287.00,0.0238
3286.00,0.0238
3285.00,0.0238
3284.00,0.0238
3283.00,0.0238
3282.00,0.0238
3281.00,0.0238
3280.00,0.0238
3279.00,0.0238
3278.00,0.0238
3277.00,0.0238
3276.00,0.0238
3275.00,0.0238
3274.00,0.0237
3273.00,0.0236
3272.00,0.0236
3271.00,0.0236
3270.00,0.0237
3269.00,0.0238
3268.00,0.0238
3267.00,0.0239
3266.00,0.0239
3265.00,0.0239
3264.00,0.0239
3263.00,0.0240
3262.00,0.0240
3261.00,0.0240
3260.00,0.0240
3259.00,0.0239
3258.00,0.0239
3257.00,0.0239
3256.00,0.0239
3255.00,0.0240
3254.00,0.0240
3253.00,0.0240
3252.00,0.0240
3251.00,0.0240
3250.00,0.0240
3249.00,0.0239
3248.00,0.0239
3247.00,0.0240
3246.00,0.0240
3245.00,0.0240
3244.00,0.0241
3243.00,0.0241
3242.00,0.0241
3241.00,0.0241
3240.00,0.0240
3239.00,0.0240
3238.00,0.0240
3237.00,0.0240
3236.00,0.0239
3235.00,0.0239
3234.00,0.0238
3233.00,0.0238
3232.00,0.0239
3231.00,0.0239
3230.00,0.0239
3229.00,0.0239
3228.00,0.0239
3227.00,0.0238
3226.00,0.0238
3225.00,0.0238
3224.00,0.0238
3223.00,0.0238
3222.00,0.0238
3221.00,0.0238
3220.00,0.0238
3219.00,0.0238
3218.00,0.0238
3217.00,0.0238
3216.00,0.0238
3215.00,0.0237
3214.00,0.0237
3213.00,0.0237
3212.00,0.0237
3211.00,0.0237
3210.00,0.0238
3209.00,0.0238
3208.00,0.0238
3207.00,0.0238
3206.00,0.0238
3205.00,0.0238
3204.00,0.0237
3203.00,0.0237
3202.00,0.0237
3201.00,0.0237
3200.00,0.0237
3199.00,0.0237
3198.00,0.0237
3197.00,0.0237
3196.00,0.0236
3195.00,0.0236
3194.00,0.0235
3193.00,0.0235
3192.00,0.0234
3191.00,0.0234
3190.00,0.0233
3189.00,0.0233
3188.00,0.0233
3187.00,0.0233
3186.00,0.0233
3185.00,0.0232
3184.00,0.0232
3183.00,0.0231
3182.00,0.0231
3181.00,0.0230
3180.00,0.0230
3179.00,0.0229
3178.00,0.0229
3177.00,0.0229
3176.00,0.0228
3175.00,0.0227
3174.00,0.0227
3173.00,0.0226
3172.00,0.0225
3171.00,0.0225
3170.00,0.0224
3169.00,0.0224
3168.00,0.0223
3167.00,0.0222
3166.00,0.0222
3165.00,0.0221
3164.00,0.0220
3163.00,0.0220
3162.00,0.0219
3161.00,0.0219
3160.00,0.0218
3159.00,0.0217
3158.00,0.0216
3157.00,0.0215
3156.00,0.0214
3155.00,0.0214
3154.00,0.0213
3153.00,0.0213
3152.00,0.0212
3151.00,0.0212
3150.00,0.0211
3149.00,0.0211
3148.00,0.0210
3147.00,0.0210
3146.00,0.0209
3145.00,0.0208
3144.00,0.0208
3143.00,0.0207
3142.00,0.0206
3141.00,0.0206
3140.00,0.0205
3139.00,0.0205
3138.00,0.0205
3137.00,0.0205
3136.00,0.0204
3135.00,0.0204
3134.00,0.0203
3133.00,0.0203
3132.00,0.0202
3131.00,0.0201
3130.00,0.0201
3129.00,0.0200
3128.00,0.0200
3127.00,0.0199
3126.00,0.0199
3125.00,0.0198
3124.00,0.0197
3123.00,0.0197
3122.00,0.0196
3121.00,0.0195
3120.00,0.0195
3119.00,0.0194
3118.00,0.0193
3117.00,0.0193
3116.00,0.0192
3115.00,0.0191
3114.00,0.0191
3113.00,0.0190
3112.00,0.0189
3111.00,0.0189
3110.00,0.0188
3109.00,0.0187
3108.00,0.0186
3107.00,0.0185
3106.00,0.0185
3105.00,0.0184
3104.00,0.0183
3103.00,0.0182
3102.00,0.0181
3101.00,0.0181
3100.00,0.0180
3099.00,0.0179
3098.00,0.0179
3097.00,0.0178
3096.00,0.0177
3095.00,0.0177
3094.00,0.0176
3093.00,0.0175
3092.00,0.0174
3091.00,0.0173
3090.00,0.0173
3089.00,0.0172
3088.00,0.0171
3087.00,0.0170
3086.00,0.0170
3085.00,0.0169
3084.00,0.0169
3083.00,0.0168
3082.00,0.0167
3081.00,0.0166
3080.00,0.0165
3079.00,0.0164
3078.00,0.0164
3077.00,0.0164
3076.00,0.0163
3075.00,0.0163
3074.00,0.0162
3073.00,0.0162
3072.00,0.0161
3071.00,0.0160
3070.00,0.0160
3069.00,0.0159
3068.00,0.0159
3067.00,0.0159
3066.00,0.0158
3065.00,0.0158
3064.00,0.0158
3063.00,0.0157
3062.00,0.0157
3061.00,0.0157
3060.00,0.0157
3059.00,0.0157
3058.00,0.0156
3057.00,0.0156
3056.00,0.0156
3055.00,0.0155
3054.00,0.0155
3053.00,0.0154
3052.00,0.0154
3051.00,0.0153
3050.00,0.0152
3049.00,0.0152
3048.00,0.0152
3047.00,0.0151
3046.00,0.0151
3045.00,0.0151
3044.00,0.0150
3043.00,0.0150
3042.00,0.0149
3041.00,0.0149
3040.00,0.0149
3039.00,0.0148
3038.00,0.0148
3037.00,0.0148
3036.00,0.0148
3035.00,0.0148
3034.00,0.0148
3033.00,0.0148
3032.00,0.0148
3031.00,0.0148
3030.00,0.0148
3029.00,0.0148
3028.00,0.0148
3027.00,0.0148
3026.00,0.0148
3025.00,0.0147
3024.00,0.0147
3023.00,0.0147
3022.00,0.0147
3021.00,0.0147
3020.00,0.0146
3019.00,0.0147
3018.00,0.0147
3017.00,0.0148
3016.00,0.0149
3015.00,0.0149
3014.00,0.0149
3013.00,0.0149
3012.00,0.0150
3011.00,0.0151
3010.00,0.0152
3009.00,0.0153
3008.00,0.0155
3007.00,0.0156
3006.00,0.0158
3005.00,0.0160
3004.00,0.0162
3003.00,0.0164
3002.00,0.0166
3001.00,0.0169
3000.00,0.0172
2999.00,0.0175
2998.00,0.0179
2997.00,0.0183
2996.00,0.0187
2995.00,0.0191
2994.00,0.0195
2993.00,0.0200
2992.00,0.0204
2991.00,0.0209
2990.00,0.0214
2989.00,0.0219
2988.00,0.0224
2987.00,0.0229
2986.00,0.0233
2985.00,0.0237
2984.00,0.0241
2983.00,0.0244
2982.00,0.0248
2981.00,0.0251
2980.00,0.0255
2979.00,0.0259
2978.00,0.0263
2977.00,0.0267
2976.00,0.0270
2975.00,0.0274
2974.00,0.0277
2973.00,0.0281
2972.00,0.0285
2971.00,0.0290
2970.00,0.0295
2969.00,0.0299
2968.00,0.0305
2967.00,0.0310
2966.00,0.0315
2965.00,0.0320
2964.00,0.0325
2963.00,0.0331
2962.00,0.0336
2961.00,0.0340
2960.00,0.0345
2959.00,0.0349
2958.00,0.0352
2957.00,0.0355
2956.00,0.0357
2955.00,0.0358
2954.00,0.0359
2953.00,0.0359
2952.00,0.0358
2951.00,0.0357
2950.00,0.0356
2949.00,0.0354
2948.00,0.0352
2947.00,0.0351
2946.00,0.0350
2945.00,0.0349
2944.00,0.0350
2943.00,0.0351
2942.00,0.0353
2941.00,0.0356
2940.00,0.0360
2939.00,0.0364
2938.00,0.0369
2937.00,0.0375
2936.00,0.0381
2935.00,0.0387
2934.00,0.0393
2933.00,0.0399
2932.00,0.0405
2931.00,0.0410
2930.00,0.0416
2929.00,0.0421
2928.00,0.0425
2927.00,0.0429
2926.00,0.0432
2925.00,0.0435
2924.00,0.0437
2923.00,0.0438
2922.00,0.0438
2921.00,0.0438
2920.00,0.0437
2919.00,0.0436
2918.00,0.0434
2917.00,0.0431
2916.00,0.0428
2915.00,0.0424
2914.00,0.0419
2913.00,0.0415
2912.00,0.0409
2911.00,0.0404
2910.00,0.0398
2909.00,0.0391
2908.00,0.0385
2907.00,0.0379
2906.00,0.0374
2905.00,0.0369
2904.00,0.0364
2903.00,0.0360
2902.00,0.0356
2901.00,0.0352
2900.00,0.0349
2899.00,0.0346
2898.00,0.0344
2897.00,0.0342
2896.00,0.0340
2895.00,0.0338
2894.00,0.0337
2893.00,0.0335
2892.00,0.0333
2891.00,0.0332
2890.00,0.0330
2889.00,0.0328
2888.00,0.0327
2887.00,0.0325
2886.00,0.0324
2885.00,0.0322
2884.00,0.0321
2883.00,0.0320
2882.00,0.0319
2881.00,0.0319
2880.00,0.0319
2879.00,0.0319
2878.00,0.0320
2877.00,0.0320
2876.00,0.0321
2875.00,0.0321
2874.00,0.0322
2873.00,0.0322
2872.00,0.0323
2871.00,0.0324
2870.00,0.0323
2869.00,0.0323
2868.00,0.0322
2867.00,0.0322
2866.00,0.0321
2865.00,0.0322
2864.00,0.0323
2863.00,0.0324
2862.00,0.0326
2861.00,0.0328
2860.00,0.0331
2859.00,0.0333
2858.00,0.0334
2857.00,0.0335
2856.00,0.0334
2855.00,0.0332
2854.00,0.0329
2853.00,0.0325
2852.00,0.0320
2851.00,0.0314
2850.00,0.0307
2849.00,0.0300
2848.00,0.0293
2847.00,0.0286
2846.00,0.0279
2845.00,0.0273
2844.00,0.0266
2843.00,0.0259
2842.00,0.0252
2841.00,0.0246
2840.00,0.0240
2839.00,0.0234
2838.00,0.0229
2837.00,0.0225
2836.00,0.0221
2835.00,0.0216
2834.00,0.0212
2833.00,0.0208
2832.00,0.0205
2831.00,0.0201
2830.00,0.0197
2829.00,0.0194
2828.00,0.0191
2827.00,0.0187
2826.00,0.0184
2825.00,0.0180
2824.00,0.0177
2823.00,0.0173
2822.00,0.0170
2821.00,0.0167
2820.00,0.0164
2819.00,0.0162
2818.00,0.0159
2817.00,0.0157
2816.00,0.0155
2815.00,0.0153
2814.00,0.0151
2813.00,0.0149
2812.00,0.0147
2811.00,0.0145
2810.00,0.0144
2809.00,0.0143
2808.00,0.0142
2807.00,0.0140
2806.00,0.0139
2805.00,0.0138
2804.00,0.0137
2803.00,0.0136
2802.00,0.0136
2801.00,0.0135
2800.00,0.0134
2799.00,0.0133
2798.00,0.0132
2797.00,0.0131
2796.00,0.0130
2795.00,0.0130
2794.00,0.0129
2793.00,0.0129
2792.00,0.0128
2791.00,0.0128
2790.00,0.0127
2789.00,0.0127
2788.00,0.0127
2787.00,0.0126
2786.00,0.0125
2785.00,0.0125
2784.00,0.0125
2783.00,0.0124
2782.00,0.0124
2781.00,0.0123
2780.00,0.0123
2779.00,0.0123
2778.00,0.0123
2777.00,0.0122
2776.00,0.0122
2775.00,0.0122
2774.00,0.0121
2773.00,0.0121
2772.00,0.0121
2771.00,0.0120
2770.00,0.0120
2769.00,0.0119
2768.00,0.0119
2767.00,0.0119
2766.00,0.0119
2765.00,0.0118
2764.00,0.0118
2763.00,0.0118
2762.00,0.0118
2761.00,0.0118
2760.00,0.0118
2759.00,0.0118
2758.00,0.0118
2757.00,0.0118
