Created as New Dataset,Sample 225 By YargerLab Date Sunday, October 05 2025
cm-1,A
4000.00,0.0060
3999.00,0.0060
3998.00,0.0060
3997.00,0.0060
3996.00,0.0060
3995.00,0.0060
3994.00,0.0060
3993.00,0.0060
3992.00,0.0060
3991.00,0.0060
3990.00,0.0060
3989.00,0.0060
3988.00,0.0060
3987.00,0.0060
3986.00,0.0060
3985.00,0.0060
3984.00,0.0060
3983.00,0.0060
3982.00,0.0060
3981.00,0.0060
3980.00,0.0060
3979.00,0.0060
3978.00,0.0060
3977.00,0.0060
3976.00,0.0060
3975.00,0.0060
3974.00,0.0060
3973.00,0.0060
3972.00,0.0060
3971.00,0.0060
3970.00,0.0060
3969.00,0.0060
3968.00,0.0060
3967.00,0.0060
3966.00,0.0060
3965.00,0.0060
3964.00,0.0060
3963.00,0.0060
3962.00,0.0060
3961.00,0.0060
3960.00,0.0060
3959.00,0.0060
3958.00,0.0060
3957.00,0.0060
3956.00,0.0060
3955.00,0.0060
3954.00,0.0060
3953.00,0.0060
3952.00,0.0060
3951.00,0.0060
3950.00,0.0060
3949.00,0.0060
3948.00,0.0060
3947.00,0.0060
3946.00,0.0060
3945.00,0.0060
3944.00,0.0060
3943.00,0.0060
3942.00,0.0059
3941.00,0.0059
3940.00,0.0059
3939.00,0.0059
3938.00,0.0059
3937.00,0.0059
3936.00,0.0060
3935.00,0.0060
3934.00,0.0060
3933.00,0.0060
3932.00,0.0060
3931.00,0.0060
3930.00,0.0060
3929.00,0.0060
3928.00,0.0060
3927.00,0.0060
3926.00,0.0060
3925.00,0.0060
3924.00,0.0060
3923.00,0.0060
3922.00,0.0060
3921.00,0.0060
3920.00,0.0060
3919.00,0.0060
3918.00,0.0060
3917.00,0.0060
3916.00,0.0060
3915.00,0.0059
3914.00,0.0059
3913.00,0.0059
3912.00,0.0059
3911.00,0.0060
3910.00,0.0060
3909.00,0.0060
3908.00,0.0060
3907.00,0.0060
3906.00,0.0060
3905.00,0.0060
3904.00,0.0060
3903.00,0.0060
3902.00,0.0060
3901.00,0.0060
3900.00,0.0060
3899.00,0.0060
3898.00,0.0060
3897.00,0.0060
3896.00,0.0060
3895.00,0.0060
3894.00,0.0059
3893.00,0.0060
3892.00,0.0060
3891.00,0.0060
3890.00,0.0060
3889.00,0.0060
3888.00,0.0060
3887.00,0.0060
3886.00,0.0060
3885.00,0.0060
3884.00,0.0060
3883.00,0.0060
3882.00,0.0060
3881.00,0.0060
3880.00,0.0060
3879.00,0.0060
3878.00,0.0060
3877.00,0.0060
3876.00,0.0060
3875.00,0.0060
3874.00,0.0060
3873.00,0.0061
3872.00,0.0061
3871.00,0.0060
3870.00,0.0060
3869.00,0.0060
3868.00,0.0060
3867.00,0.0060
3866.00,0.0060
3865.00,0.0060
3864.00,0.0060
3863.00,0.0060
3862.00,0.0060
3861.00,0.0060
3860.00,0.0060
3859.00,0.0060
3858.00,0.0060
3857.00,0.0061
3856.00,0.0062
3855.00,0.0062
3854.00,0.0062
3853.00,0.0061
3852.00,0.0061
3851.00,0.0061
3850.00,0.0060
3849.00,0.0059
3848.00,0.0059
3847.00,0.0059
3846.00,0.0060
3845.00,0.0060
3844.00,0.0060
3843.00,0.0060
3842.00,0.0061
3841.00,0.0061
3840.00,0.0061
3839.00,0.0061
3838.00,0.0060
3837.00,0.0060
3836.00,0.0060
3835.00,0.0060
3834.00,0.0060
3833.00,0.0060
3832.00,0.0060
3831.00,0.0060
3830.00,0.0060
3829.00,0.0060
3828.00,0.0060
3827.00,0.0059
3826.00,0.0060
3825.00,0.0060
3824.00,0.0060
3823.00,0.0060
3822.00,0.0060
3821.00,0.0060
3820.00,0.0060
3819.00,0.0061
3818.00,0.0061
3817.00,0.0061
3816.00,0.0061
3815.00,0.0061
3814.00,0.0060
3813.00,0.0060
3812.00,0.0060
3811.00,0.0060
3810.00,0.0060
3809.00,0.0060
3808.00,0.0060
3807.00,0.0060
3806.00,0.0060
3805.00,0.0060
3804.00,0.0060
3803.00,0.0060
3802.00,0.0060
3801.00,0.0060
3800.00,0.0061
3799.00,0.0061
3798.00,0.0060
3797.00,0.0060
3796.00,0.0060
3795.00,0.0060
3794.00,0.0060
3793.00,0.0060
3792.00,0.0059
3791.00,0.0059
3790.00,0.0059
3789.00,0.0060
3788.00,0.0060
3787.00,0.0060
3786.00,0.0060
3785.00,0.0060
3784.00,0.0060
3783.00,0.0060
3782.00,0.0060
3781.00,0.0060
3780.00,0.0060
3779.00,0.0060
3778.00,0.0060
3777.00,0.0060
3776.00,0.0060
3775.00,0.0060
3774.00,0.0060
3773.00,0.0060
3772.00,0.0059
3771.00,0.0059
3770.00,0.0059
3769.00,0.0060
3768.00,0.0060
3767.00,0.0060
3766.00,0.0060
3765.00,0.0060
3764.00,0.0060
3763.00,0.0060
3762.00,0.0060
3761.00,0.0060
3760.00,0.0060
3759.00,0.0060
3758.00,0.0060
3757.00,0.0060
3756.00,0.0060
3755.00,0.0060
3754.00,0.0060
3753.00,0.0061
3752.00,0.0061
3751.00,0.0061
3750.00,0.0061
3749.00,0.0061
3748.00,0.0061
3747.00,0.0061
3746.00,0.0061
3745.00,0.0061
3744.00,0.0060
3743.00,0.0060
3742.00,0.0060
3741.00,0.0060
3740.00,0.0059
3739.00,0.0059
3738.00,0.0059
3737.00,0.0059
3736.00,0.0059
3735.00,0.0059
3734.00,0.0059
3733.00,0.0059
3732.00,0.0059
3731.00,0.0059
3730.00,0.0059
3729.00,0.0058
3728.00,0.0058
3727.00,0.0058
3726.00,0.0058
3725.00,0.0058
3724.00,0.0058
3723.00,0.0058
3722.00,0.0058
3721.00,0.0058
3720.00,0.0058
3719.00,0.0059
3718.00,0.0059
3717.00,0.0059
3716.00,0.0059
3715.00,0.0059
3714.00,0.0059
3713.00,0.0059
3712.00,0.0059
3711.00,0.0059
3710.00,0.0059
3709.00,0.0059
3708.00,0.0058
3707.00,0.0058
3706.00,0.0058
3705.00,0.0058
3704.00,0.0058
3703.00,0.0058
3702.00,0.0058
3701.00,0.0058
3700.00,0.0058
3699.00,0.0058
3698.00,0.0058
3697.00,0.0058
3696.00,0.0059
3695.00,0.0059
3694.00,0.0059
3693.00,0.0059
3692.00,0.0059
3691.00,0.0059
3690.00,0.0060
3689.00,0.0060
3688.00,0.0060
3687.00,0.0060
3686.00,0.0059
3685.00,0.0059
3684.00,0.0059
3683.00,0.0059
3682.00,0.0059
3681.00,0.0060
3680.00,0.0060
3679.00,0.0061
3678.00,0.0062
3677.00,0.0062
3676.00,0.0062
3675.00,0.0062
3674.00,0.0062
3673.00,0.0062
3672.00,0.0061
3671.00,0.0061
3670.00,0.0061
3669.00,0.0062
3668.00,0.0062
3667.00,0.0061
3666.00,0.0061
3665.00,0.0061
3664.00,0.0060
3663.00,0.0061
3662.00,0.0061
3661.00,0.0061
3660.00,0.0062
3659.00,0.0062
3658.00,0.0062
3657.00,0.0063
3656.00,0.0063
3655.00,0.0063
3654.00,0.0063
3653.00,0.0063
3652.00,0.0063
3651.00,0.0063
3650.00,0.0064
3649.00,0.0064
3648.00,0.0064
3647.00,0.0064
3646.00,0.0064
3645.00,0.0064
3644.00,0.0064
3643.00,0.0064
3642.00,0.0064
3641.00,0.0064
3640.00,0.0064
3639.00,0.0064
3638.00,0.0064
3637.00,0.0065
3636.00,0.0065
3635.00,0.0066
3634.00,0.0066
3633.00,0.0066
3632.00,0.0066
3631.00,0.0066
3630.00,0.0066
3629.00,0.0066
3628.00,0.0066
3627.00,0.0067
3626.00,0.0067
3625.00,0.0067
3624.00,0.0067
3623.00,0.0067
3622.00,0.0068
3621.00,0.0068
3620.00,0.0069
3619.00,0.0069
3618.00,0.0069
3617.00,0.0070
3616.00,0.0070
3615.00,0.0070
3614.00,0.0070
3613.00,0.0070
3612.00,0.0070
3611.00,0.0071
3610.00,0.0071
3609.00,0.0070
3608.00,0.0070
3607.00,0.0070
3606.00,0.0071
3605.00,0.0071
3604.00,0.0071
3603.00,0.0072
3602.00,0.0072
3601.00,0.0072
3600.00,0.0072
3599.00,0.0073
3598.00,0.0073
3597.00,0.0073
3596.00,0.0073
3595.00,0.0073
3594.00,0.0074
3593.00,0.0074
3592.00,0.0074
3591.00,0.0074
3590.00,0.0075
3589.00,0.0075
3588.00,0.0075
3587.00,0.0075
3586.00,0.0076
3585.00,0.0076
3584.00,0.0076
3583.00,0.0076
3582.00,0.0076
3581.00,0.0076
3580.00,0.0076
3579.00,0.0077
3578.00,0.0077
3577.00,0.0077
3576.00,0.0078
3575.00,0.0078
3574.00,0.0079
3573.00,0.0080
3572.00,0.0080
3571.00,0.0080
3570.00,0.0080
3569.00,0.0080
3568.00,0.0080
3567.00,0.0080
3566.00,0.0080
3565.00,0.0081
3564.00,0.0082
3563.00,0.0082
3562.00,0.0082
3561.00,0.0083
3560.00,0.0083
3559.00,0.0083
3558.00,0.0083
3557.00,0.0084
3556.00,0.0084
3555.00,0.0085
3554.00,0.0085
3553.00,0.0085
3552.00,0.0086
3551.00,0.0086
3550.00,0.0086
3549.00,0.0086
3548.00,0.0087
3547.00,0.0087
3546.00,0.0087
3545.00,0.0088
3544.00,0.0088
3543.00,0.0088
3542.00,0.0089
3541.00,0.0089
3540.00,0.0089
3539.00,0.0090
3538.00,0.0090
3537.00,0.0090
3536.00,0.0090
3535.00,0.0091
3534.00,0.0091
3533.00,0.0091
3532.00,0.0092
3531.00,0.0092
3530.00,0.0092
3529.00,0.0093
3528.00,0.0093
3527.00,0.0093
3526.00,0.0094
3525.00,0.0094
3524.00,0.0094
3523.00,0.0094
3522.00,0.0095
3521.00,0.0095
3520.00,0.0095
3519.00,0.0096
3518.00,0.0096
3517.00,0.0096
3516.00,0.0097
3515.00,0.0097
3514.00,0.0097
3513.00,0.0098
3512.00,0.0098
3511.00,0.0098
3510.00,0.0098
3509.00,0.0098
3508.00,0.0099
3507.00,0.0099
3506.00,0.0099
3505.00,0.0100
3504.00,0.0100
3503.00,0.0100
3502.00,0.0101
3501.00,0.0101
3500.00,0.0101
3499.00,0.0101
3498.00,0.0101
3497.00,0.0102
3496.00,0.0102
3495.00,0.0102
3494.00,0.0102
3493.00,0.0103
3492.00,0.0103
3491.00,0.0103
3490.00,0.0104
3489.00,0.0104
3488.00,0.0104
3487.00,0.0105
3486.00,0.0105
3485.00,0.0105
3484.00,0.0106
3483.00,0.0106
3482.00,0.0106
3481.00,0.0106
3480.00,0.0106
3479.00,0.0106
3478.00,0.0107
3477.00,0.0107
3476.00,0.0107
3475.00,0.0108
3474.00,0.0108
3473.00,0.0108
3472.00,0.0108
3471.00,0.0108
3470.00,0.0109
3469.00,0.0109
3468.00,0.0109
3467.00,0.0110
3466.00,0.0110
3465.00,0.0110
3464.00,0.0110
3463.00,0.0110
3462.00,0.0111
3461.00,0.0111
3460.00,0.0111
3459.00,0.0111
3458.00,0.0112
3457.00,0.0112
3456.00,0.0112
3455.00,0.0112
3454.00,0.0112
3453.00,0.0112
3452.00,0.0113
3451.00,0.0113
3450.00,0.0114
3449.00,0.0114
3448.00,0.0114
3447.00,0.0114
3446.00,0.0115
3445.00,0.0115
3444.00,0.0115
3443.00,0.0115
3442.00,0.0115
3441.00,0.0115
3440.00,0.0116
3439.00,0.0116
3438.00,0.0116
3437.00,0.0116
3436.00,0.0117
3435.00,0.0117
3434.00,0.0117
3433.00,0.0117
3432.00,0.0117
3431.00,0.0118
3430.00,0.0118
3429.00,0.0118
3428.00,0.0119
3427.00,0.0119
3426.00,0.0119
3425.00,0.0119
3424.00,0.0120
3423.00,0.0120
3422.00,0.0120
3421.00,0.0120
3420.00,0.0121
3419.00,0.0121
3418.00,0.0121
3417.00,0.0122
3416.00,0.0122
3415.00,0.0122
3414.00,0.0123
3413.00,0.0123
3412.00,0.0123
3411.00,0.0124
3410.00,0.0124
3409.00,0.0124
3408.00,0.0124
3407.00,0.0125
3406.00,0.0125
3405.00,0.0125
3404.00,0.0126
3403.00,0.0126
3402.00,0.0126
3401.00,0.0126
3400.00,0.0127
3399.00,0.0127
3398.00,0.0127
3397.00,0.0128
3396.00,0.0128
3395.00,0.0129
3394.00,0.0129
3393.00,0.0129
3392.00,0.0129
3391.00,0.0130
3390.00,0.0130
3389.00,0.0130
3388.00,0.0131
3387.00,0.0131
3386.00,0.0132
3385.00,0.0132
3384.00,0.0133
3383.00,0.0133
3382.00,0.0133
3381.00,0.0134
3380.00,0.0134
3379.00,0.0134
3378.00,0.0135
3377.00,0.0135
3376.00,0.0136
3375.00,0.0136
3374.00,0.0137
3373.00,0.0137
3372.00,0.0137
3371.00,0.0136
3370.00,0.0136
3369.00,0.0137
3368.00,0.0137
3367.00,0.0138
3366.00,0.0139
3365.00,0.0140
3364.00,0.0140
3363.00,0.0141
3362.00,0.0141
3361.00,0.0142
3360.00,0.0142
3359.00,0.0143
3358.00,0.0143
3357.00,0.0144
3356.00,0.0144
3355.00,0.0144
3354.00,0.0145
3353.00,0.0145
3352.00,0.0145
3351.00,0.0145
3350.00,0.0146
3349.00,0.0146
3348.00,0.0147
3347.00,0.0148
3346.00,0.0148
3345.00,0.0148
3344.00,0.0148
3343.00,0.0148
3342.00,0.0149
3341.00,0.0149
3340.00,0.0150
3339.00,0.0150
3338.00,0.0151
3337.00,0.0151
3336.00,0.0152
3335.00,0.0153
3334.00,0.0153
3333.00,0.0154
3332.00,0.0154
3331.00,0.0155
3330.00,0.0155
3329.00,0.0155
3328.00,0.0155
3327.00,0.0155
3326.00,0.0155
3325.00,0.0156
3324.00,0.0156
3323.00,0.0157
3322.00,0.0158
3321.00,0.0159
3320.00,0.0160
3319.00,0.0160
3318.00,0.0160
3317.00,0.0161
3316.00,0.0161
3315.00,0.0161
3314.00,0.0161
3313.00,0.0162
3312.00,0.0162
3311.00,0.0162
3310.00,0.0161
3309.00,0.0161
3308.00,0.0161
3307.00,0.0161
3306.00,0.0161
3305.00,0.0162
3304.00,0.0163
3303.00,0.0165
3302.00,0.0166
3301.00,0.0166
3300.00,0.0167
3299.00,0.0167
3298.00,0.0167
3297.00,0.0167
3296.00,0.0167
3295.00,0.0168
3294.00,0.0168
3293.00,0.0169
3292.00,0.0169
3291.00,0.0170
3290.00,0.0170
3289.00,0.0171
3288.00,0.0171
3287.00,0.0171
3286.00,0.0171
3285.00,0.0172
3284.00,0.0172
3283.00,0.0172
3282.00,0.0172
3281.00,0.0173
3280.00,0.0173
3279.00,0.0174
3278.00,0.0174
3277.00,0.0174
3276.00,0.0174
3275.00,0.0174
3274.00,0.0174
3273.00,0.0174
3272.00,0.0174
3271.00,0.0174
3270.00,0.0174
3269.00,0.0175
3268.00,0.0175
3267.00,0.0176
3266.00,0.0176
3265.00,0.0177
3264.00,0.0177
3263.00,0.0177
3262.00,0.0177
3261.00,0.0178
3260.00,0.0178
3259.00,0.0178
3258.00,0.0178
3257.00,0.0179
3256.00,0.0179
3255.00,0.0179
3254.00,0.0180
3253.00,0.0180
3252.00,0.0180
3251.00,0.0180
3250.00,0.0181
3249.00,0.0181
3248.00,0.0181
3247.00,0.0181
3246.00,0.0181
3245.00,0.0181
3244.00,0.0182
3243.00,0.0182
3242.00,0.0182
3241.00,0.0182
3240.00,0.0183
3239.00,0.0183
3238.00,0.0183
3237.00,0.0183
3236.00,0.0183
3235.00,0.0183
3234.00,0.0183
3233.00,0.0183
3232.00,0.0183
3231.00,0.0184
3230.00,0.0185
3229.00,0.0185
3228.00,0.0185
3227.00,0.0185
3226.00,0.0185
3225.00,0.0185
3224.00,0.0185
3223.00,0.0185
3222.00,0.0185
3221.00,0.0185
3220.00,0.0185
3219.00,0.0185
3218.00,0.0185
3217.00,0.0185
3216.00,0.0185
3215.00,0.0185
3214.00,0.0185
3213.00,0.0185
3212.00,0.0185
3211.00,0.0185
3210.00,0.0185
3209.00,0.0185
3208.00,0.0185
3207.00,0.0185
3206.00,0.0185
3205.00,0.0185
3204.00,0.0185
3203.00,0.0185
3202.00,0.0185
3201.00,0.0186
3200.00,0.0186
3199.00,0.0186
3198.00,0.0186
3197.00,0.0186
3196.00,0.0186
3195.00,0.0186
3194.00,0.0186
3193.00,0.0185
3192.00,0.0185
3191.00,0.0185
3190.00,0.0185
3189.00,0.0185
3188.00,0.0185
3187.00,0.0185
3186.00,0.0185
3185.00,0.0185
3184.00,0.0185
3183.00,0.0185
3182.00,0.0185
3181.00,0.0185
3180.00,0.0185
3179.00,0.0185
3178.00,0.0186
3177.00,0.0186
3176.00,0.0186
3175.00,0.0186
3174.00,0.0186
3173.00,0.0186
3172.00,0.0186
3171.00,0.0186
3170.00,0.0185
3169.00,0.0185
3168.00,0.0185
3167.00,0.0185
3166.00,0.0184
3165.00,0.0184
3164.00,0.0184
3163.00,0.0184
3162.00,0.0184
3161.00,0.0184
3160.00,0.0184
3159.00,0.0184
3158.00,0.0183
3157.00,0.0183
3156.00,0.0182
3155.00,0.0182
3154.00,0.0182
3153.00,0.0182
3152.00,0.0182
3151.00,0.0182
3150.00,0.0182
3149.00,0.0181
3148.00,0.0181
3147.00,0.0181
3146.00,0.0180
3145.00,0.0180
3144.00,0.0180
3143.00,0.0179
3142.00,0.0179
3141.00,0.0179
3140.00,0.0179
3139.00,0.0178
3138.00,0.0178
3137.00,0.0178
3136.00,0.0177
3135.00,0.0177
3134.00,0.0177
3133.00,0.0177
3132.00,0.0177
3131.00,0.0177
3130.00,0.0178
3129.00,0.0178
3128.00,0.0178
3127.00,0.0177
3126.00,0.0177
3125.00,0.0177
3124.00,0.0177
3123.00,0.0176
3122.00,0.0176
3121.00,0.0176
3120.00,0.0176
3119.00,0.0176
3118.00,0.0175
3117.00,0.0175
3116.00,0.0175
3115.00,0.0174
3114.00,0.0174
3113.00,0.0174
3112.00,0.0173
3111.00,0.0173
3110.00,0.0173
3109.00,0.0172
3108.00,0.0172
3107.00,0.0171
3106.00,0.0171
3105.00,0.0170
3104.00,0.0170
3103.00,0.0170
3102.00,0.0170
3101.00,0.0169
3100.00,0.0169
3099.00,0.0169
3098.00,0.0169
3097.00,0.0169
3096.00,0.0169
3095.00,0.0169
3094.00,0.0169
3093.00,0.0169
3092.00,0.0169
3091.00,0.0169
3090.00,0.0169
3089.00,0.0169
3088.00,0.0169
3087.00,0.0170
3086.00,0.0170
3085.00,0.0170
3084.00,0.0170
3083.00,0.0170
3082.00,0.0170
3081.00,0.0170
3080.00,0.0170
3079.00,0.0170
3078.00,0.0169
3077.00,0.0169
3076.00,0.0169
3075.00,0.0169
3074.00,0.0169
3073.00,0.0168
3072.00,0.0168
3071.00,0.0167
3070.00,0.0167
3069.00,0.0166
3068.00,0.0166
3067.00,0.0165
3066.00,0.0165
3065.00,0.0164
3064.00,0.0164
3063.00,0.0163
3062.00,0.0163
3061.00,0.0162
3060.00,0.0162
3059.00,0.0162
3058.00,0.0161
3057.00,0.0161
3056.00,0.0161
3055.00,0.0161
3054.00,0.0161
3053.00,0.0160
3052.00,0.0160
3051.00,0.0160
3050.00,0.0159
3049.00,0.0159
3048.00,0.0159
3047.00,0.0159
3046.00,0.0158
3045.00,0.0158
3044.00,0.0158
3043.00,0.0158
3042.00,0.0157
3041.00,0.0157
3040.00,0.0157
3039.00,0.0157
3038.00,0.0156
3037.00,0.0156
3036.00,0.0156
3035.00,0.0155
3034.00,0.0155
3033.00,0.0155
3032.00,0.0155
3031.00,0.0154
3030.00,0.0154
3029.00,0.0154
3028.00,0.0154
3027.00,0.0153
3026.00,0.0152
3025.00,0.0151
3024.00,0.0151
3023.00,0.0150
3022.00,0.0150
3021.00,0.0150
3020.00,0.0149
3019.00,0.0149
3018.00,0.0149
3017.00,0.0148
3016.00,0.0148
3015.00,0.0148
3014.00,0.0148
3013.00,0.0148
3012.00,0.0148
3011.00,0.0148
3010.00,0.0148
3009.00,0.0149
3008.00,0.0149
3007.00,0.0150
3006.00,0.0151
3005.00,0.0153
3004.00,0.0154
3003.00,0.0156
3002.00,0.0158
3001.00,0.0160
3000.00,0.0162
2999.00,0.0165
2998.00,0.0168
2997.00,0.0171
2996.00,0.0175
2995.00,0.0179
2994.00,0.0183
2993.00,0.0187
2992.00,0.0192
2991.00,0.0197
2990.00,0.0202
2989.00,0.0207
2988.00,0.0212
2987.00,0.0217
2986.00,0.0221
2985.00,0.0225
2984.00,0.0229
2983.00,0.0232
2982.00,0.0235
2981.00,0.0238
2980.00,0.0242
2979.00,0.0245
2978.00,0.0248
2977.00,0.0251
2976.00,0.0253
2975.00,0.0255
2974.00,0.0257
2973.00,0.0259
2972.00,0.0261
2971.00,0.0264
2970.00,0.0267
2969.00,0.0271
2968.00,0.0274
2967.00,0.0278
2966.00,0.0282
2965.00,0.0285
2964.00,0.0289
2963.00,0.0293
2962.00,0.0296
2961.00,0.0300
2960.00,0.0304
2959.00,0.0307
2958.00,0.0310
2957.00,0.0312
2956.00,0.0314
2955.00,0.0316
2954.00,0.0317
2953.00,0.0317
2952.00,0.0316
2951.00,0.0315
2950.00,0.0314
2949.00,0.0313
2948.00,0.0312
2947.00,0.0311
2946.00,0.0311
2945.00,0.0312
2944.00,0.0313
2943.00,0.0315
2942.00,0.0318
2941.00,0.0321
2940.00,0.0325
2939.00,0.0330
2938.00,0.0335
2937.00,0.0339
2936.00,0.0345
2935.00,0.0350
2934.00,0.0355
2933.00,0.0360
2932.00,0.0364
2931.00,0.0369
2930.00,0.0373
2929.00,0.0376
2928.00,0.0378
2927.00,0.0379
2926.00,0.0380
2925.00,0.0380
2924.00,0.0378
2923.00,0.0376
2922.00,0.0374
2921.00,0.0370
2920.00,0.0366
2919.00,0.0362
2918.00,0.0357
2917.00,0.0351
2916.00,0.0345
2915.00,0.0339
2914.00,0.0333
2913.00,0.0327
2912.00,0.0321
2911.00,0.0315
2910.00,0.0310
2909.00,0.0304
2908.00,0.0299
2907.00,0.0294
2906.00,0.0290
2905.00,0.0286
2904.00,0.0282
2903.00,0.0279
2902.00,0.0276
2901.00,0.0273
2900.00,0.0271
2899.00,0.0269
2898.00,0.0267
2897.00,0.0266
2896.00,0.0264
2895.00,0.0263
2894.00,0.0261
2893.00,0.0260
2892.00,0.0258
2891.00,0.0257
2890.00,0.0256
2889.00,0.0255
2888.00,0.0253
2887.00,0.0252
2886.00,0.0252
2885.00,0.0251
2884.00,0.0251
2883.00,0.0251
2882.00,0.0251
2881.00,0.0252
2880.00,0.0253
2879.00,0.0254
2878.00,0.0256
2877.00,0.0259
2876.00,0.0262
2875.00,0.0265
2874.00,0.0268
2873.00,0.0271
2872.00,0.0273
2871.00,0.0275
2870.00,0.0277
2869.00,0.0277
2868.00,0.0277
2867.00,0.0278
2866.00,0.0278
2865.00,0.0278
2864.00,0.0280
2863.00,0.0281
2862.00,0.0283
2861.00,0.0286
2860.00,0.0288
2859.00,0.0290
2858.00,0.0291
2857.00,0.0291
2856.00,0.0289
2855.00,0.0287
2854.00,0.0283
2853.00,0.0278
2852.00,0.0273
2851.00,0.0267
2850.00,0.0261
2849.00,0.0254
2848.00,0.0247
2847.00,0.0241
2846.00,0.0234
2845.00,0.0227
2844.00,0.0221
2843.00,0.0215
2842.00,0.0209
2841.00,0.0203
2840.00,0.0198
2839.00,0.0193
2838.00,0.0189
2837.00,0.0185
2836.00,0.0182
2835.00,0.0179
2834.00,0.0177
2833.00,0.0174
2832.00,0.0172
2831.00,0.0169
2830.00,0.0167
2829.00,0.0165
2828.00,0.0162
2827.00,0.0160
2826.00,0.0158
2825.00,0.0157
2824.00,0.0155
2823.00,0.0153
2822.00,0.0151
2821.00,0.0149
2820.00,0.0148
2819.00,0.0147
2818.00,0.0145
2817.00,0.0144
2816.00,0.0143
2815.00,0.0141
2814.00,0.0140
2813.00,0.0139
2812.00,0.0138
2811.00,0.0137
2810.00,0.0137
2809.00,0.0136
2808.00,0.0136
2807.00,0.0135
2806.00,0.0134
2805.00,0.0134
2804.00,0.0133
2803.00,0.0132
2802.00,0.0132
2801.00,0.0131
2800.00,0.0131
2799.00,0.0130
2798.00,0.0129
2797.00,0.0129
2796.00,0.0128
2795.00,0.0128
2794.00,0.0128
2793.00,0.0127
2792.00,0.0127
2791.00,0.0126
2790.00,0.0126
2789.00,0.0125
2788.00,0.0125
2787.00,0.0125
2786.00,0.0124
2785.00,0.0124
2784.00,0.0124
2783.00,0.0124
2782.00,0.0124
2781.00,0.0123
2780.00,0.0123
2779.00,0.0123
2778.00,0.0122
2777.00,0.0122
2776.00,0.0121
2775.00,0.0121
2774.00,0.0121
2773.00,0.0120
2772.00,0.0120
2771.00,0.0120
2770.00,0.0120
2769.00,0.0119
2768.00,0.0119
2767.00,0.0119
2766.00,0.0119
2765.00,0.0119
2764.00,0.0119
2763.00,0.0119
2762.00,0.0119
2761.00,0.0118
2760.00,0.0119
2759.00,0.0119
2758.00,0.0119
2757.00,0.0119
