Created as New Dataset,Sample 336 By YargerLab Date Tuesday, November 11 2025
cm-1,A
4000.00,0.0301
3999.00,0.0301
3998.00,0.0301
3997.00,0.0301
3996.00,0.0301
3995.00,0.0301
3994.00,0.0300
3993.00,0.0300
3992.00,0.0300
3991.00,0.0300
3990.00,0.0300
3989.00,0.0300
3988.00,0.0300
3987.00,0.0300
3986.00,0.0300
3985.00,0.0299
3984.00,0.0299
3983.00,0.0299
3982.00,0.0299
3981.00,0.0299
3980.00,0.0299
3979.00,0.0298
3978.00,0.0298
3977.00,0.0297
3976.00,0.0297
3975.00,0.0297
3974.00,0.0297
3973.00,0.0297
3972.00,0.0297
3971.00,0.0296
3970.00,0.0296
3969.00,0.0296
3968.00,0.0296
3967.00,0.0296
3966.00,0.0297
3965.00,0.0298
3964.00,0.0299
3963.00,0.0299
3962.00,0.0300
3961.00,0.0299
3960.00,0.0298
3959.00,0.0297
3958.00,0.0296
3957.00,0.0295
3956.00,0.0295
3955.00,0.0295
3954.00,0.0295
3953.00,0.0295
3952.00,0.0294
3951.00,0.0294
3950.00,0.0293
3949.00,0.0293
3948.00,0.0292
3947.00,0.0292
3946.00,0.0292
3945.00,0.0292
3944.00,0.0292
3943.00,0.0292
3942.00,0.0292
3941.00,0.0292
3940.00,0.0292
3939.00,0.0292
3938.00,0.0291
3937.00,0.0291
3936.00,0.0291
3935.00,0.0291
3934.00,0.0292
3933.00,0.0292
3932.00,0.0292
3931.00,0.0292
3930.00,0.0292
3929.00,0.0292
3928.00,0.0292
3927.00,0.0292
3926.00,0.0291
3925.00,0.0291
3924.00,0.0290
3923.00,0.0289
3922.00,0.0289
3921.00,0.0289
3920.00,0.0289
3919.00,0.0289
3918.00,0.0290
3917.00,0.0290
3916.00,0.0290
3915.00,0.0290
3914.00,0.0289
3913.00,0.0289
3912.00,0.0288
3911.00,0.0288
3910.00,0.0287
3909.00,0.0287
3908.00,0.0287
3907.00,0.0287
3906.00,0.0287
3905.00,0.0287
3904.00,0.0287
3903.00,0.0287
3902.00,0.0286
3901.00,0.0285
3900.00,0.0284
3899.00,0.0284
3898.00,0.0284
3897.00,0.0285
3896.00,0.0286
3895.00,0.0286
3894.00,0.0286
3893.00,0.0286
3892.00,0.0286
3891.00,0.0286
3890.00,0.0286
3889.00,0.0286
3888.00,0.0286
3887.00,0.0286
3886.00,0.0286
3885.00,0.0285
3884.00,0.0285
3883.00,0.0285
3882.00,0.0285
3881.00,0.0285
3880.00,0.0284
3879.00,0.0283
3878.00,0.0283
3877.00,0.0283
3876.00,0.0284
3875.00,0.0284
3874.00,0.0284
3873.00,0.0284
3872.00,0.0284
3871.00,0.0285
3870.00,0.0286
3869.00,0.0285
3868.00,0.0285
3867.00,0.0285
3866.00,0.0285
3865.00,0.0284
3864.00,0.0284
3863.00,0.0283
3862.00,0.0282
3861.00,0.0282
3860.00,0.0281
3859.00,0.0281
3858.00,0.0280
3857.00,0.0279
3856.00,0.0278
3855.00,0.0279
3854.00,0.0280
3853.00,0.0281
3852.00,0.0281
3851.00,0.0281
3850.00,0.0281
3849.00,0.0281
3848.00,0.0280
3847.00,0.0280
3846.00,0.0280
3845.00,0.0280
3844.00,0.0281
3843.00,0.0281
3842.00,0.0281
3841.00,0.0281
3840.00,0.0280
3839.00,0.0278
3838.00,0.0277
3837.00,0.0276
3836.00,0.0275
3835.00,0.0276
3834.00,0.0277
3833.00,0.0278
3832.00,0.0278
3831.00,0.0278
3830.00,0.0278
3829.00,0.0278
3828.00,0.0278
3827.00,0.0278
3826.00,0.0278
3825.00,0.0277
3824.00,0.0277
3823.00,0.0277
3822.00,0.0278
3821.00,0.0278
3820.00,0.0277
3819.00,0.0277
3818.00,0.0277
3817.00,0.0277
3816.00,0.0276
3815.00,0.0276
3814.00,0.0275
3813.00,0.0275
3812.00,0.0275
3811.00,0.0274
3810.00,0.0274
3809.00,0.0273
3808.00,0.0273
3807.00,0.0273
3806.00,0.0273
3805.00,0.0273
3804.00,0.0274
3803.00,0.0276
3802.00,0.0276
3801.00,0.0276
3800.00,0.0275
3799.00,0.0274
3798.00,0.0274
3797.00,0.0274
3796.00,0.0273
3795.00,0.0272
3794.00,0.0272
3793.00,0.0272
3792.00,0.0272
3791.00,0.0272
3790.00,0.0272
3789.00,0.0272
3788.00,0.0272
3787.00,0.0272
3786.00,0.0271
3785.00,0.0271
3784.00,0.0270
3783.00,0.0269
3782.00,0.0269
3781.00,0.0269
3780.00,0.0270
3779.00,0.0270
3778.00,0.0270
3777.00,0.0269
3776.00,0.0270
3775.00,0.0270
3774.00,0.0269
3773.00,0.0269
3772.00,0.0269
3771.00,0.0269
3770.00,0.0270
3769.00,0.0269
3768.00,0.0269
3767.00,0.0270
3766.00,0.0269
3765.00,0.0269
3764.00,0.0269
3763.00,0.0268
3762.00,0.0268
3761.00,0.0268
3760.00,0.0269
3759.00,0.0269
3758.00,0.0269
3757.00,0.0268
3756.00,0.0268
3755.00,0.0267
3754.00,0.0267
3753.00,0.0268
3752.00,0.0268
3751.00,0.0269
3750.00,0.0268
3749.00,0.0267
3748.00,0.0266
3747.00,0.0266
3746.00,0.0266
3745.00,0.0265
3744.00,0.0265
3743.00,0.0264
3742.00,0.0265
3741.00,0.0265
3740.00,0.0266
3739.00,0.0266
3738.00,0.0267
3737.00,0.0267
3736.00,0.0267
3735.00,0.0266
3734.00,0.0265
3733.00,0.0264
3732.00,0.0263
3731.00,0.0263
3730.00,0.0263
3729.00,0.0264
3728.00,0.0264
3727.00,0.0264
3726.00,0.0263
3725.00,0.0262
3724.00,0.0262
3723.00,0.0261
3722.00,0.0261
3721.00,0.0260
3720.00,0.0260
3719.00,0.0260
3718.00,0.0260
3717.00,0.0260
3716.00,0.0260
3715.00,0.0260
3714.00,0.0260
3713.00,0.0260
3712.00,0.0260
3711.00,0.0260
3710.00,0.0260
3709.00,0.0260
3708.00,0.0260
3707.00,0.0260
3706.00,0.0260
3705.00,0.0259
3704.00,0.0259
3703.00,0.0259
3702.00,0.0259
3701.00,0.0259
3700.00,0.0258
3699.00,0.0258
3698.00,0.0258
3697.00,0.0258
3696.00,0.0258
3695.00,0.0258
3694.00,0.0258
3693.00,0.0259
3692.00,0.0259
3691.00,0.0259
3690.00,0.0260
3689.00,0.0260
3688.00,0.0260
3687.00,0.0260
3686.00,0.0261
3685.00,0.0261
3684.00,0.0261
3683.00,0.0262
3682.00,0.0262
3681.00,0.0263
3680.00,0.0264
3679.00,0.0264
3678.00,0.0264
3677.00,0.0265
3676.00,0.0265
3675.00,0.0264
3674.00,0.0263
3673.00,0.0263
3672.00,0.0264
3671.00,0.0265
3670.00,0.0265
3669.00,0.0264
3668.00,0.0263
3667.00,0.0263
3666.00,0.0263
3665.00,0.0263
3664.00,0.0264
3663.00,0.0264
3662.00,0.0264
3661.00,0.0263
3660.00,0.0262
3659.00,0.0262
3658.00,0.0262
3657.00,0.0263
3656.00,0.0263
3655.00,0.0263
3654.00,0.0263
3653.00,0.0264
3652.00,0.0265
3651.00,0.0266
3650.00,0.0267
3649.00,0.0268
3648.00,0.0269
3647.00,0.0269
3646.00,0.0269
3645.00,0.0268
3644.00,0.0268
3643.00,0.0267
3642.00,0.0267
3641.00,0.0266
3640.00,0.0266
3639.00,0.0266
3638.00,0.0267
3637.00,0.0268
3636.00,0.0268
3635.00,0.0269
3634.00,0.0269
3633.00,0.0269
3632.00,0.0270
3631.00,0.0270
3630.00,0.0270
3629.00,0.0270
3628.00,0.0269
3627.00,0.0269
3626.00,0.0270
3625.00,0.0271
3624.00,0.0271
3623.00,0.0272
3622.00,0.0272
3621.00,0.0273
3620.00,0.0274
3619.00,0.0274
3618.00,0.0275
3617.00,0.0275
3616.00,0.0276
3615.00,0.0277
3614.00,0.0278
3613.00,0.0278
3612.00,0.0278
3611.00,0.0279
3610.00,0.0279
3609.00,0.0280
3608.00,0.0279
3607.00,0.0279
3606.00,0.0278
3605.00,0.0279
3604.00,0.0280
3603.00,0.0280
3602.00,0.0281
3601.00,0.0281
3600.00,0.0282
3599.00,0.0283
3598.00,0.0284
3597.00,0.0285
3596.00,0.0286
3595.00,0.0287
3594.00,0.0287
3593.00,0.0287
3592.00,0.0287
3591.00,0.0289
3590.00,0.0290
3589.00,0.0292
3588.00,0.0292
3587.00,0.0292
3586.00,0.0292
3585.00,0.0292
3584.00,0.0293
3583.00,0.0295
3582.00,0.0296
3581.00,0.0297
3580.00,0.0298
3579.00,0.0299
3578.00,0.0299
3577.00,0.0300
3576.00,0.0301
3575.00,0.0301
3574.00,0.0302
3573.00,0.0303
3572.00,0.0304
3571.00,0.0305
3570.00,0.0307
3569.00,0.0309
3568.00,0.0310
3567.00,0.0310
3566.00,0.0310
3565.00,0.0311
3564.00,0.0311
3563.00,0.0313
3562.00,0.0313
3561.00,0.0314
3560.00,0.0315
3559.00,0.0315
3558.00,0.0316
3557.00,0.0316
3556.00,0.0317
3555.00,0.0319
3554.00,0.0321
3553.00,0.0322
3552.00,0.0322
3551.00,0.0322
3550.00,0.0322
3549.00,0.0323
3548.00,0.0324
3547.00,0.0325
3546.00,0.0325
3545.00,0.0326
3544.00,0.0326
3543.00,0.0326
3542.00,0.0327
3541.00,0.0327
3540.00,0.0328
3539.00,0.0329
3538.00,0.0330
3537.00,0.0330
3536.00,0.0331
3535.00,0.0331
3534.00,0.0332
3533.00,0.0333
3532.00,0.0334
3531.00,0.0336
3530.00,0.0337
3529.00,0.0337
3528.00,0.0338
3527.00,0.0338
3526.00,0.0339
3525.00,0.0340
3524.00,0.0341
3523.00,0.0342
3522.00,0.0342
3521.00,0.0342
3520.00,0.0342
3519.00,0.0342
3518.00,0.0342
3517.00,0.0343
3516.00,0.0344
3515.00,0.0345
3514.00,0.0346
3513.00,0.0347
3512.00,0.0348
3511.00,0.0349
3510.00,0.0350
3509.00,0.0351
3508.00,0.0352
3507.00,0.0352
3506.00,0.0353
3505.00,0.0354
3504.00,0.0354
3503.00,0.0355
3502.00,0.0356
3501.00,0.0357
3500.00,0.0358
3499.00,0.0359
3498.00,0.0360
3497.00,0.0360
3496.00,0.0361
3495.00,0.0362
3494.00,0.0364
3493.00,0.0366
3492.00,0.0368
3491.00,0.0369
3490.00,0.0369
3489.00,0.0369
3488.00,0.0369
3487.00,0.0370
3486.00,0.0371
3485.00,0.0372
3484.00,0.0373
3483.00,0.0374
3482.00,0.0374
3481.00,0.0375
3480.00,0.0375
3479.00,0.0376
3478.00,0.0377
3477.00,0.0378
3476.00,0.0380
3475.00,0.0381
3474.00,0.0382
3473.00,0.0382
3472.00,0.0383
3471.00,0.0383
3470.00,0.0383
3469.00,0.0383
3468.00,0.0384
3467.00,0.0385
3466.00,0.0386
3465.00,0.0387
3464.00,0.0388
3463.00,0.0389
3462.00,0.0390
3461.00,0.0391
3460.00,0.0392
3459.00,0.0393
3458.00,0.0394
3457.00,0.0394
3456.00,0.0395
3455.00,0.0395
3454.00,0.0396
3453.00,0.0396
3452.00,0.0397
3451.00,0.0397
3450.00,0.0398
3449.00,0.0399
3448.00,0.0400
3447.00,0.0401
3446.00,0.0401
3445.00,0.0401
3444.00,0.0401
3443.00,0.0401
3442.00,0.0401
3441.00,0.0401
3440.00,0.0402
3439.00,0.0402
3438.00,0.0403
3437.00,0.0403
3436.00,0.0403
3435.00,0.0403
3434.00,0.0404
3433.00,0.0404
3432.00,0.0405
3431.00,0.0406
3430.00,0.0407
3429.00,0.0407
3428.00,0.0408
3427.00,0.0408
3426.00,0.0407
3425.00,0.0408
3424.00,0.0408
3423.00,0.0409
3422.00,0.0409
3421.00,0.0410
3420.00,0.0410
3419.00,0.0410
3418.00,0.0410
3417.00,0.0409
3416.00,0.0409
3415.00,0.0408
3414.00,0.0408
3413.00,0.0408
3412.00,0.0409
3411.00,0.0410
3410.00,0.0411
3409.00,0.0411
3408.00,0.0412
3407.00,0.0412
3406.00,0.0411
3405.00,0.0411
3404.00,0.0410
3403.00,0.0409
3402.00,0.0408
3401.00,0.0408
3400.00,0.0409
3399.00,0.0410
3398.00,0.0411
3397.00,0.0412
3396.00,0.0412
3395.00,0.0412
3394.00,0.0412
3393.00,0.0411
3392.00,0.0410
3391.00,0.0410
3390.00,0.0411
3389.00,0.0412
3388.00,0.0412
3387.00,0.0412
3386.00,0.0412
3385.00,0.0413
3384.00,0.0413
3383.00,0.0412
3382.00,0.0412
3381.00,0.0412
3380.00,0.0412
3379.00,0.0412
3378.00,0.0412
3377.00,0.0412
3376.00,0.0412
3375.00,0.0413
3374.00,0.0413
3373.00,0.0412
3372.00,0.0411
3371.00,0.0409
3370.00,0.0408
3369.00,0.0407
3368.00,0.0406
3367.00,0.0407
3366.00,0.0409
3365.00,0.0411
3364.00,0.0413
3363.00,0.0414
3362.00,0.0414
3361.00,0.0413
3360.00,0.0413
3359.00,0.0413
3358.00,0.0413
3357.00,0.0413
3356.00,0.0413
3355.00,0.0413
3354.00,0.0412
3353.00,0.0411
3352.00,0.0410
3351.00,0.0409
3350.00,0.0409
3349.00,0.0410
3348.00,0.0411
3347.00,0.0411
3346.00,0.0411
3345.00,0.0411
3344.00,0.0410
3343.00,0.0410
3342.00,0.0409
3341.00,0.0409
3340.00,0.0408
3339.00,0.0408
3338.00,0.0408
3337.00,0.0408
3336.00,0.0410
3335.00,0.0411
3334.00,0.0412
3333.00,0.0412
3332.00,0.0412
3331.00,0.0411
3330.00,0.0410
3329.00,0.0409
3328.00,0.0408
3327.00,0.0407
3326.00,0.0407
3325.00,0.0407
3324.00,0.0407
3323.00,0.0408
3322.00,0.0408
3321.00,0.0409
3320.00,0.0409
3319.00,0.0410
3318.00,0.0410
3317.00,0.0410
3316.00,0.0409
3315.00,0.0409
3314.00,0.0409
3313.00,0.0408
3312.00,0.0407
3311.00,0.0406
3310.00,0.0404
3309.00,0.0403
3308.00,0.0401
3307.00,0.0400
3306.00,0.0400
3305.00,0.0401
3304.00,0.0403
3303.00,0.0404
3302.00,0.0405
3301.00,0.0406
3300.00,0.0407
3299.00,0.0406
3298.00,0.0406
3297.00,0.0405
3296.00,0.0404
3295.00,0.0403
3294.00,0.0403
3293.00,0.0403
3292.00,0.0404
3291.00,0.0405
3290.00,0.0406
3289.00,0.0407
3288.00,0.0408
3287.00,0.0408
3286.00,0.0408
3285.00,0.0408
3284.00,0.0408
3283.00,0.0408
3282.00,0.0407
3281.00,0.0406
3280.00,0.0406
3279.00,0.0405
3278.00,0.0405
3277.00,0.0404
3276.00,0.0403
3275.00,0.0402
3274.00,0.0401
3273.00,0.0400
3272.00,0.0400
3271.00,0.0400
3270.00,0.0401
3269.00,0.0401
3268.00,0.0402
3267.00,0.0402
3266.00,0.0402
3265.00,0.0402
3264.00,0.0402
3263.00,0.0402
3262.00,0.0401
3261.00,0.0401
3260.00,0.0400
3259.00,0.0400
3258.00,0.0399
3257.00,0.0399
3256.00,0.0399
3255.00,0.0399
3254.00,0.0400
3253.00,0.0400
3252.00,0.0399
3251.00,0.0399
3250.00,0.0398
3249.00,0.0396
3248.00,0.0395
3247.00,0.0395
3246.00,0.0395
3245.00,0.0395
3244.00,0.0396
3243.00,0.0397
3242.00,0.0397
3241.00,0.0397
3240.00,0.0398
3239.00,0.0397
3238.00,0.0397
3237.00,0.0396
3236.00,0.0395
3235.00,0.0393
3234.00,0.0392
3233.00,0.0392
3232.00,0.0392
3231.00,0.0392
3230.00,0.0392
3229.00,0.0392
3228.00,0.0392
3227.00,0.0391
3226.00,0.0391
3225.00,0.0391
3224.00,0.0391
3223.00,0.0391
3222.00,0.0391
3221.00,0.0390
3220.00,0.0390
3219.00,0.0389
3218.00,0.0389
3217.00,0.0389
3216.00,0.0388
3215.00,0.0388
3214.00,0.0387
3213.00,0.0387
3212.00,0.0386
3211.00,0.0385
3210.00,0.0384
3209.00,0.0383
3208.00,0.0382
3207.00,0.0382
3206.00,0.0382
3205.00,0.0382
3204.00,0.0382
3203.00,0.0382
3202.00,0.0382
3201.00,0.0382
3200.00,0.0382
3199.00,0.0382
3198.00,0.0381
3197.00,0.0381
3196.00,0.0380
3195.00,0.0379
3194.00,0.0379
3193.00,0.0379
3192.00,0.0378
3191.00,0.0378
3190.00,0.0378
3189.00,0.0378
3188.00,0.0378
3187.00,0.0378
3186.00,0.0378
3185.00,0.0378
3184.00,0.0377
3183.00,0.0377
3182.00,0.0376
3181.00,0.0376
3180.00,0.0375
3179.00,0.0375
3178.00,0.0374
3177.00,0.0373
3176.00,0.0372
3175.00,0.0372
3174.00,0.0372
3173.00,0.0372
3172.00,0.0373
3171.00,0.0373
3170.00,0.0373
3169.00,0.0372
3168.00,0.0372
3167.00,0.0371
3166.00,0.0370
3165.00,0.0369
3164.00,0.0368
3163.00,0.0368
3162.00,0.0367
3161.00,0.0367
3160.00,0.0366
3159.00,0.0366
3158.00,0.0365
3157.00,0.0364
3156.00,0.0364
3155.00,0.0363
3154.00,0.0362
3153.00,0.0362
3152.00,0.0361
3151.00,0.0361
3150.00,0.0360
3149.00,0.0360
3148.00,0.0360
3147.00,0.0360
3146.00,0.0359
3145.00,0.0358
3144.00,0.0358
3143.00,0.0357
3142.00,0.0356
3141.00,0.0355
3140.00,0.0355
3139.00,0.0355
3138.00,0.0354
3137.00,0.0355
3136.00,0.0355
3135.00,0.0355
3134.00,0.0355
3133.00,0.0355
3132.00,0.0354
3131.00,0.0354
3130.00,0.0353
3129.00,0.0352
3128.00,0.0352
3127.00,0.0352
3126.00,0.0352
3125.00,0.0352
3124.00,0.0352
3123.00,0.0351
3122.00,0.0349
3121.00,0.0348
3120.00,0.0348
3119.00,0.0347
3118.00,0.0347
3117.00,0.0346
3116.00,0.0346
3115.00,0.0347
3114.00,0.0347
3113.00,0.0347
3112.00,0.0346
3111.00,0.0345
3110.00,0.0344
3109.00,0.0344
3108.00,0.0343
3107.00,0.0343
3106.00,0.0342
3105.00,0.0341
3104.00,0.0341
3103.00,0.0341
3102.00,0.0340
3101.00,0.0340
3100.00,0.0340
3099.00,0.0340
3098.00,0.0340
3097.00,0.0340
3096.00,0.0340
3095.00,0.0339
3094.00,0.0339
3093.00,0.0338
3092.00,0.0338
3091.00,0.0338
3090.00,0.0338
3089.00,0.0338
3088.00,0.0338
3087.00,0.0337
3086.00,0.0337
3085.00,0.0337
3084.00,0.0336
3083.00,0.0336
3082.00,0.0335
3081.00,0.0335
3080.00,0.0336
3079.00,0.0337
3078.00,0.0337
3077.00,0.0337
3076.00,0.0337
3075.00,0.0336
3074.00,0.0335
3073.00,0.0334
3072.00,0.0333
3071.00,0.0333
3070.00,0.0333
3069.00,0.0332
3068.00,0.0331
3067.00,0.0331
3066.00,0.0331
3065.00,0.0330
3064.00,0.0330
3063.00,0.0330
3062.00,0.0330
3061.00,0.0329
3060.00,0.0328
3059.00,0.0327
3058.00,0.0326
3057.00,0.0326
3056.00,0.0325
3055.00,0.0325
3054.00,0.0325
3053.00,0.0324
3052.00,0.0323
3051.00,0.0322
3050.00,0.0322
3049.00,0.0323
3048.00,0.0322
3047.00,0.0322
3046.00,0.0320
3045.00,0.0319
3044.00,0.0319
3043.00,0.0319
3042.00,0.0319
3041.00,0.0319
3040.00,0.0320
3039.00,0.0320
3038.00,0.0320
3037.00,0.0319
3036.00,0.0319
3035.00,0.0318
3034.00,0.0318
3033.00,0.0318
3032.00,0.0318
3031.00,0.0319
3030.00,0.0318
3029.00,0.0318
3028.00,0.0317
3027.00,0.0315
3026.00,0.0314
3025.00,0.0312
3024.00,0.0311
3023.00,0.0310
3022.00,0.0309
3021.00,0.0309
3020.00,0.0308
3019.00,0.0308
3018.00,0.0309
3017.00,0.0310
3016.00,0.0312
3015.00,0.0314
3014.00,0.0315
3013.00,0.0315
3012.00,0.0316
3011.00,0.0319
3010.00,0.0322
3009.00,0.0325
3008.00,0.0329
3007.00,0.0332
3006.00,0.0336
3005.00,0.0339
3004.00,0.0342
3003.00,0.0346
3002.00,0.0350
3001.00,0.0355
3000.00,0.0361
2999.00,0.0367
2998.00,0.0373
2997.00,0.0380
2996.00,0.0387
2995.00,0.0395
2994.00,0.0404
2993.00,0.0412
2992.00,0.0422
2991.00,0.0431
2990.00,0.0441
2989.00,0.0451
2988.00,0.0462
2987.00,0.0472
2986.00,0.0483
2985.00,0.0495
2984.00,0.0506
2983.00,0.0517
2982.00,0.0528
2981.00,0.0538
2980.00,0.0548
2979.00,0.0558
2978.00,0.0568
2977.00,0.0577
2976.00,0.0586
2975.00,0.0594
2974.00,0.0603
2973.00,0.0611
2972.00,0.0620
2971.00,0.0628
2970.00,0.0636
2969.00,0.0643
2968.00,0.0650
2967.00,0.0655
2966.00,0.0659
2965.00,0.0663
2964.00,0.0665
2963.00,0.0666
2962.00,0.0667
2961.00,0.0668
2960.00,0.0668
2959.00,0.0668
2958.00,0.0668
2957.00,0.0667
2956.00,0.0665
2955.00,0.0662
2954.00,0.0658
2953.00,0.0652
2952.00,0.0647
2951.00,0.0642
2950.00,0.0637
2949.00,0.0632
2948.00,0.0627
2947.00,0.0623
2946.00,0.0620
2945.00,0.0619
2944.00,0.0619
2943.00,0.0620
2942.00,0.0622
2941.00,0.0626
2940.00,0.0630
2939.00,0.0634
2938.00,0.0639
2937.00,0.0644
2936.00,0.0650
2935.00,0.0655
2934.00,0.0661
2933.00,0.0666
2932.00,0.0672
2931.00,0.0677
2930.00,0.0682
2929.00,0.0686
2928.00,0.0689
2927.00,0.0691
2926.00,0.0692
2925.00,0.0692
2924.00,0.0690
2923.00,0.0688
2922.00,0.0684
2921.00,0.0679
2920.00,0.0672
2919.00,0.0665
2918.00,0.0657
2917.00,0.0649
2916.00,0.0639
2915.00,0.0630
2914.00,0.0621
2913.00,0.0612
2912.00,0.0604
2911.00,0.0595
2910.00,0.0586
2909.00,0.0578
2908.00,0.0569
2907.00,0.0562
2906.00,0.0555
2905.00,0.0549
2904.00,0.0543
2903.00,0.0539
2902.00,0.0535
2901.00,0.0532
2900.00,0.0530
2899.00,0.0528
2898.00,0.0526
2897.00,0.0525
2896.00,0.0525
2895.00,0.0525
2894.00,0.0525
2893.00,0.0524
2892.00,0.0523
2891.00,0.0521
2890.00,0.0521
2889.00,0.0521
2888.00,0.0521
2887.00,0.0521
2886.00,0.0521
2885.00,0.0521
2884.00,0.0521
2883.00,0.0521
2882.00,0.0521
2881.00,0.0522
2880.00,0.0523
2879.00,0.0524
2878.00,0.0526
2877.00,0.0528
2876.00,0.0530
2875.00,0.0532
2874.00,0.0534
2873.00,0.0537
2872.00,0.0539
2871.00,0.0540
2870.00,0.0540
2869.00,0.0538
2868.00,0.0537
2867.00,0.0535
2866.00,0.0533
2865.00,0.0533
2864.00,0.0532
2863.00,0.0532
2862.00,0.0532
2861.00,0.0532
2860.00,0.0532
2859.00,0.0532
2858.00,0.0531
2857.00,0.0529
2856.00,0.0525
2855.00,0.0519
2854.00,0.0512
2853.00,0.0503
2852.00,0.0493
2851.00,0.0482
2850.00,0.0472
2849.00,0.0461
2848.00,0.0451
2847.00,0.0441
2846.00,0.0432
2845.00,0.0423
2844.00,0.0414
2843.00,0.0405
2842.00,0.0396
2841.00,0.0387
2840.00,0.0380
2839.00,0.0373
2838.00,0.0367
2837.00,0.0362
2836.00,0.0357
2835.00,0.0353
2834.00,0.0348
2833.00,0.0344
2832.00,0.0339
2831.00,0.0335
2830.00,0.0331
2829.00,0.0327
2828.00,0.0324
2827.00,0.0320
2826.00,0.0317
2825.00,0.0313
2824.00,0.0310
2823.00,0.0306
2822.00,0.0303
2821.00,0.0301
2820.00,0.0298
2819.00,0.0296
2818.00,0.0294
2817.00,0.0292
2816.00,0.0290
2815.00,0.0288
2814.00,0.0286
2813.00,0.0284
2812.00,0.0283
2811.00,0.0281
2810.00,0.0280
2809.00,0.0279
2808.00,0.0277
2807.00,0.0276
2806.00,0.0275
2805.00,0.0274
2804.00,0.0273
2803.00,0.0272
2802.00,0.0271
2801.00,0.0269
2800.00,0.0268
2799.00,0.0267
2798.00,0.0265
2797.00,0.0265
2796.00,0.0264
2795.00,0.0263
2794.00,0.0262
2793.00,0.0261
2792.00,0.0260
2791.00,0.0259
2790.00,0.0259
2789.00,0.0258
2788.00,0.0258
2787.00,0.0257
2786.00,0.0256
2785.00,0.0256
2784.00,0.0255
2783.00,0.0255
2782.00,0.0254
2781.00,0.0254
2780.00,0.0254
2779.00,0.0253
2778.00,0.0252
2777.00,0.0251
2776.00,0.0250
2775.00,0.0249
2774.00,0.0249
2773.00,0.0248
2772.00,0.0248
2771.00,0.0247
2770.00,0.0247
2769.00,0.0246
2768.00,0.0246
2767.00,0.0245
2766.00,0.0245
2765.00,0.0245
2764.00,0.0245
2763.00,0.0245
2762.00,0.0244
2761.00,0.0244
2760.00,0.0244
2759.00,0.0243
2758.00,0.0243
2757.00,0.0244
