Created as New Dataset,Sample 231 By YargerLab Date Sunday, October 05 2025
cm-1,A
4000.00,0.0053
3999.00,0.0053
3998.00,0.0053
3997.00,0.0052
3996.00,0.0053
3995.00,0.0053
3994.00,0.0053
3993.00,0.0053
3992.00,0.0053
3991.00,0.0053
3990.00,0.0052
3989.00,0.0052
3988.00,0.0052
3987.00,0.0052
3986.00,0.0052
3985.00,0.0052
3984.00,0.0052
3983.00,0.0052
3982.00,0.0052
3981.00,0.0052
3980.00,0.0052
3979.00,0.0053
3978.00,0.0053
3977.00,0.0053
3976.00,0.0053
3975.00,0.0053
3974.00,0.0052
3973.00,0.0052
3972.00,0.0052
3971.00,0.0052
3970.00,0.0052
3969.00,0.0052
3968.00,0.0052
3967.00,0.0052
3966.00,0.0052
3965.00,0.0052
3964.00,0.0052
3963.00,0.0052
3962.00,0.0052
3961.00,0.0052
3960.00,0.0052
3959.00,0.0052
3958.00,0.0052
3957.00,0.0052
3956.00,0.0052
3955.00,0.0052
3954.00,0.0052
3953.00,0.0052
3952.00,0.0051
3951.00,0.0051
3950.00,0.0051
3949.00,0.0051
3948.00,0.0051
3947.00,0.0051
3946.00,0.0051
3945.00,0.0051
3944.00,0.0051
3943.00,0.0051
3942.00,0.0051
3941.00,0.0051
3940.00,0.0051
3939.00,0.0051
3938.00,0.0051
3937.00,0.0051
3936.00,0.0051
3935.00,0.0051
3934.00,0.0051
3933.00,0.0051
3932.00,0.0051
3931.00,0.0051
3930.00,0.0051
3929.00,0.0051
3928.00,0.0051
3927.00,0.0051
3926.00,0.0051
3925.00,0.0051
3924.00,0.0051
3923.00,0.0051
3922.00,0.0051
3921.00,0.0051
3920.00,0.0051
3919.00,0.0051
3918.00,0.0051
3917.00,0.0051
3916.00,0.0051
3915.00,0.0051
3914.00,0.0051
3913.00,0.0051
3912.00,0.0051
3911.00,0.0051
3910.00,0.0051
3909.00,0.0051
3908.00,0.0051
3907.00,0.0051
3906.00,0.0051
3905.00,0.0051
3904.00,0.0051
3903.00,0.0050
3902.00,0.0050
3901.00,0.0050
3900.00,0.0050
3899.00,0.0051
3898.00,0.0051
3897.00,0.0051
3896.00,0.0051
3895.00,0.0051
3894.00,0.0051
3893.00,0.0051
3892.00,0.0051
3891.00,0.0051
3890.00,0.0051
3889.00,0.0051
3888.00,0.0051
3887.00,0.0051
3886.00,0.0051
3885.00,0.0051
3884.00,0.0051
3883.00,0.0050
3882.00,0.0050
3881.00,0.0050
3880.00,0.0050
3879.00,0.0050
3878.00,0.0051
3877.00,0.0051
3876.00,0.0051
3875.00,0.0051
3874.00,0.0050
3873.00,0.0050
3872.00,0.0050
3871.00,0.0050
3870.00,0.0050
3869.00,0.0050
3868.00,0.0050
3867.00,0.0050
3866.00,0.0050
3865.00,0.0050
3864.00,0.0050
3863.00,0.0050
3862.00,0.0050
3861.00,0.0050
3860.00,0.0050
3859.00,0.0050
3858.00,0.0051
3857.00,0.0051
3856.00,0.0051
3855.00,0.0051
3854.00,0.0051
3853.00,0.0050
3852.00,0.0050
3851.00,0.0050
3850.00,0.0050
3849.00,0.0050
3848.00,0.0050
3847.00,0.0050
3846.00,0.0050
3845.00,0.0050
3844.00,0.0050
3843.00,0.0050
3842.00,0.0049
3841.00,0.0049
3840.00,0.0049
3839.00,0.0050
3838.00,0.0050
3837.00,0.0050
3836.00,0.0050
3835.00,0.0050
3834.00,0.0050
3833.00,0.0050
3832.00,0.0050
3831.00,0.0050
3830.00,0.0050
3829.00,0.0050
3828.00,0.0050
3827.00,0.0050
3826.00,0.0050
3825.00,0.0050
3824.00,0.0050
3823.00,0.0050
3822.00,0.0050
3821.00,0.0050
3820.00,0.0050
3819.00,0.0050
3818.00,0.0050
3817.00,0.0049
3816.00,0.0049
3815.00,0.0050
3814.00,0.0050
3813.00,0.0051
3812.00,0.0051
3811.00,0.0051
3810.00,0.0050
3809.00,0.0050
3808.00,0.0050
3807.00,0.0050
3806.00,0.0050
3805.00,0.0050
3804.00,0.0050
3803.00,0.0050
3802.00,0.0050
3801.00,0.0050
3800.00,0.0050
3799.00,0.0050
3798.00,0.0049
3797.00,0.0049
3796.00,0.0049
3795.00,0.0050
3794.00,0.0050
3793.00,0.0050
3792.00,0.0050
3791.00,0.0050
3790.00,0.0050
3789.00,0.0050
3788.00,0.0050
3787.00,0.0050
3786.00,0.0050
3785.00,0.0050
3784.00,0.0050
3783.00,0.0050
3782.00,0.0050
3781.00,0.0050
3780.00,0.0050
3779.00,0.0050
3778.00,0.0050
3777.00,0.0051
3776.00,0.0051
3775.00,0.0051
3774.00,0.0050
3773.00,0.0050
3772.00,0.0050
3771.00,0.0050
3770.00,0.0050
3769.00,0.0050
3768.00,0.0050
3767.00,0.0050
3766.00,0.0050
3765.00,0.0050
3764.00,0.0050
3763.00,0.0050
3762.00,0.0050
3761.00,0.0050
3760.00,0.0050
3759.00,0.0050
3758.00,0.0050
3757.00,0.0050
3756.00,0.0050
3755.00,0.0050
3754.00,0.0050
3753.00,0.0050
3752.00,0.0050
3751.00,0.0050
3750.00,0.0050
3749.00,0.0050
3748.00,0.0050
3747.00,0.0050
3746.00,0.0050
3745.00,0.0050
3744.00,0.0050
3743.00,0.0049
3742.00,0.0049
3741.00,0.0049
3740.00,0.0048
3739.00,0.0048
3738.00,0.0048
3737.00,0.0048
3736.00,0.0048
3735.00,0.0048
3734.00,0.0048
3733.00,0.0048
3732.00,0.0049
3731.00,0.0049
3730.00,0.0049
3729.00,0.0049
3728.00,0.0049
3727.00,0.0049
3726.00,0.0049
3725.00,0.0049
3724.00,0.0049
3723.00,0.0049
3722.00,0.0049
3721.00,0.0049
3720.00,0.0049
3719.00,0.0049
3718.00,0.0049
3717.00,0.0049
3716.00,0.0048
3715.00,0.0048
3714.00,0.0048
3713.00,0.0048
3712.00,0.0048
3711.00,0.0048
3710.00,0.0048
3709.00,0.0048
3708.00,0.0048
3707.00,0.0048
3706.00,0.0048
3705.00,0.0048
3704.00,0.0048
3703.00,0.0049
3702.00,0.0049
3701.00,0.0049
3700.00,0.0049
3699.00,0.0049
3698.00,0.0049
3697.00,0.0048
3696.00,0.0048
3695.00,0.0048
3694.00,0.0048
3693.00,0.0048
3692.00,0.0048
3691.00,0.0048
3690.00,0.0049
3689.00,0.0049
3688.00,0.0050
3687.00,0.0050
3686.00,0.0051
3685.00,0.0051
3684.00,0.0051
3683.00,0.0051
3682.00,0.0051
3681.00,0.0051
3680.00,0.0051
3679.00,0.0051
3678.00,0.0050
3677.00,0.0050
3676.00,0.0050
3675.00,0.0050
3674.00,0.0050
3673.00,0.0050
3672.00,0.0051
3671.00,0.0051
3670.00,0.0051
3669.00,0.0052
3668.00,0.0052
3667.00,0.0052
3666.00,0.0052
3665.00,0.0052
3664.00,0.0052
3663.00,0.0053
3662.00,0.0053
3661.00,0.0053
3660.00,0.0053
3659.00,0.0053
3658.00,0.0053
3657.00,0.0053
3656.00,0.0053
3655.00,0.0053
3654.00,0.0053
3653.00,0.0053
3652.00,0.0054
3651.00,0.0054
3650.00,0.0055
3649.00,0.0055
3648.00,0.0056
3647.00,0.0056
3646.00,0.0057
3645.00,0.0057
3644.00,0.0057
3643.00,0.0058
3642.00,0.0058
3641.00,0.0059
3640.00,0.0059
3639.00,0.0059
3638.00,0.0059
3637.00,0.0059
3636.00,0.0059
3635.00,0.0060
3634.00,0.0060
3633.00,0.0060
3632.00,0.0060
3631.00,0.0061
3630.00,0.0061
3629.00,0.0062
3628.00,0.0063
3627.00,0.0063
3626.00,0.0063
3625.00,0.0064
3624.00,0.0064
3623.00,0.0064
3622.00,0.0064
3621.00,0.0064
3620.00,0.0065
3619.00,0.0065
3618.00,0.0066
3617.00,0.0066
3616.00,0.0067
3615.00,0.0067
3614.00,0.0068
3613.00,0.0068
3612.00,0.0069
3611.00,0.0070
3610.00,0.0070
3609.00,0.0071
3608.00,0.0072
3607.00,0.0072
3606.00,0.0073
3605.00,0.0073
3604.00,0.0074
3603.00,0.0074
3602.00,0.0074
3601.00,0.0074
3600.00,0.0074
3599.00,0.0075
3598.00,0.0075
3597.00,0.0076
3596.00,0.0077
3595.00,0.0078
3594.00,0.0078
3593.00,0.0079
3592.00,0.0079
3591.00,0.0079
3590.00,0.0079
3589.00,0.0080
3588.00,0.0080
3587.00,0.0081
3586.00,0.0082
3585.00,0.0083
3584.00,0.0083
3583.00,0.0084
3582.00,0.0084
3581.00,0.0085
3580.00,0.0086
3579.00,0.0087
3578.00,0.0088
3577.00,0.0088
3576.00,0.0089
3575.00,0.0089
3574.00,0.0090
3573.00,0.0090
3572.00,0.0091
3571.00,0.0092
3570.00,0.0092
3569.00,0.0093
3568.00,0.0093
3567.00,0.0094
3566.00,0.0095
3565.00,0.0096
3564.00,0.0097
3563.00,0.0098
3562.00,0.0099
3561.00,0.0100
3560.00,0.0100
3559.00,0.0101
3558.00,0.0101
3557.00,0.0102
3556.00,0.0102
3555.00,0.0102
3554.00,0.0103
3553.00,0.0104
3552.00,0.0105
3551.00,0.0105
3550.00,0.0106
3549.00,0.0107
3548.00,0.0107
3547.00,0.0108
3546.00,0.0109
3545.00,0.0109
3544.00,0.0110
3543.00,0.0111
3542.00,0.0111
3541.00,0.0112
3540.00,0.0113
3539.00,0.0113
3538.00,0.0114
3537.00,0.0115
3536.00,0.0115
3535.00,0.0116
3534.00,0.0117
3533.00,0.0117
3532.00,0.0118
3531.00,0.0119
3530.00,0.0119
3529.00,0.0120
3528.00,0.0121
3527.00,0.0121
3526.00,0.0122
3525.00,0.0123
3524.00,0.0123
3523.00,0.0124
3522.00,0.0125
3521.00,0.0125
3520.00,0.0126
3519.00,0.0126
3518.00,0.0127
3517.00,0.0128
3516.00,0.0129
3515.00,0.0129
3514.00,0.0130
3513.00,0.0131
3512.00,0.0131
3511.00,0.0132
3510.00,0.0133
3509.00,0.0134
3508.00,0.0134
3507.00,0.0135
3506.00,0.0135
3505.00,0.0136
3504.00,0.0136
3503.00,0.0137
3502.00,0.0138
3501.00,0.0139
3500.00,0.0140
3499.00,0.0140
3498.00,0.0141
3497.00,0.0142
3496.00,0.0143
3495.00,0.0144
3494.00,0.0144
3493.00,0.0145
3492.00,0.0145
3491.00,0.0146
3490.00,0.0146
3489.00,0.0147
3488.00,0.0148
3487.00,0.0149
3486.00,0.0150
3485.00,0.0150
3484.00,0.0151
3483.00,0.0152
3482.00,0.0152
3481.00,0.0153
3480.00,0.0154
3479.00,0.0155
3478.00,0.0155
3477.00,0.0156
3476.00,0.0157
3475.00,0.0157
3474.00,0.0158
3473.00,0.0159
3472.00,0.0159
3471.00,0.0160
3470.00,0.0161
3469.00,0.0162
3468.00,0.0162
3467.00,0.0163
3466.00,0.0163
3465.00,0.0164
3464.00,0.0164
3463.00,0.0165
3462.00,0.0165
3461.00,0.0165
3460.00,0.0166
3459.00,0.0167
3458.00,0.0167
3457.00,0.0168
3456.00,0.0168
3455.00,0.0169
3454.00,0.0169
3453.00,0.0170
3452.00,0.0170
3451.00,0.0171
3450.00,0.0171
3449.00,0.0172
3448.00,0.0173
3447.00,0.0174
3446.00,0.0174
3445.00,0.0175
3444.00,0.0175
3443.00,0.0176
3442.00,0.0176
3441.00,0.0177
3440.00,0.0178
3439.00,0.0178
3438.00,0.0179
3437.00,0.0179
3436.00,0.0180
3435.00,0.0180
3434.00,0.0181
3433.00,0.0181
3432.00,0.0182
3431.00,0.0183
3430.00,0.0183
3429.00,0.0183
3428.00,0.0183
3427.00,0.0184
3426.00,0.0184
3425.00,0.0185
3424.00,0.0186
3423.00,0.0186
3422.00,0.0187
3421.00,0.0188
3420.00,0.0188
3419.00,0.0189
3418.00,0.0189
3417.00,0.0190
3416.00,0.0190
3415.00,0.0191
3414.00,0.0191
3413.00,0.0192
3412.00,0.0192
3411.00,0.0193
3410.00,0.0194
3409.00,0.0194
3408.00,0.0195
3407.00,0.0196
3406.00,0.0196
3405.00,0.0197
3404.00,0.0197
3403.00,0.0197
3402.00,0.0198
3401.00,0.0198
3400.00,0.0198
3399.00,0.0199
3398.00,0.0200
3397.00,0.0201
3396.00,0.0201
3395.00,0.0201
3394.00,0.0202
3393.00,0.0202
3392.00,0.0203
3391.00,0.0204
3390.00,0.0205
3389.00,0.0206
3388.00,0.0207
3387.00,0.0208
3386.00,0.0208
3385.00,0.0209
3384.00,0.0210
3383.00,0.0210
3382.00,0.0211
3381.00,0.0212
3380.00,0.0212
3379.00,0.0213
3378.00,0.0213
3377.00,0.0214
3376.00,0.0214
3375.00,0.0215
3374.00,0.0215
3373.00,0.0215
3372.00,0.0215
3371.00,0.0214
3370.00,0.0214
3369.00,0.0215
3368.00,0.0216
3367.00,0.0218
3366.00,0.0219
3365.00,0.0221
3364.00,0.0222
3363.00,0.0223
3362.00,0.0223
3361.00,0.0223
3360.00,0.0224
3359.00,0.0225
3358.00,0.0226
3357.00,0.0227
3356.00,0.0228
3355.00,0.0228
3354.00,0.0228
3353.00,0.0228
3352.00,0.0227
3351.00,0.0227
3350.00,0.0229
3349.00,0.0230
3348.00,0.0231
3347.00,0.0232
3346.00,0.0233
3345.00,0.0233
3344.00,0.0233
3343.00,0.0233
3342.00,0.0233
3341.00,0.0233
3340.00,0.0233
3339.00,0.0234
3338.00,0.0234
3337.00,0.0236
3336.00,0.0237
3335.00,0.0238
3334.00,0.0239
3333.00,0.0240
3332.00,0.0241
3331.00,0.0242
3330.00,0.0242
3329.00,0.0242
3328.00,0.0242
3327.00,0.0242
3326.00,0.0243
3325.00,0.0243
3324.00,0.0245
3323.00,0.0246
3322.00,0.0247
3321.00,0.0248
3320.00,0.0249
3319.00,0.0250
3318.00,0.0250
3317.00,0.0251
3316.00,0.0251
3315.00,0.0252
3314.00,0.0252
3313.00,0.0252
3312.00,0.0252
3311.00,0.0251
3310.00,0.0250
3309.00,0.0250
3308.00,0.0249
3307.00,0.0249
3306.00,0.0250
3305.00,0.0252
3304.00,0.0254
3303.00,0.0256
3302.00,0.0258
3301.00,0.0259
3300.00,0.0260
3299.00,0.0260
3298.00,0.0259
3297.00,0.0259
3296.00,0.0259
3295.00,0.0259
3294.00,0.0259
3293.00,0.0260
3292.00,0.0261
3291.00,0.0262
3290.00,0.0263
3289.00,0.0264
3288.00,0.0265
3287.00,0.0265
3286.00,0.0266
3285.00,0.0266
3284.00,0.0267
3283.00,0.0267
3282.00,0.0267
3281.00,0.0268
3280.00,0.0268
3279.00,0.0268
3278.00,0.0268
3277.00,0.0268
3276.00,0.0268
3275.00,0.0267
3274.00,0.0267
3273.00,0.0267
3272.00,0.0267
3271.00,0.0267
3270.00,0.0267
3269.00,0.0268
3268.00,0.0269
3267.00,0.0270
3266.00,0.0270
3265.00,0.0271
3264.00,0.0271
3263.00,0.0271
3262.00,0.0271
3261.00,0.0271
3260.00,0.0271
3259.00,0.0272
3258.00,0.0272
3257.00,0.0272
3256.00,0.0272
3255.00,0.0273
3254.00,0.0273
3253.00,0.0274
3252.00,0.0274
3251.00,0.0274
3250.00,0.0274
3249.00,0.0274
3248.00,0.0274
3247.00,0.0274
3246.00,0.0274
3245.00,0.0275
3244.00,0.0275
3243.00,0.0276
3242.00,0.0276
3241.00,0.0276
3240.00,0.0276
3239.00,0.0276
3238.00,0.0276
3237.00,0.0275
3236.00,0.0275
3235.00,0.0274
3234.00,0.0274
3233.00,0.0275
3232.00,0.0276
3231.00,0.0276
3230.00,0.0277
3229.00,0.0277
3228.00,0.0277
3227.00,0.0277
3226.00,0.0276
3225.00,0.0276
3224.00,0.0276
3223.00,0.0276
3222.00,0.0276
3221.00,0.0276
3220.00,0.0276
3219.00,0.0276
3218.00,0.0276
3217.00,0.0276
3216.00,0.0276
3215.00,0.0276
3214.00,0.0275
3213.00,0.0275
3212.00,0.0275
3211.00,0.0275
3210.00,0.0275
3209.00,0.0274
3208.00,0.0274
3207.00,0.0274
3206.00,0.0273
3205.00,0.0273
3204.00,0.0273
3203.00,0.0273
3202.00,0.0273
3201.00,0.0273
3200.00,0.0273
3199.00,0.0273
3198.00,0.0272
3197.00,0.0272
3196.00,0.0272
3195.00,0.0272
3194.00,0.0272
3193.00,0.0272
3192.00,0.0272
3191.00,0.0272
3190.00,0.0272
3189.00,0.0271
3188.00,0.0271
3187.00,0.0271
3186.00,0.0271
3185.00,0.0271
3184.00,0.0271
3183.00,0.0270
3182.00,0.0270
3181.00,0.0270
3180.00,0.0270
3179.00,0.0270
3178.00,0.0270
3177.00,0.0270
3176.00,0.0270
3175.00,0.0270
3174.00,0.0270
3173.00,0.0269
3172.00,0.0269
3171.00,0.0268
3170.00,0.0268
3169.00,0.0268
3168.00,0.0267
3167.00,0.0267
3166.00,0.0266
3165.00,0.0265
3164.00,0.0265
3163.00,0.0264
3162.00,0.0264
3161.00,0.0264
3160.00,0.0263
3159.00,0.0263
3158.00,0.0262
3157.00,0.0262
3156.00,0.0261
3155.00,0.0260
3154.00,0.0260
3153.00,0.0259
3152.00,0.0259
3151.00,0.0259
3150.00,0.0258
3149.00,0.0258
3148.00,0.0258
3147.00,0.0257
3146.00,0.0256
3145.00,0.0256
3144.00,0.0255
3143.00,0.0254
3142.00,0.0254
3141.00,0.0253
3140.00,0.0252
3139.00,0.0252
3138.00,0.0252
3137.00,0.0251
3136.00,0.0251
3135.00,0.0251
3134.00,0.0250
3133.00,0.0250
3132.00,0.0250
3131.00,0.0249
3130.00,0.0249
3129.00,0.0249
3128.00,0.0249
3127.00,0.0248
3126.00,0.0248
3125.00,0.0248
3124.00,0.0247
3123.00,0.0247
3122.00,0.0247
3121.00,0.0247
3120.00,0.0246
3119.00,0.0246
3118.00,0.0245
3117.00,0.0245
3116.00,0.0244
3115.00,0.0244
3114.00,0.0243
3113.00,0.0242
3112.00,0.0241
3111.00,0.0240
3110.00,0.0240
3109.00,0.0239
3108.00,0.0238
3107.00,0.0238
3106.00,0.0237
3105.00,0.0236
3104.00,0.0235
3103.00,0.0235
3102.00,0.0234
3101.00,0.0234
3100.00,0.0234
3099.00,0.0233
3098.00,0.0233
3097.00,0.0233
3096.00,0.0232
3095.00,0.0232
3094.00,0.0232
3093.00,0.0232
3092.00,0.0232
3091.00,0.0232
3090.00,0.0232
3089.00,0.0233
3088.00,0.0233
3087.00,0.0233
3086.00,0.0233
3085.00,0.0233
3084.00,0.0233
3083.00,0.0233
3082.00,0.0233
3081.00,0.0233
3080.00,0.0233
3079.00,0.0233
3078.00,0.0233
3077.00,0.0233
3076.00,0.0232
3075.00,0.0232
3074.00,0.0231
3073.00,0.0230
3072.00,0.0230
3071.00,0.0229
3070.00,0.0228
3069.00,0.0227
3068.00,0.0226
3067.00,0.0226
3066.00,0.0225
3065.00,0.0224
3064.00,0.0223
3063.00,0.0222
3062.00,0.0221
3061.00,0.0221
3060.00,0.0220
3059.00,0.0220
3058.00,0.0219
3057.00,0.0218
3056.00,0.0218
3055.00,0.0217
3054.00,0.0217
3053.00,0.0216
3052.00,0.0216
3051.00,0.0215
3050.00,0.0215
3049.00,0.0214
3048.00,0.0214
3047.00,0.0214
3046.00,0.0213
3045.00,0.0213
3044.00,0.0213
3043.00,0.0212
3042.00,0.0212
3041.00,0.0212
3040.00,0.0211
3039.00,0.0211
3038.00,0.0211
3037.00,0.0211
3036.00,0.0210
3035.00,0.0210
3034.00,0.0209
3033.00,0.0209
3032.00,0.0209
3031.00,0.0208
3030.00,0.0208
3029.00,0.0207
3028.00,0.0206
3027.00,0.0206
3026.00,0.0205
3025.00,0.0204
3024.00,0.0204
3023.00,0.0203
3022.00,0.0202
3021.00,0.0201
3020.00,0.0201
3019.00,0.0200
3018.00,0.0200
3017.00,0.0199
3016.00,0.0199
3015.00,0.0200
3014.00,0.0200
3013.00,0.0201
3012.00,0.0202
3011.00,0.0202
3010.00,0.0204
3009.00,0.0205
3008.00,0.0207
3007.00,0.0208
3006.00,0.0210
3005.00,0.0213
3004.00,0.0216
3003.00,0.0219
3002.00,0.0223
3001.00,0.0227
3000.00,0.0232
2999.00,0.0237
2998.00,0.0243
2997.00,0.0250
2996.00,0.0257
2995.00,0.0265
2994.00,0.0273
2993.00,0.0281
2992.00,0.0290
2991.00,0.0300
2990.00,0.0309
2989.00,0.0319
2988.00,0.0328
2987.00,0.0337
2986.00,0.0345
2985.00,0.0353
2984.00,0.0359
2983.00,0.0365
2982.00,0.0371
2981.00,0.0377
2980.00,0.0383
2979.00,0.0389
2978.00,0.0394
2977.00,0.0398
2976.00,0.0402
2975.00,0.0405
2974.00,0.0408
2973.00,0.0411
2972.00,0.0415
2971.00,0.0419
2970.00,0.0425
2969.00,0.0431
2968.00,0.0437
2967.00,0.0444
2966.00,0.0451
2965.00,0.0459
2964.00,0.0466
2963.00,0.0473
2962.00,0.0481
2961.00,0.0488
2960.00,0.0495
2959.00,0.0502
2958.00,0.0508
2957.00,0.0514
2956.00,0.0518
2955.00,0.0521
2954.00,0.0522
2953.00,0.0523
2952.00,0.0522
2951.00,0.0520
2950.00,0.0518
2949.00,0.0515
2948.00,0.0513
2947.00,0.0512
2946.00,0.0511
2945.00,0.0512
2944.00,0.0514
2943.00,0.0517
2942.00,0.0521
2941.00,0.0527
2940.00,0.0533
2939.00,0.0540
2938.00,0.0548
2937.00,0.0556
2936.00,0.0564
2935.00,0.0573
2934.00,0.0582
2933.00,0.0590
2932.00,0.0598
2931.00,0.0605
2930.00,0.0611
2929.00,0.0616
2928.00,0.0620
2927.00,0.0623
2926.00,0.0625
2925.00,0.0624
2924.00,0.0623
2923.00,0.0620
2922.00,0.0615
2921.00,0.0610
2920.00,0.0603
2919.00,0.0595
2918.00,0.0585
2917.00,0.0576
2916.00,0.0565
2915.00,0.0554
2914.00,0.0543
2913.00,0.0532
2912.00,0.0521
2911.00,0.0510
2910.00,0.0499
2909.00,0.0490
2908.00,0.0480
2907.00,0.0472
2906.00,0.0464
2905.00,0.0456
2904.00,0.0449
2903.00,0.0444
2902.00,0.0438
2901.00,0.0434
2900.00,0.0430
2899.00,0.0426
2898.00,0.0423
2897.00,0.0420
2896.00,0.0417
2895.00,0.0415
2894.00,0.0413
2893.00,0.0411
2892.00,0.0408
2891.00,0.0406
2890.00,0.0403
2889.00,0.0401
2888.00,0.0399
2887.00,0.0398
2886.00,0.0396
2885.00,0.0395
2884.00,0.0394
2883.00,0.0394
2882.00,0.0394
2881.00,0.0395
2880.00,0.0397
2879.00,0.0400
2878.00,0.0403
2877.00,0.0407
2876.00,0.0411
2875.00,0.0416
2874.00,0.0420
2873.00,0.0425
2872.00,0.0428
2871.00,0.0431
2870.00,0.0433
2869.00,0.0433
2868.00,0.0433
2867.00,0.0432
2866.00,0.0432
2865.00,0.0433
2864.00,0.0435
2863.00,0.0437
2862.00,0.0440
2861.00,0.0444
2860.00,0.0447
2859.00,0.0450
2858.00,0.0451
2857.00,0.0450
2856.00,0.0447
2855.00,0.0442
2854.00,0.0435
2853.00,0.0426
2852.00,0.0416
2851.00,0.0405
2850.00,0.0393
2849.00,0.0381
2848.00,0.0369
2847.00,0.0357
2846.00,0.0346
2845.00,0.0334
2844.00,0.0323
2843.00,0.0312
2842.00,0.0302
2841.00,0.0293
2840.00,0.0285
2839.00,0.0278
2838.00,0.0272
2837.00,0.0266
2836.00,0.0262
2835.00,0.0258
2834.00,0.0254
2833.00,0.0251
2832.00,0.0247
2831.00,0.0244
2830.00,0.0242
2829.00,0.0239
2828.00,0.0236
2827.00,0.0233
2826.00,0.0231
2825.00,0.0228
2824.00,0.0225
2823.00,0.0223
2822.00,0.0220
2821.00,0.0217
2820.00,0.0214
2819.00,0.0211
2818.00,0.0209
2817.00,0.0206
2816.00,0.0203
2815.00,0.0201
2814.00,0.0198
2813.00,0.0195
2812.00,0.0192
2811.00,0.0190
2810.00,0.0187
2809.00,0.0185
2808.00,0.0182
2807.00,0.0180
2806.00,0.0178
2805.00,0.0176
2804.00,0.0174
2803.00,0.0173
2802.00,0.0171
2801.00,0.0169
2800.00,0.0167
2799.00,0.0165
2798.00,0.0164
2797.00,0.0162
2796.00,0.0161
2795.00,0.0160
2794.00,0.0159
2793.00,0.0158
2792.00,0.0157
2791.00,0.0155
2790.00,0.0154
2789.00,0.0153
2788.00,0.0152
2787.00,0.0151
2786.00,0.0150
2785.00,0.0149
2784.00,0.0149
2783.00,0.0148
2782.00,0.0147
2781.00,0.0146
2780.00,0.0145
2779.00,0.0144
2778.00,0.0143
2777.00,0.0142
2776.00,0.0141
2775.00,0.0141
2774.00,0.0140
2773.00,0.0139
2772.00,0.0139
2771.00,0.0139
2770.00,0.0138
2769.00,0.0138
2768.00,0.0137
2767.00,0.0136
2766.00,0.0136
2765.00,0.0135
2764.00,0.0135
2763.00,0.0135
2762.00,0.0135
2761.00,0.0134
2760.00,0.0134
2759.00,0.0134
2758.00,0.0134
2757.00,0.0134
