Created as New Dataset,Sample 409 By YargerLab Date Thursday, December 04 2025
cm-1,A
4000.00,0.0044
3999.00,0.0043
3998.00,0.0043
3997.00,0.0043
3996.00,0.0043
3995.00,0.0043
3994.00,0.0044
3993.00,0.0044
3992.00,0.0044
3991.00,0.0044
3990.00,0.0044
3989.00,0.0043
3988.00,0.0043
3987.00,0.0043
3986.00,0.0043
3985.00,0.0043
3984.00,0.0043
3983.00,0.0043
3982.00,0.0043
3981.00,0.0043
3980.00,0.0043
3979.00,0.0043
3978.00,0.0043
3977.00,0.0043
3976.00,0.0043
3975.00,0.0043
3974.00,0.0043
3973.00,0.0044
3972.00,0.0044
3971.00,0.0044
3970.00,0.0044
3969.00,0.0044
3968.00,0.0044
3967.00,0.0044
3966.00,0.0044
3965.00,0.0043
3964.00,0.0043
3963.00,0.0043
3962.00,0.0043
3961.00,0.0043
3960.00,0.0043
3959.00,0.0044
3958.00,0.0044
3957.00,0.0044
3956.00,0.0043
3955.00,0.0043
3954.00,0.0043
3953.00,0.0043
3952.00,0.0043
3951.00,0.0043
3950.00,0.0043
3949.00,0.0043
3948.00,0.0043
3947.00,0.0043
3946.00,0.0043
3945.00,0.0043
3944.00,0.0043
3943.00,0.0043
3942.00,0.0043
3941.00,0.0043
3940.00,0.0043
3939.00,0.0043
3938.00,0.0043
3937.00,0.0043
3936.00,0.0043
3935.00,0.0043
3934.00,0.0042
3933.00,0.0042
3932.00,0.0042
3931.00,0.0042
3930.00,0.0042
3929.00,0.0042
3928.00,0.0042
3927.00,0.0043
3926.00,0.0043
3925.00,0.0043
3924.00,0.0043
3923.00,0.0043
3922.00,0.0043
3921.00,0.0043
3920.00,0.0043
3919.00,0.0043
3918.00,0.0042
3917.00,0.0042
3916.00,0.0042
3915.00,0.0042
3914.00,0.0043
3913.00,0.0043
3912.00,0.0043
3911.00,0.0043
3910.00,0.0043
3909.00,0.0043
3908.00,0.0043
3907.00,0.0043
3906.00,0.0043
3905.00,0.0042
3904.00,0.0042
3903.00,0.0042
3902.00,0.0042
3901.00,0.0042
3900.00,0.0043
3899.00,0.0043
3898.00,0.0043
3897.00,0.0043
3896.00,0.0043
3895.00,0.0043
3894.00,0.0043
3893.00,0.0043
3892.00,0.0043
3891.00,0.0042
3890.00,0.0042
3889.00,0.0042
3888.00,0.0042
3887.00,0.0042
3886.00,0.0042
3885.00,0.0042
3884.00,0.0042
3883.00,0.0042
3882.00,0.0042
3881.00,0.0042
3880.00,0.0042
3879.00,0.0042
3878.00,0.0042
3877.00,0.0042
3876.00,0.0042
3875.00,0.0042
3874.00,0.0042
3873.00,0.0042
3872.00,0.0042
3871.00,0.0042
3870.00,0.0042
3869.00,0.0042
3868.00,0.0042
3867.00,0.0042
3866.00,0.0042
3865.00,0.0042
3864.00,0.0042
3863.00,0.0042
3862.00,0.0042
3861.00,0.0042
3860.00,0.0042
3859.00,0.0042
3858.00,0.0042
3857.00,0.0042
3856.00,0.0042
3855.00,0.0043
3854.00,0.0043
3853.00,0.0043
3852.00,0.0043
3851.00,0.0043
3850.00,0.0043
3849.00,0.0043
3848.00,0.0043
3847.00,0.0043
3846.00,0.0043
3845.00,0.0043
3844.00,0.0044
3843.00,0.0043
3842.00,0.0043
3841.00,0.0043
3840.00,0.0043
3839.00,0.0042
3838.00,0.0042
3837.00,0.0042
3836.00,0.0042
3835.00,0.0042
3834.00,0.0043
3833.00,0.0043
3832.00,0.0043
3831.00,0.0043
3830.00,0.0042
3829.00,0.0043
3828.00,0.0043
3827.00,0.0043
3826.00,0.0043
3825.00,0.0043
3824.00,0.0043
3823.00,0.0043
3822.00,0.0043
3821.00,0.0043
3820.00,0.0042
3819.00,0.0043
3818.00,0.0043
3817.00,0.0043
3816.00,0.0043
3815.00,0.0043
3814.00,0.0043
3813.00,0.0043
3812.00,0.0044
3811.00,0.0044
3810.00,0.0044
3809.00,0.0044
3808.00,0.0044
3807.00,0.0043
3806.00,0.0043
3805.00,0.0043
3804.00,0.0043
3803.00,0.0043
3802.00,0.0043
3801.00,0.0043
3800.00,0.0043
3799.00,0.0043
3798.00,0.0043
3797.00,0.0043
3796.00,0.0044
3795.00,0.0044
3794.00,0.0044
3793.00,0.0044
3792.00,0.0044
3791.00,0.0044
3790.00,0.0043
3789.00,0.0043
3788.00,0.0043
3787.00,0.0043
3786.00,0.0043
3785.00,0.0043
3784.00,0.0043
3783.00,0.0042
3782.00,0.0042
3781.00,0.0042
3780.00,0.0042
3779.00,0.0043
3778.00,0.0043
3777.00,0.0043
3776.00,0.0043
3775.00,0.0043
3774.00,0.0043
3773.00,0.0043
3772.00,0.0043
3771.00,0.0043
3770.00,0.0043
3769.00,0.0043
3768.00,0.0043
3767.00,0.0043
3766.00,0.0043
3765.00,0.0043
3764.00,0.0043
3763.00,0.0043
3762.00,0.0043
3761.00,0.0042
3760.00,0.0042
3759.00,0.0042
3758.00,0.0042
3757.00,0.0043
3756.00,0.0043
3755.00,0.0043
3754.00,0.0043
3753.00,0.0043
3752.00,0.0043
3751.00,0.0043
3750.00,0.0042
3749.00,0.0042
3748.00,0.0042
3747.00,0.0042
3746.00,0.0042
3745.00,0.0042
3744.00,0.0042
3743.00,0.0042
3742.00,0.0042
3741.00,0.0042
3740.00,0.0042
3739.00,0.0042
3738.00,0.0042
3737.00,0.0042
3736.00,0.0041
3735.00,0.0041
3734.00,0.0041
3733.00,0.0041
3732.00,0.0041
3731.00,0.0041
3730.00,0.0041
3729.00,0.0041
3728.00,0.0041
3727.00,0.0041
3726.00,0.0041
3725.00,0.0041
3724.00,0.0041
3723.00,0.0041
3722.00,0.0041
3721.00,0.0041
3720.00,0.0042
3719.00,0.0042
3718.00,0.0042
3717.00,0.0042
3716.00,0.0042
3715.00,0.0042
3714.00,0.0042
3713.00,0.0042
3712.00,0.0042
3711.00,0.0042
3710.00,0.0042
3709.00,0.0041
3708.00,0.0041
3707.00,0.0041
3706.00,0.0041
3705.00,0.0042
3704.00,0.0042
3703.00,0.0042
3702.00,0.0041
3701.00,0.0041
3700.00,0.0041
3699.00,0.0041
3698.00,0.0041
3697.00,0.0041
3696.00,0.0041
3695.00,0.0041
3694.00,0.0042
3693.00,0.0042
3692.00,0.0042
3691.00,0.0043
3690.00,0.0043
3689.00,0.0044
3688.00,0.0044
3687.00,0.0044
3686.00,0.0044
3685.00,0.0044
3684.00,0.0044
3683.00,0.0044
3682.00,0.0044
3681.00,0.0044
3680.00,0.0044
3679.00,0.0044
3678.00,0.0044
3677.00,0.0045
3676.00,0.0045
3675.00,0.0045
3674.00,0.0045
3673.00,0.0045
3672.00,0.0046
3671.00,0.0046
3670.00,0.0047
3669.00,0.0047
3668.00,0.0047
3667.00,0.0047
3666.00,0.0047
3665.00,0.0047
3664.00,0.0047
3663.00,0.0047
3662.00,0.0047
3661.00,0.0047
3660.00,0.0047
3659.00,0.0048
3658.00,0.0048
3657.00,0.0049
3656.00,0.0049
3655.00,0.0049
3654.00,0.0049
3653.00,0.0049
3652.00,0.0049
3651.00,0.0049
3650.00,0.0049
3649.00,0.0049
3648.00,0.0050
3647.00,0.0050
3646.00,0.0051
3645.00,0.0051
3644.00,0.0052
3643.00,0.0052
3642.00,0.0053
3641.00,0.0054
3640.00,0.0054
3639.00,0.0054
3638.00,0.0054
3637.00,0.0054
3636.00,0.0054
3635.00,0.0055
3634.00,0.0055
3633.00,0.0055
3632.00,0.0056
3631.00,0.0056
3630.00,0.0057
3629.00,0.0058
3628.00,0.0059
3627.00,0.0059
3626.00,0.0060
3625.00,0.0061
3624.00,0.0061
3623.00,0.0061
3622.00,0.0061
3621.00,0.0062
3620.00,0.0062
3619.00,0.0063
3618.00,0.0063
3617.00,0.0064
3616.00,0.0064
3615.00,0.0065
3614.00,0.0065
3613.00,0.0066
3612.00,0.0066
3611.00,0.0067
3610.00,0.0068
3609.00,0.0068
3608.00,0.0069
3607.00,0.0070
3606.00,0.0071
3605.00,0.0071
3604.00,0.0072
3603.00,0.0072
3602.00,0.0073
3601.00,0.0074
3600.00,0.0074
3599.00,0.0075
3598.00,0.0076
3597.00,0.0076
3596.00,0.0077
3595.00,0.0077
3594.00,0.0078
3593.00,0.0079
3592.00,0.0080
3591.00,0.0080
3590.00,0.0081
3589.00,0.0081
3588.00,0.0082
3587.00,0.0083
3586.00,0.0084
3585.00,0.0085
3584.00,0.0087
3583.00,0.0088
3582.00,0.0089
3581.00,0.0090
3580.00,0.0090
3579.00,0.0091
3578.00,0.0092
3577.00,0.0093
3576.00,0.0094
3575.00,0.0095
3574.00,0.0096
3573.00,0.0097
3572.00,0.0098
3571.00,0.0098
3570.00,0.0098
3569.00,0.0099
3568.00,0.0100
3567.00,0.0101
3566.00,0.0102
3565.00,0.0103
3564.00,0.0104
3563.00,0.0104
3562.00,0.0105
3561.00,0.0106
3560.00,0.0107
3559.00,0.0108
3558.00,0.0109
3557.00,0.0110
3556.00,0.0111
3555.00,0.0111
3554.00,0.0112
3553.00,0.0113
3552.00,0.0113
3551.00,0.0114
3550.00,0.0115
3549.00,0.0115
3548.00,0.0116
3547.00,0.0116
3546.00,0.0117
3545.00,0.0118
3544.00,0.0119
3543.00,0.0120
3542.00,0.0120
3541.00,0.0121
3540.00,0.0122
3539.00,0.0122
3538.00,0.0123
3537.00,0.0123
3536.00,0.0124
3535.00,0.0125
3534.00,0.0125
3533.00,0.0125
3532.00,0.0126
3531.00,0.0126
3530.00,0.0126
3529.00,0.0127
3528.00,0.0127
3527.00,0.0128
3526.00,0.0129
3525.00,0.0129
3524.00,0.0130
3523.00,0.0130
3522.00,0.0131
3521.00,0.0131
3520.00,0.0132
3519.00,0.0132
3518.00,0.0133
3517.00,0.0133
3516.00,0.0134
3515.00,0.0134
3514.00,0.0134
3513.00,0.0135
3512.00,0.0135
3511.00,0.0136
3510.00,0.0136
3509.00,0.0137
3508.00,0.0138
3507.00,0.0138
3506.00,0.0138
3505.00,0.0139
3504.00,0.0139
3503.00,0.0140
3502.00,0.0141
3501.00,0.0141
3500.00,0.0142
3499.00,0.0142
3498.00,0.0143
3497.00,0.0144
3496.00,0.0144
3495.00,0.0145
3494.00,0.0145
3493.00,0.0146
3492.00,0.0146
3491.00,0.0146
3490.00,0.0147
3489.00,0.0147
3488.00,0.0148
3487.00,0.0149
3486.00,0.0149
3485.00,0.0150
3484.00,0.0150
3483.00,0.0150
3482.00,0.0151
3481.00,0.0151
3480.00,0.0151
3479.00,0.0152
3478.00,0.0152
3477.00,0.0153
3476.00,0.0153
3475.00,0.0154
3474.00,0.0154
3473.00,0.0154
3472.00,0.0155
3471.00,0.0156
3470.00,0.0156
3469.00,0.0156
3468.00,0.0157
3467.00,0.0157
3466.00,0.0157
3465.00,0.0158
3464.00,0.0159
3463.00,0.0159
3462.00,0.0160
3461.00,0.0160
3460.00,0.0160
3459.00,0.0160
3458.00,0.0160
3457.00,0.0160
3456.00,0.0160
3455.00,0.0161
3454.00,0.0161
3453.00,0.0161
3452.00,0.0161
3451.00,0.0162
3450.00,0.0162
3449.00,0.0162
3448.00,0.0162
3447.00,0.0163
3446.00,0.0163
3445.00,0.0163
3444.00,0.0163
3443.00,0.0163
3442.00,0.0163
3441.00,0.0164
3440.00,0.0164
3439.00,0.0164
3438.00,0.0164
3437.00,0.0164
3436.00,0.0165
3435.00,0.0165
3434.00,0.0165
3433.00,0.0165
3432.00,0.0165
3431.00,0.0165
3430.00,0.0165
3429.00,0.0165
3428.00,0.0166
3427.00,0.0166
3426.00,0.0166
3425.00,0.0165
3424.00,0.0165
3423.00,0.0165
3422.00,0.0165
3421.00,0.0165
3420.00,0.0166
3419.00,0.0166
3418.00,0.0166
3417.00,0.0166
3416.00,0.0166
3415.00,0.0166
3414.00,0.0166
3413.00,0.0166
3412.00,0.0166
3411.00,0.0166
3410.00,0.0166
3409.00,0.0166
3408.00,0.0166
3407.00,0.0166
3406.00,0.0166
3405.00,0.0166
3404.00,0.0166
3403.00,0.0166
3402.00,0.0166
3401.00,0.0166
3400.00,0.0166
3399.00,0.0166
3398.00,0.0167
3397.00,0.0167
3396.00,0.0167
3395.00,0.0167
3394.00,0.0167
3393.00,0.0166
3392.00,0.0167
3391.00,0.0167
3390.00,0.0168
3389.00,0.0168
3388.00,0.0168
3387.00,0.0168
3386.00,0.0168
3385.00,0.0168
3384.00,0.0168
3383.00,0.0168
3382.00,0.0168
3381.00,0.0168
3380.00,0.0168
3379.00,0.0169
3378.00,0.0169
3377.00,0.0170
3376.00,0.0170
3375.00,0.0170
3374.00,0.0170
3373.00,0.0169
3372.00,0.0168
3371.00,0.0167
3370.00,0.0167
3369.00,0.0167
3368.00,0.0167
3367.00,0.0168
3366.00,0.0169
3365.00,0.0170
3364.00,0.0171
3363.00,0.0171
3362.00,0.0171
3361.00,0.0172
3360.00,0.0172
3359.00,0.0173
3358.00,0.0173
3357.00,0.0173
3356.00,0.0173
3355.00,0.0173
3354.00,0.0172
3353.00,0.0172
3352.00,0.0171
3351.00,0.0171
3350.00,0.0172
3349.00,0.0172
3348.00,0.0173
3347.00,0.0174
3346.00,0.0174
3345.00,0.0173
3344.00,0.0173
3343.00,0.0173
3342.00,0.0172
3341.00,0.0172
3340.00,0.0171
3339.00,0.0171
3338.00,0.0172
3337.00,0.0173
3336.00,0.0173
3335.00,0.0174
3334.00,0.0174
3333.00,0.0174
3332.00,0.0174
3331.00,0.0174
3330.00,0.0174
3329.00,0.0173
3328.00,0.0173
3327.00,0.0172
3326.00,0.0171
3325.00,0.0172
3324.00,0.0172
3323.00,0.0173
3322.00,0.0174
3321.00,0.0174
3320.00,0.0175
3319.00,0.0175
3318.00,0.0175
3317.00,0.0175
3316.00,0.0175
3315.00,0.0175
3314.00,0.0174
3313.00,0.0174
3312.00,0.0173
3311.00,0.0172
3310.00,0.0170
3309.00,0.0169
3308.00,0.0168
3307.00,0.0168
3306.00,0.0168
3305.00,0.0169
3304.00,0.0171
3303.00,0.0172
3302.00,0.0173
3301.00,0.0174
3300.00,0.0173
3299.00,0.0173
3298.00,0.0172
3297.00,0.0171
3296.00,0.0171
3295.00,0.0171
3294.00,0.0171
3293.00,0.0171
3292.00,0.0172
3291.00,0.0173
3290.00,0.0174
3289.00,0.0174
3288.00,0.0175
3287.00,0.0174
3286.00,0.0174
3285.00,0.0174
3284.00,0.0174
3283.00,0.0173
3282.00,0.0173
3281.00,0.0173
3280.00,0.0172
3279.00,0.0172
3278.00,0.0171
3277.00,0.0171
3276.00,0.0171
3275.00,0.0171
3274.00,0.0170
3273.00,0.0170
3272.00,0.0169
3271.00,0.0169
3270.00,0.0169
3269.00,0.0170
3268.00,0.0170
3267.00,0.0171
3266.00,0.0171
3265.00,0.0171
3264.00,0.0171
3263.00,0.0170
3262.00,0.0170
3261.00,0.0170
3260.00,0.0169
3259.00,0.0169
3258.00,0.0168
3257.00,0.0168
3256.00,0.0168
3255.00,0.0168
3254.00,0.0168
3253.00,0.0169
3252.00,0.0168
3251.00,0.0168
3250.00,0.0168
3249.00,0.0167
3248.00,0.0167
3247.00,0.0166
3246.00,0.0166
3245.00,0.0166
3244.00,0.0167
3243.00,0.0167
3242.00,0.0167
3241.00,0.0167
3240.00,0.0166
3239.00,0.0166
3238.00,0.0165
3237.00,0.0164
3236.00,0.0164
3235.00,0.0164
3234.00,0.0164
3233.00,0.0164
3232.00,0.0164
3231.00,0.0164
3230.00,0.0164
3229.00,0.0164
3228.00,0.0164
3227.00,0.0163
3226.00,0.0163
3225.00,0.0163
3224.00,0.0162
3223.00,0.0162
3222.00,0.0162
3221.00,0.0161
3220.00,0.0161
3219.00,0.0161
3218.00,0.0161
3217.00,0.0161
3216.00,0.0161
3215.00,0.0161
3214.00,0.0160
3213.00,0.0160
3212.00,0.0160
3211.00,0.0159
3210.00,0.0159
3209.00,0.0159
3208.00,0.0159
3207.00,0.0159
3206.00,0.0159
3205.00,0.0158
3204.00,0.0157
3203.00,0.0157
3202.00,0.0156
3201.00,0.0156
3200.00,0.0156
3199.00,0.0156
3198.00,0.0156
3197.00,0.0155
3196.00,0.0155
3195.00,0.0154
3194.00,0.0154
3193.00,0.0154
3192.00,0.0153
3191.00,0.0153
3190.00,0.0153
3189.00,0.0153
3188.00,0.0153
3187.00,0.0153
3186.00,0.0153
3185.00,0.0152
3184.00,0.0152
3183.00,0.0151
3182.00,0.0151
3181.00,0.0151
3180.00,0.0150
3179.00,0.0150
3178.00,0.0150
3177.00,0.0150
3176.00,0.0150
3175.00,0.0150
3174.00,0.0150
3173.00,0.0150
3172.00,0.0149
3171.00,0.0149
3170.00,0.0149
3169.00,0.0149
3168.00,0.0148
3167.00,0.0148
3166.00,0.0148
3165.00,0.0148
3164.00,0.0148
3163.00,0.0148
3162.00,0.0148
3161.00,0.0147
3160.00,0.0147
3159.00,0.0147
3158.00,0.0146
3157.00,0.0146
3156.00,0.0145
3155.00,0.0145
3154.00,0.0144
3153.00,0.0144
3152.00,0.0144
3151.00,0.0143
3150.00,0.0143
3149.00,0.0143
3148.00,0.0142
3147.00,0.0142
3146.00,0.0142
3145.00,0.0142
3144.00,0.0142
3143.00,0.0142
3142.00,0.0141
3141.00,0.0141
3140.00,0.0141
3139.00,0.0140
3138.00,0.0140
3137.00,0.0141
3136.00,0.0140
3135.00,0.0140
3134.00,0.0140
3133.00,0.0140
3132.00,0.0140
3131.00,0.0140
3130.00,0.0140
3129.00,0.0140
3128.00,0.0140
3127.00,0.0139
3126.00,0.0139
3125.00,0.0139
3124.00,0.0138
3123.00,0.0138
3122.00,0.0138
3121.00,0.0138
3120.00,0.0138
3119.00,0.0138
3118.00,0.0138
3117.00,0.0137
3116.00,0.0137
3115.00,0.0137
3114.00,0.0137
3113.00,0.0137
3112.00,0.0136
3111.00,0.0136
3110.00,0.0135
3109.00,0.0135
3108.00,0.0135
3107.00,0.0134
3106.00,0.0134
3105.00,0.0134
3104.00,0.0134
3103.00,0.0134
3102.00,0.0133
3101.00,0.0133
3100.00,0.0133
3099.00,0.0133
3098.00,0.0133
3097.00,0.0132
3096.00,0.0132
3095.00,0.0132
3094.00,0.0131
3093.00,0.0131
3092.00,0.0131
3091.00,0.0131
3090.00,0.0131
3089.00,0.0131
3088.00,0.0131
3087.00,0.0132
3086.00,0.0132
3085.00,0.0132
3084.00,0.0132
3083.00,0.0132
3082.00,0.0131
3081.00,0.0131
3080.00,0.0131
3079.00,0.0131
3078.00,0.0131
3077.00,0.0131
3076.00,0.0132
3075.00,0.0132
3074.00,0.0131
3073.00,0.0131
3072.00,0.0130
3071.00,0.0130
3070.00,0.0129
3069.00,0.0129
3068.00,0.0129
3067.00,0.0129
3066.00,0.0129
3065.00,0.0128
3064.00,0.0128
3063.00,0.0128
3062.00,0.0127
3061.00,0.0127
3060.00,0.0126
3059.00,0.0126
3058.00,0.0126
3057.00,0.0126
3056.00,0.0126
3055.00,0.0126
3054.00,0.0126
3053.00,0.0125
3052.00,0.0125
3051.00,0.0125
3050.00,0.0125
3049.00,0.0125
3048.00,0.0125
3047.00,0.0125
3046.00,0.0125
3045.00,0.0125
3044.00,0.0124
3043.00,0.0124
3042.00,0.0124
3041.00,0.0124
3040.00,0.0124
3039.00,0.0124
3038.00,0.0124
3037.00,0.0124
3036.00,0.0124
3035.00,0.0124
3034.00,0.0124
3033.00,0.0124
3032.00,0.0124
3031.00,0.0123
3030.00,0.0123
3029.00,0.0123
3028.00,0.0124
3027.00,0.0124
3026.00,0.0124
3025.00,0.0124
3024.00,0.0123
3023.00,0.0123
3022.00,0.0123
3021.00,0.0123
3020.00,0.0123
3019.00,0.0123
3018.00,0.0124
3017.00,0.0125
3016.00,0.0126
3015.00,0.0127
3014.00,0.0128
3013.00,0.0129
3012.00,0.0130
3011.00,0.0131
3010.00,0.0133
3009.00,0.0135
3008.00,0.0137
3007.00,0.0139
3006.00,0.0141
3005.00,0.0143
3004.00,0.0146
3003.00,0.0149
3002.00,0.0152
3001.00,0.0156
3000.00,0.0160
2999.00,0.0165
2998.00,0.0170
2997.00,0.0175
2996.00,0.0181
2995.00,0.0186
2994.00,0.0191
2993.00,0.0197
2992.00,0.0204
2991.00,0.0211
2990.00,0.0217
2989.00,0.0224
2988.00,0.0230
2987.00,0.0237
2986.00,0.0242
2985.00,0.0248
2984.00,0.0253
2983.00,0.0258
2982.00,0.0262
2981.00,0.0267
2980.00,0.0272
2979.00,0.0277
2978.00,0.0281
2977.00,0.0286
2976.00,0.0289
2975.00,0.0293
2974.00,0.0296
2973.00,0.0299
2972.00,0.0303
2971.00,0.0307
2970.00,0.0311
2969.00,0.0315
2968.00,0.0319
2967.00,0.0324
2966.00,0.0328
2965.00,0.0332
2964.00,0.0336
2963.00,0.0340
2962.00,0.0344
2961.00,0.0349
2960.00,0.0353
2959.00,0.0357
2958.00,0.0360
2957.00,0.0363
2956.00,0.0366
2955.00,0.0368
2954.00,0.0370
2953.00,0.0371
2952.00,0.0371
2951.00,0.0371
2950.00,0.0371
2949.00,0.0370
2948.00,0.0370
2947.00,0.0369
2946.00,0.0369
2945.00,0.0368
2944.00,0.0368
2943.00,0.0368
2942.00,0.0368
2941.00,0.0369
2940.00,0.0370
2939.00,0.0371
2938.00,0.0373
2937.00,0.0375
2936.00,0.0378
2935.00,0.0381
2934.00,0.0384
2933.00,0.0387
2932.00,0.0389
2931.00,0.0391
2930.00,0.0394
2929.00,0.0396
2928.00,0.0398
2927.00,0.0400
2926.00,0.0401
2925.00,0.0402
2924.00,0.0401
2923.00,0.0400
2922.00,0.0399
2921.00,0.0397
2920.00,0.0394
2919.00,0.0390
2918.00,0.0385
2917.00,0.0381
2916.00,0.0375
2915.00,0.0370
2914.00,0.0365
2913.00,0.0359
2912.00,0.0353
2911.00,0.0347
2910.00,0.0341
2909.00,0.0336
2908.00,0.0330
2907.00,0.0325
2906.00,0.0320
2905.00,0.0316
2904.00,0.0312
2903.00,0.0309
2902.00,0.0307
2901.00,0.0305
2900.00,0.0304
2899.00,0.0303
2898.00,0.0302
2897.00,0.0301
2896.00,0.0301
2895.00,0.0300
2894.00,0.0300
2893.00,0.0300
2892.00,0.0299
2891.00,0.0299
2890.00,0.0299
2889.00,0.0299
2888.00,0.0299
2887.00,0.0299
2886.00,0.0298
2885.00,0.0298
2884.00,0.0298
2883.00,0.0299
2882.00,0.0299
2881.00,0.0299
2880.00,0.0300
2879.00,0.0301
2878.00,0.0302
2877.00,0.0303
2876.00,0.0304
2875.00,0.0304
2874.00,0.0305
2873.00,0.0305
2872.00,0.0306
2871.00,0.0306
2870.00,0.0306
2869.00,0.0305
2868.00,0.0304
2867.00,0.0303
2866.00,0.0302
2865.00,0.0301
2864.00,0.0300
2863.00,0.0300
2862.00,0.0299
2861.00,0.0299
2860.00,0.0298
2859.00,0.0298
2858.00,0.0296
2857.00,0.0294
2856.00,0.0291
2855.00,0.0287
2854.00,0.0282
2853.00,0.0277
2852.00,0.0271
2851.00,0.0264
2850.00,0.0257
2849.00,0.0251
2848.00,0.0244
2847.00,0.0238
2846.00,0.0232
2845.00,0.0227
2844.00,0.0221
2843.00,0.0215
2842.00,0.0210
2841.00,0.0204
2840.00,0.0199
2839.00,0.0194
2838.00,0.0190
2837.00,0.0187
2836.00,0.0184
2835.00,0.0181
2834.00,0.0178
2833.00,0.0175
2832.00,0.0172
2831.00,0.0169
2830.00,0.0166
2829.00,0.0163
2828.00,0.0160
2827.00,0.0158
2826.00,0.0155
2825.00,0.0153
2824.00,0.0150
2823.00,0.0148
2822.00,0.0146
2821.00,0.0144
2820.00,0.0142
2819.00,0.0141
2818.00,0.0139
2817.00,0.0137
2816.00,0.0135
2815.00,0.0133
2814.00,0.0132
2813.00,0.0130
2812.00,0.0129
2811.00,0.0127
2810.00,0.0126
2809.00,0.0125
2808.00,0.0124
2807.00,0.0123
2806.00,0.0121
2805.00,0.0120
2804.00,0.0119
2803.00,0.0118
2802.00,0.0117
2801.00,0.0116
2800.00,0.0115
2799.00,0.0114
2798.00,0.0114
2797.00,0.0113
2796.00,0.0113
2795.00,0.0112
2794.00,0.0112
2793.00,0.0111
2792.00,0.0111
2791.00,0.0110
2790.00,0.0109
2789.00,0.0108
2788.00,0.0108
2787.00,0.0107
2786.00,0.0107
2785.00,0.0106
2784.00,0.0106
2783.00,0.0106
2782.00,0.0105
2781.00,0.0105
2780.00,0.0104
2779.00,0.0103
2778.00,0.0102
2777.00,0.0102
2776.00,0.0101
2775.00,0.0101
2774.00,0.0100
2773.00,0.0100
2772.00,0.0100
2771.00,0.0100
2770.00,0.0100
2769.00,0.0100
2768.00,0.0100
2767.00,0.0100
2766.00,0.0100
2765.00,0.0099
2764.00,0.0099
2763.00,0.0098
2762.00,0.0098
2761.00,0.0097
2760.00,0.0097
2759.00,0.0097
2758.00,0.0097
2757.00,0.0097
