Created as New Dataset,Sample 411 By YargerLab Date Thursday, December 04 2025
cm-1,A
4000.00,0.0044
3999.00,0.0044
3998.00,0.0044
3997.00,0.0044
3996.00,0.0044
3995.00,0.0044
3994.00,0.0044
3993.00,0.0044
3992.00,0.0044
3991.00,0.0044
3990.00,0.0044
3989.00,0.0044
3988.00,0.0044
3987.00,0.0044
3986.00,0.0044
3985.00,0.0044
3984.00,0.0044
3983.00,0.0044
3982.00,0.0044
3981.00,0.0044
3980.00,0.0044
3979.00,0.0044
3978.00,0.0044
3977.00,0.0044
3976.00,0.0044
3975.00,0.0044
3974.00,0.0044
3973.00,0.0044
3972.00,0.0044
3971.00,0.0044
3970.00,0.0044
3969.00,0.0043
3968.00,0.0044
3967.00,0.0044
3966.00,0.0044
3965.00,0.0044
3964.00,0.0044
3963.00,0.0044
3962.00,0.0044
3961.00,0.0044
3960.00,0.0044
3959.00,0.0044
3958.00,0.0044
3957.00,0.0044
3956.00,0.0044
3955.00,0.0044
3954.00,0.0044
3953.00,0.0044
3952.00,0.0044
3951.00,0.0044
3950.00,0.0044
3949.00,0.0044
3948.00,0.0044
3947.00,0.0044
3946.00,0.0044
3945.00,0.0044
3944.00,0.0044
3943.00,0.0044
3942.00,0.0044
3941.00,0.0044
3940.00,0.0044
3939.00,0.0044
3938.00,0.0044
3937.00,0.0044
3936.00,0.0044
3935.00,0.0044
3934.00,0.0044
3933.00,0.0044
3932.00,0.0044
3931.00,0.0044
3930.00,0.0044
3929.00,0.0044
3928.00,0.0044
3927.00,0.0044
3926.00,0.0044
3925.00,0.0044
3924.00,0.0044
3923.00,0.0044
3922.00,0.0044
3921.00,0.0044
3920.00,0.0044
3919.00,0.0044
3918.00,0.0043
3917.00,0.0044
3916.00,0.0044
3915.00,0.0044
3914.00,0.0044
3913.00,0.0044
3912.00,0.0043
3911.00,0.0043
3910.00,0.0043
3909.00,0.0043
3908.00,0.0044
3907.00,0.0044
3906.00,0.0044
3905.00,0.0044
3904.00,0.0044
3903.00,0.0043
3902.00,0.0043
3901.00,0.0043
3900.00,0.0043
3899.00,0.0043
3898.00,0.0043
3897.00,0.0043
3896.00,0.0043
3895.00,0.0043
3894.00,0.0043
3893.00,0.0042
3892.00,0.0042
3891.00,0.0043
3890.00,0.0043
3889.00,0.0043
3888.00,0.0043
3887.00,0.0043
3886.00,0.0043
3885.00,0.0043
3884.00,0.0043
3883.00,0.0043
3882.00,0.0043
3881.00,0.0043
3880.00,0.0043
3879.00,0.0043
3878.00,0.0043
3877.00,0.0043
3876.00,0.0043
3875.00,0.0043
3874.00,0.0043
3873.00,0.0043
3872.00,0.0043
3871.00,0.0042
3870.00,0.0042
3869.00,0.0042
3868.00,0.0043
3867.00,0.0043
3866.00,0.0043
3865.00,0.0043
3864.00,0.0043
3863.00,0.0043
3862.00,0.0043
3861.00,0.0042
3860.00,0.0042
3859.00,0.0042
3858.00,0.0042
3857.00,0.0042
3856.00,0.0042
3855.00,0.0042
3854.00,0.0042
3853.00,0.0042
3852.00,0.0042
3851.00,0.0042
3850.00,0.0042
3849.00,0.0042
3848.00,0.0043
3847.00,0.0043
3846.00,0.0043
3845.00,0.0043
3844.00,0.0043
3843.00,0.0042
3842.00,0.0042
3841.00,0.0042
3840.00,0.0042
3839.00,0.0042
3838.00,0.0042
3837.00,0.0042
3836.00,0.0042
3835.00,0.0042
3834.00,0.0043
3833.00,0.0043
3832.00,0.0043
3831.00,0.0043
3830.00,0.0043
3829.00,0.0043
3828.00,0.0043
3827.00,0.0043
3826.00,0.0043
3825.00,0.0043
3824.00,0.0043
3823.00,0.0042
3822.00,0.0042
3821.00,0.0042
3820.00,0.0042
3819.00,0.0042
3818.00,0.0042
3817.00,0.0042
3816.00,0.0043
3815.00,0.0043
3814.00,0.0043
3813.00,0.0043
3812.00,0.0043
3811.00,0.0043
3810.00,0.0043
3809.00,0.0043
3808.00,0.0043
3807.00,0.0043
3806.00,0.0043
3805.00,0.0043
3804.00,0.0043
3803.00,0.0043
3802.00,0.0043
3801.00,0.0043
3800.00,0.0043
3799.00,0.0043
3798.00,0.0043
3797.00,0.0043
3796.00,0.0043
3795.00,0.0044
3794.00,0.0044
3793.00,0.0044
3792.00,0.0044
3791.00,0.0044
3790.00,0.0043
3789.00,0.0043
3788.00,0.0043
3787.00,0.0043
3786.00,0.0043
3785.00,0.0043
3784.00,0.0043
3783.00,0.0043
3782.00,0.0043
3781.00,0.0043
3780.00,0.0043
3779.00,0.0044
3778.00,0.0044
3777.00,0.0044
3776.00,0.0044
3775.00,0.0043
3774.00,0.0043
3773.00,0.0043
3772.00,0.0043
3771.00,0.0043
3770.00,0.0043
3769.00,0.0043
3768.00,0.0043
3767.00,0.0043
3766.00,0.0043
3765.00,0.0044
3764.00,0.0044
3763.00,0.0044
3762.00,0.0043
3761.00,0.0043
3760.00,0.0043
3759.00,0.0042
3758.00,0.0042
3757.00,0.0042
3756.00,0.0042
3755.00,0.0042
3754.00,0.0042
3753.00,0.0042
3752.00,0.0042
3751.00,0.0042
3750.00,0.0042
3749.00,0.0041
3748.00,0.0041
3747.00,0.0041
3746.00,0.0041
3745.00,0.0042
3744.00,0.0042
3743.00,0.0043
3742.00,0.0043
3741.00,0.0042
3740.00,0.0042
3739.00,0.0042
3738.00,0.0042
3737.00,0.0042
3736.00,0.0042
3735.00,0.0042
3734.00,0.0042
3733.00,0.0042
3732.00,0.0042
3731.00,0.0042
3730.00,0.0042
3729.00,0.0043
3728.00,0.0043
3727.00,0.0043
3726.00,0.0043
3725.00,0.0043
3724.00,0.0043
3723.00,0.0042
3722.00,0.0042
3721.00,0.0042
3720.00,0.0042
3719.00,0.0042
3718.00,0.0042
3717.00,0.0042
3716.00,0.0042
3715.00,0.0041
3714.00,0.0041
3713.00,0.0041
3712.00,0.0041
3711.00,0.0041
3710.00,0.0041
3709.00,0.0041
3708.00,0.0041
3707.00,0.0041
3706.00,0.0041
3705.00,0.0041
3704.00,0.0041
3703.00,0.0041
3702.00,0.0041
3701.00,0.0042
3700.00,0.0042
3699.00,0.0042
3698.00,0.0042
3697.00,0.0042
3696.00,0.0041
3695.00,0.0041
3694.00,0.0041
3693.00,0.0041
3692.00,0.0041
3691.00,0.0042
3690.00,0.0042
3689.00,0.0043
3688.00,0.0044
3687.00,0.0044
3686.00,0.0045
3685.00,0.0044
3684.00,0.0044
3683.00,0.0044
3682.00,0.0044
3681.00,0.0044
3680.00,0.0044
3679.00,0.0044
3678.00,0.0044
3677.00,0.0044
3676.00,0.0043
3675.00,0.0044
3674.00,0.0044
3673.00,0.0045
3672.00,0.0045
3671.00,0.0045
3670.00,0.0046
3669.00,0.0046
3668.00,0.0046
3667.00,0.0046
3666.00,0.0046
3665.00,0.0046
3664.00,0.0046
3663.00,0.0046
3662.00,0.0047
3661.00,0.0047
3660.00,0.0047
3659.00,0.0047
3658.00,0.0048
3657.00,0.0048
3656.00,0.0048
3655.00,0.0048
3654.00,0.0048
3653.00,0.0048
3652.00,0.0048
3651.00,0.0049
3650.00,0.0049
3649.00,0.0050
3648.00,0.0050
3647.00,0.0050
3646.00,0.0051
3645.00,0.0051
3644.00,0.0051
3643.00,0.0052
3642.00,0.0052
3641.00,0.0052
3640.00,0.0053
3639.00,0.0053
3638.00,0.0053
3637.00,0.0053
3636.00,0.0053
3635.00,0.0053
3634.00,0.0053
3633.00,0.0054
3632.00,0.0054
3631.00,0.0055
3630.00,0.0055
3629.00,0.0056
3628.00,0.0057
3627.00,0.0057
3626.00,0.0058
3625.00,0.0058
3624.00,0.0059
3623.00,0.0059
3622.00,0.0060
3621.00,0.0060
3620.00,0.0061
3619.00,0.0062
3618.00,0.0062
3617.00,0.0063
3616.00,0.0063
3615.00,0.0063
3614.00,0.0063
3613.00,0.0064
3612.00,0.0064
3611.00,0.0065
3610.00,0.0065
3609.00,0.0065
3608.00,0.0066
3607.00,0.0067
3606.00,0.0068
3605.00,0.0068
3604.00,0.0069
3603.00,0.0069
3602.00,0.0070
3601.00,0.0071
3600.00,0.0072
3599.00,0.0073
3598.00,0.0073
3597.00,0.0074
3596.00,0.0074
3595.00,0.0074
3594.00,0.0075
3593.00,0.0076
3592.00,0.0076
3591.00,0.0077
3590.00,0.0078
3589.00,0.0079
3588.00,0.0080
3587.00,0.0081
3586.00,0.0082
3585.00,0.0083
3584.00,0.0084
3583.00,0.0084
3582.00,0.0085
3581.00,0.0085
3580.00,0.0086
3579.00,0.0086
3578.00,0.0087
3577.00,0.0088
3576.00,0.0089
3575.00,0.0090
3574.00,0.0091
3573.00,0.0092
3572.00,0.0093
3571.00,0.0094
3570.00,0.0094
3569.00,0.0095
3568.00,0.0095
3567.00,0.0096
3566.00,0.0097
3565.00,0.0098
3564.00,0.0099
3563.00,0.0099
3562.00,0.0100
3561.00,0.0101
3560.00,0.0101
3559.00,0.0102
3558.00,0.0102
3557.00,0.0103
3556.00,0.0104
3555.00,0.0104
3554.00,0.0105
3553.00,0.0106
3552.00,0.0107
3551.00,0.0108
3550.00,0.0108
3549.00,0.0109
3548.00,0.0110
3547.00,0.0110
3546.00,0.0111
3545.00,0.0111
3544.00,0.0112
3543.00,0.0112
3542.00,0.0112
3541.00,0.0113
3540.00,0.0113
3539.00,0.0114
3538.00,0.0114
3537.00,0.0115
3536.00,0.0115
3535.00,0.0116
3534.00,0.0116
3533.00,0.0117
3532.00,0.0117
3531.00,0.0117
3530.00,0.0118
3529.00,0.0119
3528.00,0.0119
3527.00,0.0120
3526.00,0.0120
3525.00,0.0120
3524.00,0.0121
3523.00,0.0121
3522.00,0.0122
3521.00,0.0122
3520.00,0.0123
3519.00,0.0123
3518.00,0.0123
3517.00,0.0123
3516.00,0.0124
3515.00,0.0124
3514.00,0.0124
3513.00,0.0125
3512.00,0.0125
3511.00,0.0126
3510.00,0.0126
3509.00,0.0127
3508.00,0.0127
3507.00,0.0127
3506.00,0.0128
3505.00,0.0128
3504.00,0.0128
3503.00,0.0129
3502.00,0.0129
3501.00,0.0130
3500.00,0.0130
3499.00,0.0131
3498.00,0.0131
3497.00,0.0132
3496.00,0.0132
3495.00,0.0132
3494.00,0.0133
3493.00,0.0133
3492.00,0.0133
3491.00,0.0134
3490.00,0.0134
3489.00,0.0134
3488.00,0.0135
3487.00,0.0135
3486.00,0.0136
3485.00,0.0136
3484.00,0.0136
3483.00,0.0137
3482.00,0.0137
3481.00,0.0137
3480.00,0.0138
3479.00,0.0138
3478.00,0.0139
3477.00,0.0139
3476.00,0.0140
3475.00,0.0140
3474.00,0.0140
3473.00,0.0141
3472.00,0.0141
3471.00,0.0142
3470.00,0.0142
3469.00,0.0142
3468.00,0.0142
3467.00,0.0142
3466.00,0.0142
3465.00,0.0143
3464.00,0.0143
3463.00,0.0144
3462.00,0.0144
3461.00,0.0145
3460.00,0.0145
3459.00,0.0145
3458.00,0.0145
3457.00,0.0145
3456.00,0.0145
3455.00,0.0145
3454.00,0.0145
3453.00,0.0145
3452.00,0.0145
3451.00,0.0145
3450.00,0.0146
3449.00,0.0146
3448.00,0.0146
3447.00,0.0146
3446.00,0.0146
3445.00,0.0147
3444.00,0.0147
3443.00,0.0147
3442.00,0.0147
3441.00,0.0147
3440.00,0.0147
3439.00,0.0147
3438.00,0.0147
3437.00,0.0147
3436.00,0.0147
3435.00,0.0147
3434.00,0.0148
3433.00,0.0148
3432.00,0.0148
3431.00,0.0148
3430.00,0.0148
3429.00,0.0148
3428.00,0.0148
3427.00,0.0148
3426.00,0.0148
3425.00,0.0148
3424.00,0.0148
3423.00,0.0148
3422.00,0.0148
3421.00,0.0148
3420.00,0.0148
3419.00,0.0148
3418.00,0.0148
3417.00,0.0148
3416.00,0.0148
3415.00,0.0147
3414.00,0.0147
3413.00,0.0148
3412.00,0.0148
3411.00,0.0148
3410.00,0.0148
3409.00,0.0148
3408.00,0.0148
3407.00,0.0148
3406.00,0.0148
3405.00,0.0148
3404.00,0.0148
3403.00,0.0148
3402.00,0.0148
3401.00,0.0148
3400.00,0.0148
3399.00,0.0148
3398.00,0.0148
3397.00,0.0148
3396.00,0.0148
3395.00,0.0148
3394.00,0.0148
3393.00,0.0148
3392.00,0.0148
3391.00,0.0149
3390.00,0.0149
3389.00,0.0150
3388.00,0.0150
3387.00,0.0150
3386.00,0.0151
3385.00,0.0150
3384.00,0.0150
3383.00,0.0150
3382.00,0.0150
3381.00,0.0151
3380.00,0.0151
3379.00,0.0151
3378.00,0.0151
3377.00,0.0151
3376.00,0.0152
3375.00,0.0152
3374.00,0.0152
3373.00,0.0151
3372.00,0.0150
3371.00,0.0149
3370.00,0.0149
3369.00,0.0149
3368.00,0.0149
3367.00,0.0150
3366.00,0.0151
3365.00,0.0152
3364.00,0.0152
3363.00,0.0153
3362.00,0.0153
3361.00,0.0153
3360.00,0.0154
3359.00,0.0154
3358.00,0.0155
3357.00,0.0155
3356.00,0.0155
3355.00,0.0155
3354.00,0.0155
3353.00,0.0154
3352.00,0.0154
3351.00,0.0154
3350.00,0.0154
3349.00,0.0155
3348.00,0.0156
3347.00,0.0157
3346.00,0.0157
3345.00,0.0156
3344.00,0.0156
3343.00,0.0155
3342.00,0.0155
3341.00,0.0155
3340.00,0.0154
3339.00,0.0154
3338.00,0.0155
3337.00,0.0155
3336.00,0.0156
3335.00,0.0157
3334.00,0.0157
3333.00,0.0157
3332.00,0.0157
3331.00,0.0157
3330.00,0.0157
3329.00,0.0156
3328.00,0.0155
3327.00,0.0155
3326.00,0.0154
3325.00,0.0154
3324.00,0.0155
3323.00,0.0155
3322.00,0.0156
3321.00,0.0157
3320.00,0.0157
3319.00,0.0157
3318.00,0.0157
3317.00,0.0157
3316.00,0.0157
3315.00,0.0157
3314.00,0.0156
3313.00,0.0156
3312.00,0.0155
3311.00,0.0154
3310.00,0.0153
3309.00,0.0151
3308.00,0.0150
3307.00,0.0150
3306.00,0.0150
3305.00,0.0151
3304.00,0.0153
3303.00,0.0155
3302.00,0.0156
3301.00,0.0156
3300.00,0.0157
3299.00,0.0156
3298.00,0.0155
3297.00,0.0155
3296.00,0.0154
3295.00,0.0154
3294.00,0.0154
3293.00,0.0154
3292.00,0.0155
3291.00,0.0156
3290.00,0.0156
3289.00,0.0157
3288.00,0.0157
3287.00,0.0157
3286.00,0.0157
3285.00,0.0157
3284.00,0.0157
3283.00,0.0156
3282.00,0.0156
3281.00,0.0156
3280.00,0.0156
3279.00,0.0156
3278.00,0.0156
3277.00,0.0155
3276.00,0.0155
3275.00,0.0155
3274.00,0.0154
3273.00,0.0153
3272.00,0.0153
3271.00,0.0153
3270.00,0.0153
3269.00,0.0154
3268.00,0.0154
3267.00,0.0155
3266.00,0.0155
3265.00,0.0155
3264.00,0.0154
3263.00,0.0154
3262.00,0.0153
3261.00,0.0153
3260.00,0.0153
3259.00,0.0152
3258.00,0.0152
3257.00,0.0152
3256.00,0.0152
3255.00,0.0152
3254.00,0.0152
3253.00,0.0152
3252.00,0.0152
3251.00,0.0152
3250.00,0.0152
3249.00,0.0151
3248.00,0.0151
3247.00,0.0151
3246.00,0.0151
3245.00,0.0151
3244.00,0.0151
3243.00,0.0151
3242.00,0.0151
3241.00,0.0151
3240.00,0.0151
3239.00,0.0150
3238.00,0.0150
3237.00,0.0149
3236.00,0.0149
3235.00,0.0148
3234.00,0.0148
3233.00,0.0149
3232.00,0.0149
3231.00,0.0149
3230.00,0.0149
3229.00,0.0149
3228.00,0.0149
3227.00,0.0148
3226.00,0.0148
3225.00,0.0148
3224.00,0.0148
3223.00,0.0147
3222.00,0.0147
3221.00,0.0147
3220.00,0.0147
3219.00,0.0147
3218.00,0.0147
3217.00,0.0147
3216.00,0.0147
3215.00,0.0146
3214.00,0.0146
3213.00,0.0146
3212.00,0.0145
3211.00,0.0145
3210.00,0.0145
3209.00,0.0145
3208.00,0.0144
3207.00,0.0144
3206.00,0.0144
3205.00,0.0143
3204.00,0.0143
3203.00,0.0143
3202.00,0.0143
3201.00,0.0142
3200.00,0.0142
3199.00,0.0142
3198.00,0.0142
3197.00,0.0142
3196.00,0.0142
3195.00,0.0142
3194.00,0.0141
3193.00,0.0141
3192.00,0.0141
3191.00,0.0140
3190.00,0.0140
3189.00,0.0140
3188.00,0.0140
3187.00,0.0140
3186.00,0.0140
3185.00,0.0140
3184.00,0.0139
3183.00,0.0139
3182.00,0.0139
3181.00,0.0138
3180.00,0.0138
3179.00,0.0138
3178.00,0.0138
3177.00,0.0138
3176.00,0.0138
3175.00,0.0138
3174.00,0.0138
3173.00,0.0138
3172.00,0.0138
3171.00,0.0138
3170.00,0.0137
3169.00,0.0137
3168.00,0.0137
3167.00,0.0136
3166.00,0.0136
3165.00,0.0136
3164.00,0.0135
3163.00,0.0135
3162.00,0.0135
3161.00,0.0135
3160.00,0.0135
3159.00,0.0135
3158.00,0.0134
3157.00,0.0134
3156.00,0.0134
3155.00,0.0133
3154.00,0.0133
3153.00,0.0132
3152.00,0.0132
3151.00,0.0132
3150.00,0.0132
3149.00,0.0132
3148.00,0.0132
3147.00,0.0132
3146.00,0.0131
3145.00,0.0131
3144.00,0.0131
3143.00,0.0130
3142.00,0.0130
3141.00,0.0130
3140.00,0.0130
3139.00,0.0129
3138.00,0.0129
3137.00,0.0129
3136.00,0.0129
3135.00,0.0129
3134.00,0.0129
3133.00,0.0129
3132.00,0.0129
3131.00,0.0129
3130.00,0.0129
3129.00,0.0129
3128.00,0.0129
3127.00,0.0128
3126.00,0.0128
3125.00,0.0128
3124.00,0.0128
3123.00,0.0128
3122.00,0.0127
3121.00,0.0127
3120.00,0.0127
3119.00,0.0127
3118.00,0.0127
3117.00,0.0127
3116.00,0.0127
3115.00,0.0126
3114.00,0.0126
3113.00,0.0126
3112.00,0.0126
3111.00,0.0125
3110.00,0.0125
3109.00,0.0124
3108.00,0.0124
3107.00,0.0124
3106.00,0.0124
3105.00,0.0124
3104.00,0.0123
3103.00,0.0123
3102.00,0.0123
3101.00,0.0123
3100.00,0.0123
3099.00,0.0123
3098.00,0.0123
3097.00,0.0123
3096.00,0.0123
3095.00,0.0122
3094.00,0.0122
3093.00,0.0122
3092.00,0.0122
3091.00,0.0122
3090.00,0.0122
3089.00,0.0122
3088.00,0.0122
3087.00,0.0122
3086.00,0.0122
3085.00,0.0122
3084.00,0.0122
3083.00,0.0122
3082.00,0.0122
3081.00,0.0122
3080.00,0.0122
3079.00,0.0122
3078.00,0.0122
3077.00,0.0122
3076.00,0.0122
3075.00,0.0121
3074.00,0.0121
3073.00,0.0121
3072.00,0.0121
3071.00,0.0120
3070.00,0.0120
3069.00,0.0120
3068.00,0.0119
3067.00,0.0119
3066.00,0.0119
3065.00,0.0119
3064.00,0.0119
3063.00,0.0118
3062.00,0.0118
3061.00,0.0118
3060.00,0.0118
3059.00,0.0118
3058.00,0.0117
3057.00,0.0117
3056.00,0.0117
3055.00,0.0117
3054.00,0.0117
3053.00,0.0117
3052.00,0.0117
3051.00,0.0117
3050.00,0.0117
3049.00,0.0116
3048.00,0.0116
3047.00,0.0115
3046.00,0.0115
3045.00,0.0115
3044.00,0.0115
3043.00,0.0115
3042.00,0.0115
3041.00,0.0115
3040.00,0.0115
3039.00,0.0115
3038.00,0.0115
3037.00,0.0115
3036.00,0.0115
3035.00,0.0115
3034.00,0.0115
3033.00,0.0115
3032.00,0.0115
3031.00,0.0115
3030.00,0.0115
3029.00,0.0115
3028.00,0.0115
3027.00,0.0115
3026.00,0.0115
3025.00,0.0115
3024.00,0.0115
3023.00,0.0115
3022.00,0.0115
3021.00,0.0115
3020.00,0.0115
3019.00,0.0115
3018.00,0.0116
3017.00,0.0116
3016.00,0.0117
3015.00,0.0117
3014.00,0.0118
3013.00,0.0119
3012.00,0.0120
3011.00,0.0122
3010.00,0.0123
3009.00,0.0124
3008.00,0.0126
3007.00,0.0128
3006.00,0.0130
3005.00,0.0132
3004.00,0.0135
3003.00,0.0137
3002.00,0.0140
3001.00,0.0143
3000.00,0.0147
2999.00,0.0151
2998.00,0.0155
2997.00,0.0160
2996.00,0.0164
2995.00,0.0169
2994.00,0.0174
2993.00,0.0179
2992.00,0.0184
2991.00,0.0190
2990.00,0.0196
2989.00,0.0202
2988.00,0.0207
2987.00,0.0213
2986.00,0.0218
2985.00,0.0222
2984.00,0.0226
2983.00,0.0230
2982.00,0.0234
2981.00,0.0238
2980.00,0.0242
2979.00,0.0247
2978.00,0.0251
2977.00,0.0254
2976.00,0.0257
2975.00,0.0260
2974.00,0.0263
2973.00,0.0265
2972.00,0.0268
2971.00,0.0271
2970.00,0.0274
2969.00,0.0278
2968.00,0.0282
2967.00,0.0285
2966.00,0.0289
2965.00,0.0293
2964.00,0.0297
2963.00,0.0300
2962.00,0.0304
2961.00,0.0308
2960.00,0.0312
2959.00,0.0316
2958.00,0.0319
2957.00,0.0323
2956.00,0.0326
2955.00,0.0328
2954.00,0.0330
2953.00,0.0332
2952.00,0.0333
2951.00,0.0333
2950.00,0.0333
2949.00,0.0333
2948.00,0.0333
2947.00,0.0332
2946.00,0.0331
2945.00,0.0331
2944.00,0.0331
2943.00,0.0330
2942.00,0.0330
2941.00,0.0331
2940.00,0.0331
2939.00,0.0332
2938.00,0.0334
2937.00,0.0336
2936.00,0.0338
2935.00,0.0340
2934.00,0.0342
2933.00,0.0344
2932.00,0.0346
2931.00,0.0348
2930.00,0.0350
2929.00,0.0352
2928.00,0.0354
2927.00,0.0356
2926.00,0.0357
2925.00,0.0357
2924.00,0.0357
2923.00,0.0356
2922.00,0.0355
2921.00,0.0354
2920.00,0.0351
2919.00,0.0349
2918.00,0.0345
2917.00,0.0341
2916.00,0.0337
2915.00,0.0332
2914.00,0.0328
2913.00,0.0323
2912.00,0.0318
2911.00,0.0313
2910.00,0.0308
2909.00,0.0303
2908.00,0.0298
2907.00,0.0293
2906.00,0.0289
2905.00,0.0285
2904.00,0.0282
2903.00,0.0279
2902.00,0.0277
2901.00,0.0275
2900.00,0.0274
2899.00,0.0273
2898.00,0.0273
2897.00,0.0273
2896.00,0.0272
2895.00,0.0272
2894.00,0.0272
2893.00,0.0272
2892.00,0.0272
2891.00,0.0271
2890.00,0.0271
2889.00,0.0271
2888.00,0.0271
2887.00,0.0271
2886.00,0.0270
2885.00,0.0270
2884.00,0.0270
2883.00,0.0271
2882.00,0.0271
2881.00,0.0272
2880.00,0.0272
2879.00,0.0273
2878.00,0.0274
2877.00,0.0274
2876.00,0.0275
2875.00,0.0275
2874.00,0.0276
2873.00,0.0277
2872.00,0.0278
2871.00,0.0278
2870.00,0.0278
2869.00,0.0277
2868.00,0.0276
2867.00,0.0275
2866.00,0.0273
2865.00,0.0273
2864.00,0.0272
2863.00,0.0271
2862.00,0.0271
2861.00,0.0270
2860.00,0.0270
2859.00,0.0269
2858.00,0.0268
2857.00,0.0266
2856.00,0.0263
2855.00,0.0260
2854.00,0.0256
2853.00,0.0251
2852.00,0.0246
2851.00,0.0240
2850.00,0.0235
2849.00,0.0229
2848.00,0.0223
2847.00,0.0218
2846.00,0.0213
2845.00,0.0208
2844.00,0.0203
2843.00,0.0197
2842.00,0.0193
2841.00,0.0188
2840.00,0.0183
2839.00,0.0179
2838.00,0.0176
2837.00,0.0173
2836.00,0.0171
2835.00,0.0168
2834.00,0.0165
2833.00,0.0163
2832.00,0.0160
2831.00,0.0157
2830.00,0.0155
2829.00,0.0152
2828.00,0.0149
2827.00,0.0147
2826.00,0.0145
2825.00,0.0142
2824.00,0.0140
2823.00,0.0138
2822.00,0.0137
2821.00,0.0135
2820.00,0.0133
2819.00,0.0131
2818.00,0.0130
2817.00,0.0128
2816.00,0.0126
2815.00,0.0125
2814.00,0.0123
2813.00,0.0122
2812.00,0.0121
2811.00,0.0120
2810.00,0.0118
2809.00,0.0117
2808.00,0.0116
2807.00,0.0115
2806.00,0.0114
2805.00,0.0113
2804.00,0.0112
2803.00,0.0111
2802.00,0.0110
2801.00,0.0110
2800.00,0.0109
2799.00,0.0108
2798.00,0.0108
2797.00,0.0107
2796.00,0.0106
2795.00,0.0106
2794.00,0.0105
2793.00,0.0105
2792.00,0.0104
2791.00,0.0103
2790.00,0.0103
2789.00,0.0102
2788.00,0.0102
2787.00,0.0101
2786.00,0.0101
2785.00,0.0101
2784.00,0.0100
2783.00,0.0100
2782.00,0.0100
2781.00,0.0099
2780.00,0.0099
2779.00,0.0098
2778.00,0.0098
2777.00,0.0097
2776.00,0.0097
2775.00,0.0096
2774.00,0.0096
2773.00,0.0096
2772.00,0.0095
2771.00,0.0095
2770.00,0.0094
2769.00,0.0094
2768.00,0.0094
2767.00,0.0094
2766.00,0.0094
2765.00,0.0094
2764.00,0.0094
2763.00,0.0093
2762.00,0.0093
2761.00,0.0093
2760.00,0.0092
2759.00,0.0092
2758.00,0.0092
2757.00,0.0092
