Created as New Dataset,Sample 272 By YargerLab Date Saturday, October 18 2025
cm-1,A
4000.00,0.0048
3999.00,0.0048
3998.00,0.0048
3997.00,0.0048
3996.00,0.0048
3995.00,0.0048
3994.00,0.0048
3993.00,0.0048
3992.00,0.0048
3991.00,0.0048
3990.00,0.0048
3989.00,0.0048
3988.00,0.0048
3987.00,0.0048
3986.00,0.0048
3985.00,0.0048
3984.00,0.0048
3983.00,0.0048
3982.00,0.0048
3981.00,0.0048
3980.00,0.0048
3979.00,0.0048
3978.00,0.0048
3977.00,0.0048
3976.00,0.0048
3975.00,0.0048
3974.00,0.0048
3973.00,0.0048
3972.00,0.0048
3971.00,0.0047
3970.00,0.0047
3969.00,0.0047
3968.00,0.0047
3967.00,0.0047
3966.00,0.0048
3965.00,0.0048
3964.00,0.0047
3963.00,0.0047
3962.00,0.0047
3961.00,0.0047
3960.00,0.0047
3959.00,0.0047
3958.00,0.0047
3957.00,0.0048
3956.00,0.0048
3955.00,0.0048
3954.00,0.0048
3953.00,0.0048
3952.00,0.0048
3951.00,0.0048
3950.00,0.0048
3949.00,0.0048
3948.00,0.0048
3947.00,0.0048
3946.00,0.0048
3945.00,0.0048
3944.00,0.0047
3943.00,0.0047
3942.00,0.0047
3941.00,0.0047
3940.00,0.0047
3939.00,0.0047
3938.00,0.0047
3937.00,0.0048
3936.00,0.0048
3935.00,0.0048
3934.00,0.0048
3933.00,0.0048
3932.00,0.0048
3931.00,0.0048
3930.00,0.0048
3929.00,0.0048
3928.00,0.0048
3927.00,0.0048
3926.00,0.0048
3925.00,0.0048
3924.00,0.0048
3923.00,0.0048
3922.00,0.0048
3921.00,0.0048
3920.00,0.0048
3919.00,0.0048
3918.00,0.0048
3917.00,0.0048
3916.00,0.0048
3915.00,0.0048
3914.00,0.0048
3913.00,0.0047
3912.00,0.0047
3911.00,0.0047
3910.00,0.0048
3909.00,0.0048
3908.00,0.0048
3907.00,0.0048
3906.00,0.0048
3905.00,0.0048
3904.00,0.0048
3903.00,0.0048
3902.00,0.0048
3901.00,0.0048
3900.00,0.0048
3899.00,0.0048
3898.00,0.0048
3897.00,0.0048
3896.00,0.0048
3895.00,0.0048
3894.00,0.0048
3893.00,0.0048
3892.00,0.0048
3891.00,0.0048
3890.00,0.0048
3889.00,0.0048
3888.00,0.0048
3887.00,0.0048
3886.00,0.0048
3885.00,0.0048
3884.00,0.0048
3883.00,0.0048
3882.00,0.0048
3881.00,0.0048
3880.00,0.0048
3879.00,0.0048
3878.00,0.0049
3877.00,0.0049
3876.00,0.0048
3875.00,0.0048
3874.00,0.0048
3873.00,0.0048
3872.00,0.0048
3871.00,0.0048
3870.00,0.0048
3869.00,0.0048
3868.00,0.0048
3867.00,0.0048
3866.00,0.0048
3865.00,0.0048
3864.00,0.0048
3863.00,0.0048
3862.00,0.0048
3861.00,0.0048
3860.00,0.0048
3859.00,0.0048
3858.00,0.0048
3857.00,0.0048
3856.00,0.0048
3855.00,0.0048
3854.00,0.0048
3853.00,0.0048
3852.00,0.0048
3851.00,0.0048
3850.00,0.0048
3849.00,0.0048
3848.00,0.0048
3847.00,0.0048
3846.00,0.0048
3845.00,0.0048
3844.00,0.0048
3843.00,0.0048
3842.00,0.0048
3841.00,0.0048
3840.00,0.0048
3839.00,0.0048
3838.00,0.0048
3837.00,0.0048
3836.00,0.0048
3835.00,0.0048
3834.00,0.0048
3833.00,0.0048
3832.00,0.0048
3831.00,0.0048
3830.00,0.0048
3829.00,0.0048
3828.00,0.0048
3827.00,0.0048
3826.00,0.0048
3825.00,0.0048
3824.00,0.0049
3823.00,0.0049
3822.00,0.0049
3821.00,0.0049
3820.00,0.0049
3819.00,0.0049
3818.00,0.0049
3817.00,0.0048
3816.00,0.0048
3815.00,0.0048
3814.00,0.0048
3813.00,0.0048
3812.00,0.0048
3811.00,0.0048
3810.00,0.0048
3809.00,0.0047
3808.00,0.0047
3807.00,0.0047
3806.00,0.0047
3805.00,0.0047
3804.00,0.0048
3803.00,0.0048
3802.00,0.0048
3801.00,0.0048
3800.00,0.0048
3799.00,0.0048
3798.00,0.0048
3797.00,0.0047
3796.00,0.0047
3795.00,0.0047
3794.00,0.0047
3793.00,0.0047
3792.00,0.0048
3791.00,0.0048
3790.00,0.0048
3789.00,0.0048
3788.00,0.0048
3787.00,0.0048
3786.00,0.0048
3785.00,0.0048
3784.00,0.0049
3783.00,0.0049
3782.00,0.0049
3781.00,0.0049
3780.00,0.0048
3779.00,0.0048
3778.00,0.0048
3777.00,0.0048
3776.00,0.0048
3775.00,0.0048
3774.00,0.0048
3773.00,0.0048
3772.00,0.0048
3771.00,0.0048
3770.00,0.0048
3769.00,0.0049
3768.00,0.0049
3767.00,0.0049
3766.00,0.0048
3765.00,0.0048
3764.00,0.0048
3763.00,0.0048
3762.00,0.0048
3761.00,0.0048
3760.00,0.0048
3759.00,0.0048
3758.00,0.0048
3757.00,0.0048
3756.00,0.0048
3755.00,0.0048
3754.00,0.0048
3753.00,0.0048
3752.00,0.0048
3751.00,0.0048
3750.00,0.0048
3749.00,0.0048
3748.00,0.0048
3747.00,0.0048
3746.00,0.0048
3745.00,0.0048
3744.00,0.0048
3743.00,0.0048
3742.00,0.0048
3741.00,0.0048
3740.00,0.0048
3739.00,0.0048
3738.00,0.0048
3737.00,0.0047
3736.00,0.0047
3735.00,0.0047
3734.00,0.0047
3733.00,0.0047
3732.00,0.0048
3731.00,0.0048
3730.00,0.0047
3729.00,0.0047
3728.00,0.0047
3727.00,0.0047
3726.00,0.0047
3725.00,0.0047
3724.00,0.0047
3723.00,0.0047
3722.00,0.0047
3721.00,0.0047
3720.00,0.0047
3719.00,0.0047
3718.00,0.0047
3717.00,0.0047
3716.00,0.0047
3715.00,0.0047
3714.00,0.0047
3713.00,0.0047
3712.00,0.0047
3711.00,0.0047
3710.00,0.0047
3709.00,0.0047
3708.00,0.0047
3707.00,0.0047
3706.00,0.0047
3705.00,0.0047
3704.00,0.0047
3703.00,0.0047
3702.00,0.0047
3701.00,0.0047
3700.00,0.0047
3699.00,0.0047
3698.00,0.0046
3697.00,0.0046
3696.00,0.0047
3695.00,0.0047
3694.00,0.0047
3693.00,0.0048
3692.00,0.0048
3691.00,0.0048
3690.00,0.0048
3689.00,0.0048
3688.00,0.0048
3687.00,0.0048
3686.00,0.0047
3685.00,0.0047
3684.00,0.0047
3683.00,0.0047
3682.00,0.0047
3681.00,0.0048
3680.00,0.0048
3679.00,0.0048
3678.00,0.0048
3677.00,0.0048
3676.00,0.0048
3675.00,0.0048
3674.00,0.0048
3673.00,0.0048
3672.00,0.0048
3671.00,0.0048
3670.00,0.0048
3669.00,0.0048
3668.00,0.0048
3667.00,0.0048
3666.00,0.0048
3665.00,0.0048
3664.00,0.0048
3663.00,0.0048
3662.00,0.0048
3661.00,0.0048
3660.00,0.0048
3659.00,0.0048
3658.00,0.0048
3657.00,0.0048
3656.00,0.0048
3655.00,0.0048
3654.00,0.0049
3653.00,0.0049
3652.00,0.0050
3651.00,0.0050
3650.00,0.0050
3649.00,0.0050
3648.00,0.0051
3647.00,0.0051
3646.00,0.0051
3645.00,0.0050
3644.00,0.0050
3643.00,0.0050
3642.00,0.0049
3641.00,0.0049
3640.00,0.0049
3639.00,0.0049
3638.00,0.0049
3637.00,0.0049
3636.00,0.0049
3635.00,0.0050
3634.00,0.0050
3633.00,0.0050
3632.00,0.0050
3631.00,0.0050
3630.00,0.0050
3629.00,0.0050
3628.00,0.0050
3627.00,0.0050
3626.00,0.0050
3625.00,0.0050
3624.00,0.0050
3623.00,0.0050
3622.00,0.0050
3621.00,0.0050
3620.00,0.0051
3619.00,0.0051
3618.00,0.0051
3617.00,0.0051
3616.00,0.0051
3615.00,0.0051
3614.00,0.0051
3613.00,0.0051
3612.00,0.0051
3611.00,0.0051
3610.00,0.0052
3609.00,0.0052
3608.00,0.0052
3607.00,0.0051
3606.00,0.0051
3605.00,0.0051
3604.00,0.0051
3603.00,0.0051
3602.00,0.0051
3601.00,0.0051
3600.00,0.0052
3599.00,0.0052
3598.00,0.0052
3597.00,0.0052
3596.00,0.0052
3595.00,0.0052
3594.00,0.0052
3593.00,0.0052
3592.00,0.0053
3591.00,0.0053
3590.00,0.0053
3589.00,0.0053
3588.00,0.0053
3587.00,0.0053
3586.00,0.0053
3585.00,0.0053
3584.00,0.0053
3583.00,0.0053
3582.00,0.0053
3581.00,0.0053
3580.00,0.0054
3579.00,0.0054
3578.00,0.0054
3577.00,0.0054
3576.00,0.0054
3575.00,0.0054
3574.00,0.0054
3573.00,0.0055
3572.00,0.0055
3571.00,0.0055
3570.00,0.0056
3569.00,0.0056
3568.00,0.0056
3567.00,0.0056
3566.00,0.0056
3565.00,0.0056
3564.00,0.0056
3563.00,0.0056
3562.00,0.0056
3561.00,0.0057
3560.00,0.0057
3559.00,0.0057
3558.00,0.0057
3557.00,0.0057
3556.00,0.0057
3555.00,0.0057
3554.00,0.0057
3553.00,0.0058
3552.00,0.0058
3551.00,0.0058
3550.00,0.0058
3549.00,0.0059
3548.00,0.0059
3547.00,0.0059
3546.00,0.0059
3545.00,0.0059
3544.00,0.0059
3543.00,0.0059
3542.00,0.0059
3541.00,0.0060
3540.00,0.0060
3539.00,0.0060
3538.00,0.0060
3537.00,0.0061
3536.00,0.0061
3535.00,0.0061
3534.00,0.0061
3533.00,0.0061
3532.00,0.0061
3531.00,0.0061
3530.00,0.0062
3529.00,0.0062
3528.00,0.0062
3527.00,0.0063
3526.00,0.0063
3525.00,0.0063
3524.00,0.0063
3523.00,0.0063
3522.00,0.0064
3521.00,0.0064
3520.00,0.0064
3519.00,0.0064
3518.00,0.0064
3517.00,0.0064
3516.00,0.0064
3515.00,0.0064
3514.00,0.0064
3513.00,0.0065
3512.00,0.0065
3511.00,0.0065
3510.00,0.0065
3509.00,0.0065
3508.00,0.0065
3507.00,0.0066
3506.00,0.0066
3505.00,0.0066
3504.00,0.0066
3503.00,0.0067
3502.00,0.0067
3501.00,0.0067
3500.00,0.0067
3499.00,0.0068
3498.00,0.0068
3497.00,0.0068
3496.00,0.0068
3495.00,0.0069
3494.00,0.0069
3493.00,0.0069
3492.00,0.0069
3491.00,0.0069
3490.00,0.0069
3489.00,0.0070
3488.00,0.0070
3487.00,0.0070
3486.00,0.0070
3485.00,0.0070
3484.00,0.0070
3483.00,0.0071
3482.00,0.0071
3481.00,0.0071
3480.00,0.0071
3479.00,0.0072
3478.00,0.0072
3477.00,0.0072
3476.00,0.0072
3475.00,0.0072
3474.00,0.0072
3473.00,0.0072
3472.00,0.0073
3471.00,0.0073
3470.00,0.0073
3469.00,0.0073
3468.00,0.0073
3467.00,0.0073
3466.00,0.0074
3465.00,0.0074
3464.00,0.0074
3463.00,0.0075
3462.00,0.0075
3461.00,0.0075
3460.00,0.0075
3459.00,0.0075
3458.00,0.0075
3457.00,0.0076
3456.00,0.0076
3455.00,0.0076
3454.00,0.0076
3453.00,0.0076
3452.00,0.0076
3451.00,0.0077
3450.00,0.0077
3449.00,0.0077
3448.00,0.0077
3447.00,0.0077
3446.00,0.0077
3445.00,0.0078
3444.00,0.0078
3443.00,0.0078
3442.00,0.0078
3441.00,0.0078
3440.00,0.0079
3439.00,0.0079
3438.00,0.0079
3437.00,0.0079
3436.00,0.0079
3435.00,0.0080
3434.00,0.0080
3433.00,0.0080
3432.00,0.0080
3431.00,0.0080
3430.00,0.0080
3429.00,0.0080
3428.00,0.0081
3427.00,0.0081
3426.00,0.0081
3425.00,0.0081
3424.00,0.0082
3423.00,0.0082
3422.00,0.0082
3421.00,0.0082
3420.00,0.0083
3419.00,0.0083
3418.00,0.0083
3417.00,0.0083
3416.00,0.0083
3415.00,0.0083
3414.00,0.0084
3413.00,0.0084
3412.00,0.0084
3411.00,0.0084
3410.00,0.0084
3409.00,0.0084
3408.00,0.0085
3407.00,0.0085
3406.00,0.0085
3405.00,0.0086
3404.00,0.0086
3403.00,0.0086
3402.00,0.0086
3401.00,0.0087
3400.00,0.0087
3399.00,0.0087
3398.00,0.0087
3397.00,0.0087
3396.00,0.0088
3395.00,0.0088
3394.00,0.0089
3393.00,0.0089
3392.00,0.0089
3391.00,0.0090
3390.00,0.0090
3389.00,0.0091
3388.00,0.0091
3387.00,0.0091
3386.00,0.0091
3385.00,0.0092
3384.00,0.0092
3383.00,0.0092
3382.00,0.0092
3381.00,0.0093
3380.00,0.0093
3379.00,0.0093
3378.00,0.0094
3377.00,0.0094
3376.00,0.0095
3375.00,0.0095
3374.00,0.0095
3373.00,0.0096
3372.00,0.0096
3371.00,0.0096
3370.00,0.0096
3369.00,0.0096
3368.00,0.0097
3367.00,0.0097
3366.00,0.0098
3365.00,0.0099
3364.00,0.0099
3363.00,0.0099
3362.00,0.0099
3361.00,0.0100
3360.00,0.0100
3359.00,0.0100
3358.00,0.0101
3357.00,0.0102
3356.00,0.0102
3355.00,0.0102
3354.00,0.0103
3353.00,0.0103
3352.00,0.0103
3351.00,0.0103
3350.00,0.0103
3349.00,0.0104
3348.00,0.0104
3347.00,0.0105
3346.00,0.0105
3345.00,0.0106
3344.00,0.0106
3343.00,0.0106
3342.00,0.0106
3341.00,0.0106
3340.00,0.0107
3339.00,0.0107
3338.00,0.0107
3337.00,0.0108
3336.00,0.0108
3335.00,0.0109
3334.00,0.0109
3333.00,0.0110
3332.00,0.0110
3331.00,0.0110
3330.00,0.0111
3329.00,0.0111
3328.00,0.0111
3327.00,0.0112
3326.00,0.0112
3325.00,0.0112
3324.00,0.0112
3323.00,0.0113
3322.00,0.0113
3321.00,0.0113
3320.00,0.0114
3319.00,0.0114
3318.00,0.0115
3317.00,0.0115
3316.00,0.0116
3315.00,0.0116
3314.00,0.0117
3313.00,0.0117
3312.00,0.0116
3311.00,0.0116
3310.00,0.0116
3309.00,0.0116
3308.00,0.0117
3307.00,0.0117
3306.00,0.0117
3305.00,0.0118
3304.00,0.0118
3303.00,0.0119
3302.00,0.0120
3301.00,0.0121
3300.00,0.0121
3299.00,0.0121
3298.00,0.0122
3297.00,0.0122
3296.00,0.0122
3295.00,0.0122
3294.00,0.0122
3293.00,0.0123
3292.00,0.0123
3291.00,0.0124
3290.00,0.0124
3289.00,0.0125
3288.00,0.0125
3287.00,0.0125
3286.00,0.0126
3285.00,0.0126
3284.00,0.0126
3283.00,0.0126
3282.00,0.0126
3281.00,0.0126
3280.00,0.0126
3279.00,0.0127
3278.00,0.0127
3277.00,0.0127
3276.00,0.0128
3275.00,0.0128
3274.00,0.0128
3273.00,0.0128
3272.00,0.0128
3271.00,0.0128
3270.00,0.0128
3269.00,0.0129
3268.00,0.0129
3267.00,0.0129
3266.00,0.0130
3265.00,0.0130
3264.00,0.0130
3263.00,0.0130
3262.00,0.0131
3261.00,0.0131
3260.00,0.0131
3259.00,0.0131
3258.00,0.0131
3257.00,0.0131
3256.00,0.0131
3255.00,0.0131
3254.00,0.0132
3253.00,0.0133
3252.00,0.0133
3251.00,0.0133
3250.00,0.0133
3249.00,0.0133
3248.00,0.0133
3247.00,0.0133
3246.00,0.0133
3245.00,0.0134
3244.00,0.0134
3243.00,0.0134
3242.00,0.0135
3241.00,0.0135
3240.00,0.0135
3239.00,0.0135
3238.00,0.0135
3237.00,0.0135
3236.00,0.0135
3235.00,0.0135
3234.00,0.0135
3233.00,0.0135
3232.00,0.0135
3231.00,0.0135
3230.00,0.0135
3229.00,0.0135
3228.00,0.0136
3227.00,0.0136
3226.00,0.0136
3225.00,0.0137
3224.00,0.0137
3223.00,0.0137
3222.00,0.0137
3221.00,0.0137
3220.00,0.0137
3219.00,0.0137
3218.00,0.0137
3217.00,0.0137
3216.00,0.0137
3215.00,0.0138
3214.00,0.0138
3213.00,0.0138
3212.00,0.0138
3211.00,0.0138
3210.00,0.0137
3209.00,0.0137
3208.00,0.0137
3207.00,0.0137
3206.00,0.0137
3205.00,0.0137
3204.00,0.0138
3203.00,0.0138
3202.00,0.0138
3201.00,0.0138
3200.00,0.0138
3199.00,0.0138
3198.00,0.0138
3197.00,0.0138
3196.00,0.0138
3195.00,0.0138
3194.00,0.0138
3193.00,0.0138
3192.00,0.0138
3191.00,0.0138
3190.00,0.0138
3189.00,0.0138
3188.00,0.0138
3187.00,0.0138
3186.00,0.0139
3185.00,0.0139
3184.00,0.0139
3183.00,0.0139
3182.00,0.0139
3181.00,0.0139
3180.00,0.0138
3179.00,0.0138
3178.00,0.0138
3177.00,0.0138
3176.00,0.0138
3175.00,0.0138
3174.00,0.0139
3173.00,0.0139
3172.00,0.0138
3171.00,0.0138
3170.00,0.0138
3169.00,0.0138
3168.00,0.0138
3167.00,0.0138
3166.00,0.0138
3165.00,0.0138
3164.00,0.0138
3163.00,0.0138
3162.00,0.0137
3161.00,0.0137
3160.00,0.0137
3159.00,0.0137
3158.00,0.0136
3157.00,0.0136
3156.00,0.0136
3155.00,0.0135
3154.00,0.0135
3153.00,0.0136
3152.00,0.0136
3151.00,0.0136
3150.00,0.0136
3149.00,0.0136
3148.00,0.0135
3147.00,0.0135
3146.00,0.0135
3145.00,0.0135
3144.00,0.0135
3143.00,0.0134
3142.00,0.0134
3141.00,0.0134
3140.00,0.0134
3139.00,0.0134
3138.00,0.0133
3137.00,0.0133
3136.00,0.0133
3135.00,0.0133
3134.00,0.0133
3133.00,0.0133
3132.00,0.0133
3131.00,0.0133
3130.00,0.0133
3129.00,0.0133
3128.00,0.0133
3127.00,0.0133
3126.00,0.0133
3125.00,0.0133
3124.00,0.0133
3123.00,0.0132
3122.00,0.0132
3121.00,0.0132
3120.00,0.0132
3119.00,0.0132
3118.00,0.0132
3117.00,0.0131
3116.00,0.0131
3115.00,0.0131
3114.00,0.0131
3113.00,0.0130
3112.00,0.0130
3111.00,0.0130
3110.00,0.0130
3109.00,0.0129
3108.00,0.0129
3107.00,0.0129
3106.00,0.0128
3105.00,0.0128
3104.00,0.0128
3103.00,0.0128
3102.00,0.0128
3101.00,0.0127
3100.00,0.0127
3099.00,0.0127
3098.00,0.0126
3097.00,0.0126
3096.00,0.0126
3095.00,0.0126
3094.00,0.0126
3093.00,0.0126
3092.00,0.0126
3091.00,0.0126
3090.00,0.0127
3089.00,0.0127
3088.00,0.0127
3087.00,0.0127
3086.00,0.0127
3085.00,0.0127
3084.00,0.0127
3083.00,0.0127
3082.00,0.0128
3081.00,0.0128
3080.00,0.0128
3079.00,0.0128
3078.00,0.0128
3077.00,0.0127
3076.00,0.0127
3075.00,0.0127
3074.00,0.0126
3073.00,0.0126
3072.00,0.0126
3071.00,0.0126
3070.00,0.0125
3069.00,0.0125
3068.00,0.0124
3067.00,0.0123
3066.00,0.0123
3065.00,0.0123
3064.00,0.0123
3063.00,0.0123
3062.00,0.0122
3061.00,0.0122
3060.00,0.0122
3059.00,0.0121
3058.00,0.0121
3057.00,0.0121
3056.00,0.0121
3055.00,0.0121
3054.00,0.0120
3053.00,0.0120
3052.00,0.0120
3051.00,0.0120
3050.00,0.0119
3049.00,0.0119
3048.00,0.0119
3047.00,0.0119
3046.00,0.0118
3045.00,0.0118
3044.00,0.0118
3043.00,0.0118
3042.00,0.0118
3041.00,0.0118
3040.00,0.0118
3039.00,0.0118
3038.00,0.0117
3037.00,0.0117
3036.00,0.0117
3035.00,0.0117
3034.00,0.0117
3033.00,0.0116
3032.00,0.0116
3031.00,0.0116
3030.00,0.0115
3029.00,0.0115
3028.00,0.0115
3027.00,0.0115
3026.00,0.0114
3025.00,0.0114
3024.00,0.0113
3023.00,0.0113
3022.00,0.0112
3021.00,0.0112
3020.00,0.0112
3019.00,0.0112
3018.00,0.0111
3017.00,0.0111
3016.00,0.0111
3015.00,0.0111
3014.00,0.0111
3013.00,0.0111
3012.00,0.0111
3011.00,0.0112
3010.00,0.0112
3009.00,0.0113
3008.00,0.0113
3007.00,0.0114
3006.00,0.0114
3005.00,0.0115
3004.00,0.0116
3003.00,0.0117
3002.00,0.0119
3001.00,0.0120
3000.00,0.0122
2999.00,0.0124
2998.00,0.0127
2997.00,0.0129
2996.00,0.0132
2995.00,0.0135
2994.00,0.0138
2993.00,0.0141
2992.00,0.0145
2991.00,0.0148
2990.00,0.0152
2989.00,0.0155
2988.00,0.0159
2987.00,0.0162
2986.00,0.0166
2985.00,0.0169
2984.00,0.0172
2983.00,0.0175
2982.00,0.0178
2981.00,0.0180
2980.00,0.0183
2979.00,0.0185
2978.00,0.0186
2977.00,0.0188
2976.00,0.0189
2975.00,0.0191
2974.00,0.0192
2973.00,0.0193
2972.00,0.0195
2971.00,0.0196
2970.00,0.0198
2969.00,0.0200
2968.00,0.0203
2967.00,0.0205
2966.00,0.0208
2965.00,0.0210
2964.00,0.0213
2963.00,0.0216
2962.00,0.0219
2961.00,0.0222
2960.00,0.0224
2959.00,0.0227
2958.00,0.0229
2957.00,0.0231
2956.00,0.0233
2955.00,0.0234
2954.00,0.0235
2953.00,0.0235
2952.00,0.0234
2951.00,0.0233
2950.00,0.0232
2949.00,0.0231
2948.00,0.0230
2947.00,0.0229
2946.00,0.0229
2945.00,0.0230
2944.00,0.0231
2943.00,0.0233
2942.00,0.0235
2941.00,0.0237
2940.00,0.0240
2939.00,0.0243
2938.00,0.0247
2937.00,0.0251
2936.00,0.0255
2935.00,0.0259
2934.00,0.0263
2933.00,0.0267
2932.00,0.0270
2931.00,0.0274
2930.00,0.0277
2929.00,0.0279
2928.00,0.0280
2927.00,0.0282
2926.00,0.0282
2925.00,0.0282
2924.00,0.0281
2923.00,0.0280
2922.00,0.0278
2921.00,0.0275
2920.00,0.0273
2919.00,0.0269
2918.00,0.0266
2917.00,0.0262
2916.00,0.0257
2915.00,0.0253
2914.00,0.0249
2913.00,0.0244
2912.00,0.0240
2911.00,0.0236
2910.00,0.0231
2909.00,0.0227
2908.00,0.0224
2907.00,0.0220
2906.00,0.0217
2905.00,0.0214
2904.00,0.0212
2903.00,0.0209
2902.00,0.0207
2901.00,0.0205
2900.00,0.0203
2899.00,0.0201
2898.00,0.0200
2897.00,0.0198
2896.00,0.0197
2895.00,0.0196
2894.00,0.0196
2893.00,0.0195
2892.00,0.0194
2891.00,0.0193
2890.00,0.0192
2889.00,0.0190
2888.00,0.0189
2887.00,0.0189
2886.00,0.0188
2885.00,0.0187
2884.00,0.0187
2883.00,0.0187
2882.00,0.0187
2881.00,0.0187
2880.00,0.0188
2879.00,0.0189
2878.00,0.0191
2877.00,0.0192
2876.00,0.0194
2875.00,0.0197
2874.00,0.0199
2873.00,0.0202
2872.00,0.0204
2871.00,0.0205
2870.00,0.0206
2869.00,0.0206
2868.00,0.0206
2867.00,0.0206
2866.00,0.0207
2865.00,0.0207
2864.00,0.0208
2863.00,0.0209
2862.00,0.0211
2861.00,0.0213
2860.00,0.0215
2859.00,0.0216
2858.00,0.0217
2857.00,0.0217
2856.00,0.0217
2855.00,0.0215
2854.00,0.0213
2853.00,0.0209
2852.00,0.0205
2851.00,0.0201
2850.00,0.0196
2849.00,0.0192
2848.00,0.0187
2847.00,0.0182
2846.00,0.0177
2845.00,0.0172
2844.00,0.0168
2843.00,0.0163
2842.00,0.0159
2841.00,0.0155
2840.00,0.0151
2839.00,0.0148
2838.00,0.0145
2837.00,0.0142
2836.00,0.0140
2835.00,0.0138
2834.00,0.0136
2833.00,0.0134
2832.00,0.0133
2831.00,0.0131
2830.00,0.0129
2829.00,0.0128
2828.00,0.0127
2827.00,0.0125
2826.00,0.0124
2825.00,0.0123
2824.00,0.0121
2823.00,0.0120
2822.00,0.0119
2821.00,0.0118
2820.00,0.0117
2819.00,0.0116
2818.00,0.0115
2817.00,0.0114
2816.00,0.0113
2815.00,0.0112
2814.00,0.0111
2813.00,0.0110
2812.00,0.0109
2811.00,0.0109
2810.00,0.0108
2809.00,0.0107
2808.00,0.0107
2807.00,0.0106
2806.00,0.0105
2805.00,0.0105
2804.00,0.0104
2803.00,0.0104
2802.00,0.0103
2801.00,0.0103
2800.00,0.0103
2799.00,0.0102
2798.00,0.0101
2797.00,0.0101
2796.00,0.0100
2795.00,0.0100
2794.00,0.0100
2793.00,0.0100
2792.00,0.0099
2791.00,0.0099
2790.00,0.0099
2789.00,0.0098
2788.00,0.0098
2787.00,0.0098
2786.00,0.0098
2785.00,0.0097
2784.00,0.0097
2783.00,0.0097
2782.00,0.0096
2781.00,0.0096
2780.00,0.0096
2779.00,0.0095
2778.00,0.0095
2777.00,0.0095
2776.00,0.0094
2775.00,0.0094
2774.00,0.0093
2773.00,0.0093
2772.00,0.0093
2771.00,0.0093
2770.00,0.0093
2769.00,0.0093
2768.00,0.0093
2767.00,0.0092
2766.00,0.0092
2765.00,0.0092
2764.00,0.0092
2763.00,0.0092
2762.00,0.0092
2761.00,0.0092
2760.00,0.0092
2759.00,0.0092
2758.00,0.0092
2757.00,0.0092
