Created as New Dataset,Sample 334 By YargerLab Date Tuesday, November 11 2025
cm-1,A
4000.00,0.0120
3999.00,0.0120
3998.00,0.0120
3997.00,0.0120
3996.00,0.0120
3995.00,0.0120
3994.00,0.0120
3993.00,0.0120
3992.00,0.0119
3991.00,0.0119
3990.00,0.0119
3989.00,0.0119
3988.00,0.0119
3987.00,0.0119
3986.00,0.0119
3985.00,0.0119
3984.00,0.0119
3983.00,0.0119
3982.00,0.0119
3981.00,0.0119
3980.00,0.0119
3979.00,0.0119
3978.00,0.0119
3977.00,0.0119
3976.00,0.0119
3975.00,0.0119
3974.00,0.0119
3973.00,0.0119
3972.00,0.0119
3971.00,0.0119
3970.00,0.0119
3969.00,0.0118
3968.00,0.0118
3967.00,0.0118
3966.00,0.0118
3965.00,0.0119
3964.00,0.0119
3963.00,0.0119
3962.00,0.0119
3961.00,0.0119
3960.00,0.0119
3959.00,0.0119
3958.00,0.0118
3957.00,0.0118
3956.00,0.0118
3955.00,0.0118
3954.00,0.0118
3953.00,0.0118
3952.00,0.0118
3951.00,0.0118
3950.00,0.0118
3949.00,0.0118
3948.00,0.0118
3947.00,0.0118
3946.00,0.0118
3945.00,0.0118
3944.00,0.0118
3943.00,0.0118
3942.00,0.0118
3941.00,0.0118
3940.00,0.0118
3939.00,0.0118
3938.00,0.0118
3937.00,0.0118
3936.00,0.0118
3935.00,0.0118
3934.00,0.0118
3933.00,0.0118
3932.00,0.0118
3931.00,0.0118
3930.00,0.0118
3929.00,0.0118
3928.00,0.0118
3927.00,0.0118
3926.00,0.0118
3925.00,0.0118
3924.00,0.0117
3923.00,0.0117
3922.00,0.0117
3921.00,0.0117
3920.00,0.0117
3919.00,0.0117
3918.00,0.0117
3917.00,0.0117
3916.00,0.0117
3915.00,0.0117
3914.00,0.0117
3913.00,0.0117
3912.00,0.0118
3911.00,0.0118
3910.00,0.0117
3909.00,0.0117
3908.00,0.0117
3907.00,0.0117
3906.00,0.0117
3905.00,0.0117
3904.00,0.0116
3903.00,0.0116
3902.00,0.0117
3901.00,0.0117
3900.00,0.0117
3899.00,0.0116
3898.00,0.0116
3897.00,0.0116
3896.00,0.0116
3895.00,0.0116
3894.00,0.0117
3893.00,0.0117
3892.00,0.0117
3891.00,0.0116
3890.00,0.0116
3889.00,0.0116
3888.00,0.0116
3887.00,0.0117
3886.00,0.0117
3885.00,0.0116
3884.00,0.0116
3883.00,0.0117
3882.00,0.0117
3881.00,0.0117
3880.00,0.0116
3879.00,0.0116
3878.00,0.0116
3877.00,0.0116
3876.00,0.0116
3875.00,0.0116
3874.00,0.0116
3873.00,0.0116
3872.00,0.0116
3871.00,0.0116
3870.00,0.0116
3869.00,0.0116
3868.00,0.0116
3867.00,0.0116
3866.00,0.0117
3865.00,0.0117
3864.00,0.0117
3863.00,0.0116
3862.00,0.0116
3861.00,0.0116
3860.00,0.0116
3859.00,0.0115
3858.00,0.0115
3857.00,0.0114
3856.00,0.0114
3855.00,0.0114
3854.00,0.0115
3853.00,0.0116
3852.00,0.0116
3851.00,0.0116
3850.00,0.0117
3849.00,0.0117
3848.00,0.0117
3847.00,0.0117
3846.00,0.0116
3845.00,0.0116
3844.00,0.0116
3843.00,0.0116
3842.00,0.0115
3841.00,0.0115
3840.00,0.0115
3839.00,0.0115
3838.00,0.0115
3837.00,0.0115
3836.00,0.0115
3835.00,0.0115
3834.00,0.0116
3833.00,0.0116
3832.00,0.0116
3831.00,0.0116
3830.00,0.0115
3829.00,0.0116
3828.00,0.0115
3827.00,0.0115
3826.00,0.0115
3825.00,0.0114
3824.00,0.0115
3823.00,0.0115
3822.00,0.0115
3821.00,0.0115
3820.00,0.0115
3819.00,0.0115
3818.00,0.0115
3817.00,0.0116
3816.00,0.0116
3815.00,0.0115
3814.00,0.0115
3813.00,0.0115
3812.00,0.0115
3811.00,0.0114
3810.00,0.0114
3809.00,0.0114
3808.00,0.0114
3807.00,0.0114
3806.00,0.0115
3805.00,0.0115
3804.00,0.0116
3803.00,0.0116
3802.00,0.0116
3801.00,0.0116
3800.00,0.0115
3799.00,0.0116
3798.00,0.0116
3797.00,0.0115
3796.00,0.0115
3795.00,0.0114
3794.00,0.0114
3793.00,0.0114
3792.00,0.0114
3791.00,0.0114
3790.00,0.0114
3789.00,0.0114
3788.00,0.0114
3787.00,0.0114
3786.00,0.0114
3785.00,0.0114
3784.00,0.0113
3783.00,0.0113
3782.00,0.0113
3781.00,0.0113
3780.00,0.0114
3779.00,0.0114
3778.00,0.0114
3777.00,0.0114
3776.00,0.0114
3775.00,0.0114
3774.00,0.0114
3773.00,0.0113
3772.00,0.0113
3771.00,0.0113
3770.00,0.0113
3769.00,0.0113
3768.00,0.0113
3767.00,0.0113
3766.00,0.0113
3765.00,0.0113
3764.00,0.0113
3763.00,0.0113
3762.00,0.0113
3761.00,0.0113
3760.00,0.0114
3759.00,0.0114
3758.00,0.0113
3757.00,0.0113
3756.00,0.0113
3755.00,0.0112
3754.00,0.0112
3753.00,0.0112
3752.00,0.0113
3751.00,0.0113
3750.00,0.0113
3749.00,0.0113
3748.00,0.0114
3747.00,0.0114
3746.00,0.0114
3745.00,0.0114
3744.00,0.0114
3743.00,0.0113
3742.00,0.0114
3741.00,0.0113
3740.00,0.0113
3739.00,0.0113
3738.00,0.0113
3737.00,0.0114
3736.00,0.0113
3735.00,0.0113
3734.00,0.0112
3733.00,0.0112
3732.00,0.0112
3731.00,0.0112
3730.00,0.0112
3729.00,0.0112
3728.00,0.0112
3727.00,0.0111
3726.00,0.0111
3725.00,0.0110
3724.00,0.0110
3723.00,0.0110
3722.00,0.0110
3721.00,0.0110
3720.00,0.0111
3719.00,0.0111
3718.00,0.0111
3717.00,0.0110
3716.00,0.0110
3715.00,0.0111
3714.00,0.0111
3713.00,0.0111
3712.00,0.0111
3711.00,0.0111
3710.00,0.0111
3709.00,0.0110
3708.00,0.0111
3707.00,0.0111
3706.00,0.0111
3705.00,0.0111
3704.00,0.0110
3703.00,0.0110
3702.00,0.0110
3701.00,0.0110
3700.00,0.0110
3699.00,0.0110
3698.00,0.0110
3697.00,0.0110
3696.00,0.0110
3695.00,0.0110
3694.00,0.0110
3693.00,0.0110
3692.00,0.0110
3691.00,0.0110
3690.00,0.0111
3689.00,0.0111
3688.00,0.0111
3687.00,0.0112
3686.00,0.0113
3685.00,0.0114
3684.00,0.0114
3683.00,0.0114
3682.00,0.0114
3681.00,0.0113
3680.00,0.0113
3679.00,0.0113
3678.00,0.0113
3677.00,0.0113
3676.00,0.0114
3675.00,0.0114
3674.00,0.0114
3673.00,0.0114
3672.00,0.0115
3671.00,0.0115
3670.00,0.0115
3669.00,0.0115
3668.00,0.0114
3667.00,0.0115
3666.00,0.0115
3665.00,0.0115
3664.00,0.0115
3663.00,0.0115
3662.00,0.0115
3661.00,0.0114
3660.00,0.0114
3659.00,0.0114
3658.00,0.0115
3657.00,0.0115
3656.00,0.0115
3655.00,0.0115
3654.00,0.0116
3653.00,0.0116
3652.00,0.0117
3651.00,0.0117
3650.00,0.0118
3649.00,0.0119
3648.00,0.0120
3647.00,0.0120
3646.00,0.0120
3645.00,0.0120
3644.00,0.0120
3643.00,0.0120
3642.00,0.0120
3641.00,0.0119
3640.00,0.0119
3639.00,0.0119
3638.00,0.0120
3637.00,0.0120
3636.00,0.0120
3635.00,0.0120
3634.00,0.0120
3633.00,0.0120
3632.00,0.0120
3631.00,0.0121
3630.00,0.0121
3629.00,0.0122
3628.00,0.0122
3627.00,0.0122
3626.00,0.0123
3625.00,0.0124
3624.00,0.0124
3623.00,0.0124
3622.00,0.0124
3621.00,0.0124
3620.00,0.0124
3619.00,0.0125
3618.00,0.0125
3617.00,0.0125
3616.00,0.0126
3615.00,0.0127
3614.00,0.0127
3613.00,0.0128
3612.00,0.0128
3611.00,0.0128
3610.00,0.0129
3609.00,0.0129
3608.00,0.0129
3607.00,0.0129
3606.00,0.0129
3605.00,0.0130
3604.00,0.0130
3603.00,0.0131
3602.00,0.0131
3601.00,0.0131
3600.00,0.0131
3599.00,0.0131
3598.00,0.0132
3597.00,0.0133
3596.00,0.0133
3595.00,0.0134
3594.00,0.0134
3593.00,0.0134
3592.00,0.0135
3591.00,0.0135
3590.00,0.0136
3589.00,0.0137
3588.00,0.0137
3587.00,0.0137
3586.00,0.0138
3585.00,0.0139
3584.00,0.0140
3583.00,0.0140
3582.00,0.0141
3581.00,0.0141
3580.00,0.0142
3579.00,0.0142
3578.00,0.0143
3577.00,0.0143
3576.00,0.0144
3575.00,0.0145
3574.00,0.0145
3573.00,0.0145
3572.00,0.0146
3571.00,0.0146
3570.00,0.0147
3569.00,0.0148
3568.00,0.0149
3567.00,0.0149
3566.00,0.0150
3565.00,0.0150
3564.00,0.0151
3563.00,0.0151
3562.00,0.0152
3561.00,0.0152
3560.00,0.0152
3559.00,0.0153
3558.00,0.0153
3557.00,0.0154
3556.00,0.0154
3555.00,0.0155
3554.00,0.0156
3553.00,0.0156
3552.00,0.0157
3551.00,0.0157
3550.00,0.0158
3549.00,0.0158
3548.00,0.0159
3547.00,0.0159
3546.00,0.0160
3545.00,0.0160
3544.00,0.0161
3543.00,0.0161
3542.00,0.0161
3541.00,0.0161
3540.00,0.0161
3539.00,0.0162
3538.00,0.0162
3537.00,0.0163
3536.00,0.0163
3535.00,0.0163
3534.00,0.0164
3533.00,0.0164
3532.00,0.0164
3531.00,0.0165
3530.00,0.0166
3529.00,0.0166
3528.00,0.0166
3527.00,0.0167
3526.00,0.0167
3525.00,0.0167
3524.00,0.0168
3523.00,0.0168
3522.00,0.0168
3521.00,0.0169
3520.00,0.0169
3519.00,0.0170
3518.00,0.0170
3517.00,0.0170
3516.00,0.0171
3515.00,0.0171
3514.00,0.0171
3513.00,0.0171
3512.00,0.0172
3511.00,0.0172
3510.00,0.0173
3509.00,0.0173
3508.00,0.0174
3507.00,0.0174
3506.00,0.0175
3505.00,0.0175
3504.00,0.0175
3503.00,0.0176
3502.00,0.0176
3501.00,0.0176
3500.00,0.0177
3499.00,0.0177
3498.00,0.0177
3497.00,0.0177
3496.00,0.0178
3495.00,0.0178
3494.00,0.0179
3493.00,0.0180
3492.00,0.0180
3491.00,0.0181
3490.00,0.0181
3489.00,0.0181
3488.00,0.0181
3487.00,0.0182
3486.00,0.0182
3485.00,0.0182
3484.00,0.0183
3483.00,0.0183
3482.00,0.0184
3481.00,0.0184
3480.00,0.0184
3479.00,0.0185
3478.00,0.0185
3477.00,0.0186
3476.00,0.0186
3475.00,0.0187
3474.00,0.0187
3473.00,0.0187
3472.00,0.0187
3471.00,0.0187
3470.00,0.0188
3469.00,0.0188
3468.00,0.0189
3467.00,0.0189
3466.00,0.0190
3465.00,0.0190
3464.00,0.0191
3463.00,0.0191
3462.00,0.0191
3461.00,0.0191
3460.00,0.0192
3459.00,0.0192
3458.00,0.0192
3457.00,0.0193
3456.00,0.0193
3455.00,0.0193
3454.00,0.0193
3453.00,0.0193
3452.00,0.0193
3451.00,0.0194
3450.00,0.0194
3449.00,0.0194
3448.00,0.0195
3447.00,0.0195
3446.00,0.0196
3445.00,0.0196
3444.00,0.0196
3443.00,0.0197
3442.00,0.0197
3441.00,0.0197
3440.00,0.0197
3439.00,0.0197
3438.00,0.0197
3437.00,0.0197
3436.00,0.0197
3435.00,0.0197
3434.00,0.0198
3433.00,0.0198
3432.00,0.0199
3431.00,0.0199
3430.00,0.0199
3429.00,0.0199
3428.00,0.0199
3427.00,0.0200
3426.00,0.0200
3425.00,0.0200
3424.00,0.0200
3423.00,0.0200
3422.00,0.0200
3421.00,0.0200
3420.00,0.0201
3419.00,0.0201
3418.00,0.0201
3417.00,0.0202
3416.00,0.0202
3415.00,0.0201
3414.00,0.0201
3413.00,0.0201
3412.00,0.0202
3411.00,0.0202
3410.00,0.0202
3409.00,0.0203
3408.00,0.0203
3407.00,0.0203
3406.00,0.0203
3405.00,0.0203
3404.00,0.0203
3403.00,0.0203
3402.00,0.0203
3401.00,0.0203
3400.00,0.0203
3399.00,0.0203
3398.00,0.0204
3397.00,0.0204
3396.00,0.0205
3395.00,0.0205
3394.00,0.0205
3393.00,0.0205
3392.00,0.0205
3391.00,0.0206
3390.00,0.0207
3389.00,0.0208
3388.00,0.0208
3387.00,0.0209
3386.00,0.0209
3385.00,0.0209
3384.00,0.0210
3383.00,0.0210
3382.00,0.0210
3381.00,0.0210
3380.00,0.0210
3379.00,0.0211
3378.00,0.0211
3377.00,0.0211
3376.00,0.0212
3375.00,0.0212
3374.00,0.0212
3373.00,0.0212
3372.00,0.0211
3371.00,0.0210
3370.00,0.0210
3369.00,0.0210
3368.00,0.0211
3367.00,0.0212
3366.00,0.0214
3365.00,0.0215
3364.00,0.0216
3363.00,0.0217
3362.00,0.0217
3361.00,0.0218
3360.00,0.0218
3359.00,0.0218
3358.00,0.0219
3357.00,0.0219
3356.00,0.0220
3355.00,0.0220
3354.00,0.0220
3353.00,0.0219
3352.00,0.0219
3351.00,0.0219
3350.00,0.0220
3349.00,0.0221
3348.00,0.0222
3347.00,0.0223
3346.00,0.0223
3345.00,0.0223
3344.00,0.0223
3343.00,0.0223
3342.00,0.0222
3341.00,0.0222
3340.00,0.0222
3339.00,0.0222
3338.00,0.0223
3337.00,0.0224
3336.00,0.0225
3335.00,0.0227
3334.00,0.0228
3333.00,0.0228
3332.00,0.0229
3331.00,0.0228
3330.00,0.0228
3329.00,0.0228
3328.00,0.0228
3327.00,0.0228
3326.00,0.0228
3325.00,0.0229
3324.00,0.0230
3323.00,0.0231
3322.00,0.0231
3321.00,0.0232
3320.00,0.0232
3319.00,0.0232
3318.00,0.0233
3317.00,0.0233
3316.00,0.0234
3315.00,0.0234
3314.00,0.0234
3313.00,0.0234
3312.00,0.0234
3311.00,0.0233
3310.00,0.0232
3309.00,0.0231
3308.00,0.0230
3307.00,0.0230
3306.00,0.0231
3305.00,0.0232
3304.00,0.0234
3303.00,0.0236
3302.00,0.0237
3301.00,0.0238
3300.00,0.0238
3299.00,0.0238
3298.00,0.0238
3297.00,0.0237
3296.00,0.0238
3295.00,0.0238
3294.00,0.0238
3293.00,0.0239
3292.00,0.0239
3291.00,0.0240
3290.00,0.0241
3289.00,0.0242
3288.00,0.0242
3287.00,0.0243
3286.00,0.0243
3285.00,0.0244
3284.00,0.0244
3283.00,0.0244
3282.00,0.0244
3281.00,0.0244
3280.00,0.0244
3279.00,0.0244
3278.00,0.0243
3277.00,0.0243
3276.00,0.0242
3275.00,0.0242
3274.00,0.0242
3273.00,0.0242
3272.00,0.0241
3271.00,0.0241
3270.00,0.0242
3269.00,0.0242
3268.00,0.0243
3267.00,0.0243
3266.00,0.0244
3265.00,0.0243
3264.00,0.0243
3263.00,0.0243
3262.00,0.0243
3261.00,0.0243
3260.00,0.0243
3259.00,0.0242
3258.00,0.0242
3257.00,0.0241
3256.00,0.0241
3255.00,0.0241
3254.00,0.0241
3253.00,0.0241
3252.00,0.0241
3251.00,0.0240
3250.00,0.0240
3249.00,0.0239
3248.00,0.0239
3247.00,0.0239
3246.00,0.0239
3245.00,0.0240
3244.00,0.0240
3243.00,0.0240
3242.00,0.0240
3241.00,0.0240
3240.00,0.0240
3239.00,0.0239
3238.00,0.0239
3237.00,0.0239
3236.00,0.0238
3235.00,0.0238
3234.00,0.0237
3233.00,0.0237
3232.00,0.0237
3231.00,0.0238
3230.00,0.0238
3229.00,0.0238
3228.00,0.0239
3227.00,0.0238
3226.00,0.0238
3225.00,0.0238
3224.00,0.0238
3223.00,0.0237
3222.00,0.0237
3221.00,0.0237
3220.00,0.0237
3219.00,0.0237
3218.00,0.0237
3217.00,0.0237
3216.00,0.0237
3215.00,0.0236
3214.00,0.0236
3213.00,0.0236
3212.00,0.0236
3211.00,0.0236
3210.00,0.0236
3209.00,0.0235
3208.00,0.0235
3207.00,0.0234
3206.00,0.0234
3205.00,0.0234
3204.00,0.0234
3203.00,0.0234
3202.00,0.0234
3201.00,0.0234
3200.00,0.0234
3199.00,0.0234
3198.00,0.0234
3197.00,0.0234
3196.00,0.0233
3195.00,0.0233
3194.00,0.0232
3193.00,0.0232
3192.00,0.0232
3191.00,0.0232
3190.00,0.0232
3189.00,0.0232
3188.00,0.0232
3187.00,0.0232
3186.00,0.0232
3185.00,0.0232
3184.00,0.0232
3183.00,0.0232
3182.00,0.0231
3181.00,0.0231
3180.00,0.0231
3179.00,0.0231
3178.00,0.0231
3177.00,0.0231
3176.00,0.0230
3175.00,0.0230
3174.00,0.0230
3173.00,0.0230
3172.00,0.0230
3171.00,0.0230
3170.00,0.0229
3169.00,0.0229
3168.00,0.0229
3167.00,0.0229
3166.00,0.0228
3165.00,0.0228
3164.00,0.0228
3163.00,0.0227
3162.00,0.0227
3161.00,0.0227
3160.00,0.0226
3159.00,0.0226
3158.00,0.0225
3157.00,0.0225
3156.00,0.0224
3155.00,0.0223
3154.00,0.0223
3153.00,0.0222
3152.00,0.0222
3151.00,0.0223
3150.00,0.0223
3149.00,0.0223
3148.00,0.0223
3147.00,0.0223
3146.00,0.0223
3145.00,0.0222
3144.00,0.0222
3143.00,0.0221
3142.00,0.0220
3141.00,0.0219
3140.00,0.0219
3139.00,0.0218
3138.00,0.0219
3137.00,0.0219
3136.00,0.0219
3135.00,0.0219
3134.00,0.0219
3133.00,0.0219
3132.00,0.0219
3131.00,0.0218
3130.00,0.0218
3129.00,0.0218
3128.00,0.0218
3127.00,0.0218
3126.00,0.0218
3125.00,0.0218
3124.00,0.0217
3123.00,0.0216
3122.00,0.0216
3121.00,0.0215
3120.00,0.0215
3119.00,0.0215
3118.00,0.0215
3117.00,0.0215
3116.00,0.0214
3115.00,0.0214
3114.00,0.0215
3113.00,0.0215
3112.00,0.0215
3111.00,0.0214
3110.00,0.0214
3109.00,0.0213
3108.00,0.0213
3107.00,0.0213
3106.00,0.0213
3105.00,0.0213
3104.00,0.0213
3103.00,0.0212
3102.00,0.0212
3101.00,0.0212
3100.00,0.0211
3099.00,0.0211
3098.00,0.0211
3097.00,0.0212
3096.00,0.0212
3095.00,0.0212
3094.00,0.0212
3093.00,0.0212
3092.00,0.0212
3091.00,0.0212
3090.00,0.0212
3089.00,0.0212
3088.00,0.0212
3087.00,0.0212
3086.00,0.0211
3085.00,0.0211
3084.00,0.0211
3083.00,0.0211
3082.00,0.0211
3081.00,0.0211
3080.00,0.0211
3079.00,0.0211
3078.00,0.0212
3077.00,0.0213
3076.00,0.0213
3075.00,0.0213
3074.00,0.0213
3073.00,0.0213
3072.00,0.0212
3071.00,0.0212
3070.00,0.0211
3069.00,0.0210
3068.00,0.0210
3067.00,0.0210
3066.00,0.0209
3065.00,0.0209
3064.00,0.0209
3063.00,0.0209
3062.00,0.0209
3061.00,0.0208
3060.00,0.0208
3059.00,0.0207
3058.00,0.0207
3057.00,0.0206
3056.00,0.0206
3055.00,0.0206
3054.00,0.0205
3053.00,0.0205
3052.00,0.0205
3051.00,0.0204
3050.00,0.0204
3049.00,0.0204
3048.00,0.0204
3047.00,0.0203
3046.00,0.0203
3045.00,0.0202
3044.00,0.0201
3043.00,0.0201
3042.00,0.0201
3041.00,0.0201
3040.00,0.0201
3039.00,0.0201
3038.00,0.0201
3037.00,0.0200
3036.00,0.0200
3035.00,0.0200
3034.00,0.0200
3033.00,0.0200
3032.00,0.0199
3031.00,0.0199
3030.00,0.0199
3029.00,0.0198
3028.00,0.0198
3027.00,0.0197
3026.00,0.0197
3025.00,0.0196
3024.00,0.0196
3023.00,0.0195
3022.00,0.0195
3021.00,0.0195
3020.00,0.0194
3019.00,0.0193
3018.00,0.0193
3017.00,0.0193
3016.00,0.0193
3015.00,0.0194
3014.00,0.0195
3013.00,0.0196
3012.00,0.0197
3011.00,0.0198
3010.00,0.0199
3009.00,0.0201
3008.00,0.0202
3007.00,0.0204
3006.00,0.0205
3005.00,0.0207
3004.00,0.0209
3003.00,0.0211
3002.00,0.0213
3001.00,0.0215
3000.00,0.0218
2999.00,0.0222
2998.00,0.0225
2997.00,0.0230
2996.00,0.0234
2995.00,0.0238
2994.00,0.0243
2993.00,0.0247
2992.00,0.0253
2991.00,0.0259
2990.00,0.0265
2989.00,0.0270
2988.00,0.0276
2987.00,0.0281
2986.00,0.0286
2985.00,0.0291
2984.00,0.0296
2983.00,0.0301
2982.00,0.0305
2981.00,0.0309
2980.00,0.0314
2979.00,0.0318
2978.00,0.0322
2977.00,0.0325
2976.00,0.0328
2975.00,0.0332
2974.00,0.0335
2973.00,0.0338
2972.00,0.0341
2971.00,0.0344
2970.00,0.0346
2969.00,0.0350
2968.00,0.0353
2967.00,0.0356
2966.00,0.0359
2965.00,0.0363
2964.00,0.0367
2963.00,0.0370
2962.00,0.0374
2961.00,0.0377
2960.00,0.0381
2959.00,0.0383
2958.00,0.0386
2957.00,0.0388
2956.00,0.0390
2955.00,0.0391
2954.00,0.0392
2953.00,0.0392
2952.00,0.0391
2951.00,0.0391
2950.00,0.0390
2949.00,0.0389
2948.00,0.0387
2947.00,0.0386
2946.00,0.0386
2945.00,0.0386
2944.00,0.0386
2943.00,0.0388
2942.00,0.0390
2941.00,0.0392
2940.00,0.0395
2939.00,0.0397
2938.00,0.0401
2937.00,0.0404
2936.00,0.0408
2935.00,0.0411
2934.00,0.0415
2933.00,0.0418
2932.00,0.0421
2931.00,0.0425
2930.00,0.0428
2929.00,0.0430
2928.00,0.0433
2927.00,0.0434
2926.00,0.0435
2925.00,0.0435
2924.00,0.0435
2923.00,0.0434
2922.00,0.0432
2921.00,0.0429
2920.00,0.0425
2919.00,0.0421
2918.00,0.0416
2917.00,0.0411
2916.00,0.0405
2915.00,0.0399
2914.00,0.0394
2913.00,0.0388
2912.00,0.0382
2911.00,0.0377
2910.00,0.0371
2909.00,0.0366
2908.00,0.0361
2907.00,0.0356
2906.00,0.0351
2905.00,0.0347
2904.00,0.0344
2903.00,0.0340
2902.00,0.0338
2901.00,0.0336
2900.00,0.0334
2899.00,0.0332
2898.00,0.0330
2897.00,0.0329
2896.00,0.0328
2895.00,0.0328
2894.00,0.0327
2893.00,0.0327
2892.00,0.0326
2891.00,0.0325
2890.00,0.0325
2889.00,0.0324
2888.00,0.0324
2887.00,0.0323
2886.00,0.0323
2885.00,0.0323
2884.00,0.0322
2883.00,0.0323
2882.00,0.0323
2881.00,0.0324
2880.00,0.0325
2879.00,0.0326
2878.00,0.0328
2877.00,0.0329
2876.00,0.0330
2875.00,0.0332
2874.00,0.0333
2873.00,0.0335
2872.00,0.0336
2871.00,0.0338
2870.00,0.0338
2869.00,0.0338
2868.00,0.0337
2867.00,0.0336
2866.00,0.0335
2865.00,0.0334
2864.00,0.0334
2863.00,0.0334
2862.00,0.0335
2861.00,0.0336
2860.00,0.0337
2859.00,0.0337
2858.00,0.0337
2857.00,0.0337
2856.00,0.0335
2855.00,0.0332
2854.00,0.0328
2853.00,0.0323
2852.00,0.0318
2851.00,0.0312
2850.00,0.0306
2849.00,0.0300
2848.00,0.0293
2847.00,0.0287
2846.00,0.0282
2845.00,0.0276
2844.00,0.0270
2843.00,0.0265
2842.00,0.0259
2841.00,0.0254
2840.00,0.0249
2839.00,0.0244
2838.00,0.0241
2837.00,0.0238
2836.00,0.0235
2835.00,0.0232
2834.00,0.0229
2833.00,0.0227
2832.00,0.0224
2831.00,0.0221
2830.00,0.0219
2829.00,0.0216
2828.00,0.0214
2827.00,0.0211
2826.00,0.0209
2825.00,0.0207
2824.00,0.0205
2823.00,0.0203
2822.00,0.0201
2821.00,0.0199
2820.00,0.0198
2819.00,0.0196
2818.00,0.0194
2817.00,0.0193
2816.00,0.0192
2815.00,0.0190
2814.00,0.0189
2813.00,0.0188
2812.00,0.0187
2811.00,0.0186
2810.00,0.0185
2809.00,0.0184
2808.00,0.0183
2807.00,0.0183
2806.00,0.0182
2805.00,0.0181
2804.00,0.0181
2803.00,0.0180
2802.00,0.0179
2801.00,0.0178
2800.00,0.0177
2799.00,0.0177
2798.00,0.0176
2797.00,0.0176
2796.00,0.0175
2795.00,0.0175
2794.00,0.0174
2793.00,0.0174
2792.00,0.0173
2791.00,0.0173
2790.00,0.0172
2789.00,0.0172
2788.00,0.0172
2787.00,0.0171
2786.00,0.0171
2785.00,0.0171
2784.00,0.0170
2783.00,0.0170
2782.00,0.0170
2781.00,0.0169
2780.00,0.0169
2779.00,0.0168
2778.00,0.0168
2777.00,0.0167
2776.00,0.0166
2775.00,0.0166
2774.00,0.0166
2773.00,0.0166
2772.00,0.0165
2771.00,0.0165
2770.00,0.0164
2769.00,0.0164
2768.00,0.0164
2767.00,0.0164
2766.00,0.0163
2765.00,0.0163
2764.00,0.0163
2763.00,0.0163
2762.00,0.0163
2761.00,0.0163
2760.00,0.0163
2759.00,0.0163
2758.00,0.0162
2757.00,0.0162
