Created as New Dataset,Sample 227 By YargerLab Date Sunday, October 05 2025
cm-1,A
4000.00,0.0082
3999.00,0.0082
3998.00,0.0082
3997.00,0.0082
3996.00,0.0082
3995.00,0.0082
3994.00,0.0082
3993.00,0.0082
3992.00,0.0082
3991.00,0.0082
3990.00,0.0082
3989.00,0.0082
3988.00,0.0082
3987.00,0.0082
3986.00,0.0082
3985.00,0.0082
3984.00,0.0082
3983.00,0.0083
3982.00,0.0083
3981.00,0.0083
3980.00,0.0083
3979.00,0.0083
3978.00,0.0083
3977.00,0.0082
3976.00,0.0082
3975.00,0.0082
3974.00,0.0082
3973.00,0.0082
3972.00,0.0082
3971.00,0.0082
3970.00,0.0082
3969.00,0.0082
3968.00,0.0082
3967.00,0.0082
3966.00,0.0082
3965.00,0.0082
3964.00,0.0082
3963.00,0.0082
3962.00,0.0082
3961.00,0.0082
3960.00,0.0082
3959.00,0.0082
3958.00,0.0082
3957.00,0.0082
3956.00,0.0082
3955.00,0.0082
3954.00,0.0082
3953.00,0.0082
3952.00,0.0082
3951.00,0.0082
3950.00,0.0082
3949.00,0.0082
3948.00,0.0082
3947.00,0.0082
3946.00,0.0082
3945.00,0.0082
3944.00,0.0082
3943.00,0.0082
3942.00,0.0082
3941.00,0.0082
3940.00,0.0082
3939.00,0.0082
3938.00,0.0082
3937.00,0.0082
3936.00,0.0082
3935.00,0.0082
3934.00,0.0082
3933.00,0.0082
3932.00,0.0082
3931.00,0.0082
3930.00,0.0082
3929.00,0.0082
3928.00,0.0082
3927.00,0.0082
3926.00,0.0082
3925.00,0.0082
3924.00,0.0082
3923.00,0.0082
3922.00,0.0082
3921.00,0.0082
3920.00,0.0082
3919.00,0.0082
3918.00,0.0082
3917.00,0.0082
3916.00,0.0082
3915.00,0.0082
3914.00,0.0082
3913.00,0.0082
3912.00,0.0082
3911.00,0.0082
3910.00,0.0082
3909.00,0.0082
3908.00,0.0082
3907.00,0.0082
3906.00,0.0082
3905.00,0.0082
3904.00,0.0082
3903.00,0.0082
3902.00,0.0082
3901.00,0.0082
3900.00,0.0082
3899.00,0.0082
3898.00,0.0082
3897.00,0.0082
3896.00,0.0082
3895.00,0.0082
3894.00,0.0082
3893.00,0.0082
3892.00,0.0082
3891.00,0.0082
3890.00,0.0082
3889.00,0.0082
3888.00,0.0082
3887.00,0.0082
3886.00,0.0082
3885.00,0.0082
3884.00,0.0082
3883.00,0.0081
3882.00,0.0081
3881.00,0.0082
3880.00,0.0082
3879.00,0.0082
3878.00,0.0082
3877.00,0.0082
3876.00,0.0081
3875.00,0.0081
3874.00,0.0081
3873.00,0.0081
3872.00,0.0081
3871.00,0.0081
3870.00,0.0081
3869.00,0.0081
3868.00,0.0081
3867.00,0.0082
3866.00,0.0082
3865.00,0.0082
3864.00,0.0082
3863.00,0.0081
3862.00,0.0081
3861.00,0.0081
3860.00,0.0081
3859.00,0.0081
3858.00,0.0082
3857.00,0.0082
3856.00,0.0082
3855.00,0.0083
3854.00,0.0083
3853.00,0.0082
3852.00,0.0082
3851.00,0.0081
3850.00,0.0081
3849.00,0.0081
3848.00,0.0081
3847.00,0.0081
3846.00,0.0081
3845.00,0.0081
3844.00,0.0081
3843.00,0.0082
3842.00,0.0082
3841.00,0.0082
3840.00,0.0082
3839.00,0.0082
3838.00,0.0082
3837.00,0.0082
3836.00,0.0082
3835.00,0.0082
3834.00,0.0082
3833.00,0.0082
3832.00,0.0082
3831.00,0.0082
3830.00,0.0082
3829.00,0.0082
3828.00,0.0082
3827.00,0.0081
3826.00,0.0082
3825.00,0.0082
3824.00,0.0082
3823.00,0.0082
3822.00,0.0082
3821.00,0.0082
3820.00,0.0082
3819.00,0.0082
3818.00,0.0082
3817.00,0.0082
3816.00,0.0082
3815.00,0.0082
3814.00,0.0082
3813.00,0.0082
3812.00,0.0082
3811.00,0.0082
3810.00,0.0082
3809.00,0.0082
3808.00,0.0082
3807.00,0.0082
3806.00,0.0081
3805.00,0.0081
3804.00,0.0081
3803.00,0.0081
3802.00,0.0081
3801.00,0.0081
3800.00,0.0081
3799.00,0.0081
3798.00,0.0081
3797.00,0.0082
3796.00,0.0082
3795.00,0.0082
3794.00,0.0082
3793.00,0.0082
3792.00,0.0081
3791.00,0.0081
3790.00,0.0081
3789.00,0.0081
3788.00,0.0081
3787.00,0.0081
3786.00,0.0082
3785.00,0.0082
3784.00,0.0082
3783.00,0.0082
3782.00,0.0082
3781.00,0.0082
3780.00,0.0082
3779.00,0.0082
3778.00,0.0082
3777.00,0.0082
3776.00,0.0082
3775.00,0.0082
3774.00,0.0082
3773.00,0.0082
3772.00,0.0082
3771.00,0.0082
3770.00,0.0082
3769.00,0.0082
3768.00,0.0082
3767.00,0.0082
3766.00,0.0082
3765.00,0.0082
3764.00,0.0082
3763.00,0.0082
3762.00,0.0082
3761.00,0.0082
3760.00,0.0082
3759.00,0.0081
3758.00,0.0081
3757.00,0.0081
3756.00,0.0081
3755.00,0.0081
3754.00,0.0081
3753.00,0.0081
3752.00,0.0081
3751.00,0.0082
3750.00,0.0082
3749.00,0.0082
3748.00,0.0082
3747.00,0.0082
3746.00,0.0082
3745.00,0.0082
3744.00,0.0081
3743.00,0.0081
3742.00,0.0081
3741.00,0.0081
3740.00,0.0080
3739.00,0.0080
3738.00,0.0080
3737.00,0.0080
3736.00,0.0080
3735.00,0.0080
3734.00,0.0080
3733.00,0.0081
3732.00,0.0081
3731.00,0.0081
3730.00,0.0080
3729.00,0.0080
3728.00,0.0080
3727.00,0.0080
3726.00,0.0080
3725.00,0.0080
3724.00,0.0080
3723.00,0.0080
3722.00,0.0080
3721.00,0.0080
3720.00,0.0080
3719.00,0.0080
3718.00,0.0080
3717.00,0.0081
3716.00,0.0081
3715.00,0.0081
3714.00,0.0081
3713.00,0.0081
3712.00,0.0080
3711.00,0.0080
3710.00,0.0080
3709.00,0.0080
3708.00,0.0080
3707.00,0.0080
3706.00,0.0080
3705.00,0.0080
3704.00,0.0080
3703.00,0.0080
3702.00,0.0080
3701.00,0.0080
3700.00,0.0079
3699.00,0.0079
3698.00,0.0079
3697.00,0.0079
3696.00,0.0079
3695.00,0.0080
3694.00,0.0080
3693.00,0.0080
3692.00,0.0080
3691.00,0.0080
3690.00,0.0080
3689.00,0.0081
3688.00,0.0081
3687.00,0.0081
3686.00,0.0081
3685.00,0.0081
3684.00,0.0081
3683.00,0.0081
3682.00,0.0081
3681.00,0.0081
3680.00,0.0081
3679.00,0.0081
3678.00,0.0082
3677.00,0.0082
3676.00,0.0081
3675.00,0.0081
3674.00,0.0081
3673.00,0.0080
3672.00,0.0080
3671.00,0.0080
3670.00,0.0080
3669.00,0.0081
3668.00,0.0081
3667.00,0.0081
3666.00,0.0081
3665.00,0.0081
3664.00,0.0081
3663.00,0.0081
3662.00,0.0081
3661.00,0.0081
3660.00,0.0082
3659.00,0.0082
3658.00,0.0082
3657.00,0.0082
3656.00,0.0083
3655.00,0.0082
3654.00,0.0082
3653.00,0.0082
3652.00,0.0082
3651.00,0.0082
3650.00,0.0083
3649.00,0.0083
3648.00,0.0083
3647.00,0.0084
3646.00,0.0084
3645.00,0.0084
3644.00,0.0084
3643.00,0.0084
3642.00,0.0084
3641.00,0.0084
3640.00,0.0084
3639.00,0.0084
3638.00,0.0084
3637.00,0.0084
3636.00,0.0084
3635.00,0.0085
3634.00,0.0085
3633.00,0.0085
3632.00,0.0085
3631.00,0.0086
3630.00,0.0086
3629.00,0.0087
3628.00,0.0087
3627.00,0.0087
3626.00,0.0087
3625.00,0.0087
3624.00,0.0087
3623.00,0.0087
3622.00,0.0087
3621.00,0.0088
3620.00,0.0088
3619.00,0.0089
3618.00,0.0089
3617.00,0.0089
3616.00,0.0089
3615.00,0.0089
3614.00,0.0089
3613.00,0.0090
3612.00,0.0090
3611.00,0.0090
3610.00,0.0090
3609.00,0.0090
3608.00,0.0090
3607.00,0.0090
3606.00,0.0091
3605.00,0.0091
3604.00,0.0091
3603.00,0.0092
3602.00,0.0092
3601.00,0.0092
3600.00,0.0092
3599.00,0.0093
3598.00,0.0093
3597.00,0.0093
3596.00,0.0093
3595.00,0.0094
3594.00,0.0094
3593.00,0.0094
3592.00,0.0094
3591.00,0.0094
3590.00,0.0094
3589.00,0.0094
3588.00,0.0094
3587.00,0.0095
3586.00,0.0095
3585.00,0.0096
3584.00,0.0096
3583.00,0.0096
3582.00,0.0096
3581.00,0.0096
3580.00,0.0097
3579.00,0.0097
3578.00,0.0097
3577.00,0.0098
3576.00,0.0098
3575.00,0.0098
3574.00,0.0099
3573.00,0.0099
3572.00,0.0099
3571.00,0.0100
3570.00,0.0100
3569.00,0.0100
3568.00,0.0100
3567.00,0.0100
3566.00,0.0100
3565.00,0.0101
3564.00,0.0101
3563.00,0.0101
3562.00,0.0102
3561.00,0.0102
3560.00,0.0103
3559.00,0.0103
3558.00,0.0103
3557.00,0.0104
3556.00,0.0104
3555.00,0.0104
3554.00,0.0105
3553.00,0.0105
3552.00,0.0105
3551.00,0.0105
3550.00,0.0106
3549.00,0.0106
3548.00,0.0106
3547.00,0.0106
3546.00,0.0107
3545.00,0.0107
3544.00,0.0108
3543.00,0.0108
3542.00,0.0108
3541.00,0.0109
3540.00,0.0109
3539.00,0.0109
3538.00,0.0109
3537.00,0.0109
3536.00,0.0110
3535.00,0.0110
3534.00,0.0110
3533.00,0.0110
3532.00,0.0111
3531.00,0.0111
3530.00,0.0111
3529.00,0.0111
3528.00,0.0112
3527.00,0.0112
3526.00,0.0112
3525.00,0.0113
3524.00,0.0113
3523.00,0.0114
3522.00,0.0114
3521.00,0.0114
3520.00,0.0114
3519.00,0.0115
3518.00,0.0115
3517.00,0.0116
3516.00,0.0116
3515.00,0.0116
3514.00,0.0116
3513.00,0.0117
3512.00,0.0117
3511.00,0.0117
3510.00,0.0117
3509.00,0.0118
3508.00,0.0118
3507.00,0.0118
3506.00,0.0118
3505.00,0.0118
3504.00,0.0119
3503.00,0.0119
3502.00,0.0120
3501.00,0.0120
3500.00,0.0120
3499.00,0.0120
3498.00,0.0120
3497.00,0.0120
3496.00,0.0120
3495.00,0.0121
3494.00,0.0121
3493.00,0.0121
3492.00,0.0121
3491.00,0.0121
3490.00,0.0121
3489.00,0.0122
3488.00,0.0122
3487.00,0.0122
3486.00,0.0123
3485.00,0.0123
3484.00,0.0123
3483.00,0.0124
3482.00,0.0124
3481.00,0.0125
3480.00,0.0125
3479.00,0.0125
3478.00,0.0125
3477.00,0.0125
3476.00,0.0125
3475.00,0.0126
3474.00,0.0126
3473.00,0.0126
3472.00,0.0126
3471.00,0.0126
3470.00,0.0127
3469.00,0.0127
3468.00,0.0127
3467.00,0.0128
3466.00,0.0128
3465.00,0.0128
3464.00,0.0128
3463.00,0.0128
3462.00,0.0128
3461.00,0.0129
3460.00,0.0129
3459.00,0.0129
3458.00,0.0129
3457.00,0.0129
3456.00,0.0129
3455.00,0.0130
3454.00,0.0130
3453.00,0.0131
3452.00,0.0131
3451.00,0.0131
3450.00,0.0131
3449.00,0.0131
3448.00,0.0132
3447.00,0.0132
3446.00,0.0132
3445.00,0.0133
3444.00,0.0133
3443.00,0.0133
3442.00,0.0133
3441.00,0.0133
3440.00,0.0133
3439.00,0.0134
3438.00,0.0134
3437.00,0.0135
3436.00,0.0135
3435.00,0.0135
3434.00,0.0135
3433.00,0.0135
3432.00,0.0136
3431.00,0.0136
3430.00,0.0136
3429.00,0.0136
3428.00,0.0136
3427.00,0.0137
3426.00,0.0137
3425.00,0.0137
3424.00,0.0138
3423.00,0.0138
3422.00,0.0138
3421.00,0.0138
3420.00,0.0139
3419.00,0.0139
3418.00,0.0139
3417.00,0.0140
3416.00,0.0140
3415.00,0.0140
3414.00,0.0141
3413.00,0.0141
3412.00,0.0142
3411.00,0.0142
3410.00,0.0143
3409.00,0.0143
3408.00,0.0143
3407.00,0.0144
3406.00,0.0144
3405.00,0.0144
3404.00,0.0144
3403.00,0.0145
3402.00,0.0145
3401.00,0.0145
3400.00,0.0146
3399.00,0.0146
3398.00,0.0147
3397.00,0.0147
3396.00,0.0147
3395.00,0.0148
3394.00,0.0148
3393.00,0.0148
3392.00,0.0149
3391.00,0.0149
3390.00,0.0150
3389.00,0.0150
3388.00,0.0151
3387.00,0.0151
3386.00,0.0152
3385.00,0.0152
3384.00,0.0153
3383.00,0.0153
3382.00,0.0154
3381.00,0.0154
3380.00,0.0154
3379.00,0.0155
3378.00,0.0155
3377.00,0.0156
3376.00,0.0157
3375.00,0.0158
3374.00,0.0158
3373.00,0.0158
3372.00,0.0158
3371.00,0.0158
3370.00,0.0157
3369.00,0.0158
3368.00,0.0159
3367.00,0.0160
3366.00,0.0161
3365.00,0.0162
3364.00,0.0162
3363.00,0.0163
3362.00,0.0163
3361.00,0.0164
3360.00,0.0164
3359.00,0.0165
3358.00,0.0166
3357.00,0.0167
3356.00,0.0167
3355.00,0.0167
3354.00,0.0168
3353.00,0.0168
3352.00,0.0168
3351.00,0.0168
3350.00,0.0169
3349.00,0.0170
3348.00,0.0171
3347.00,0.0171
3346.00,0.0172
3345.00,0.0172
3344.00,0.0172
3343.00,0.0173
3342.00,0.0173
3341.00,0.0173
3340.00,0.0173
3339.00,0.0174
3338.00,0.0175
3337.00,0.0175
3336.00,0.0176
3335.00,0.0177
3334.00,0.0178
3333.00,0.0179
3332.00,0.0179
3331.00,0.0180
3330.00,0.0180
3329.00,0.0180
3328.00,0.0180
3327.00,0.0180
3326.00,0.0180
3325.00,0.0181
3324.00,0.0182
3323.00,0.0183
3322.00,0.0184
3321.00,0.0185
3320.00,0.0185
3319.00,0.0186
3318.00,0.0186
3317.00,0.0187
3316.00,0.0187
3315.00,0.0187
3314.00,0.0188
3313.00,0.0188
3312.00,0.0188
3311.00,0.0188
3310.00,0.0187
3309.00,0.0187
3308.00,0.0187
3307.00,0.0188
3306.00,0.0189
3305.00,0.0190
3304.00,0.0191
3303.00,0.0193
3302.00,0.0194
3301.00,0.0194
3300.00,0.0195
3299.00,0.0195
3298.00,0.0194
3297.00,0.0195
3296.00,0.0195
3295.00,0.0195
3294.00,0.0196
3293.00,0.0196
3292.00,0.0197
3291.00,0.0198
3290.00,0.0199
3289.00,0.0199
3288.00,0.0200
3287.00,0.0200
3286.00,0.0201
3285.00,0.0201
3284.00,0.0201
3283.00,0.0201
3282.00,0.0201
3281.00,0.0202
3280.00,0.0202
3279.00,0.0202
3278.00,0.0202
3277.00,0.0203
3276.00,0.0203
3275.00,0.0203
3274.00,0.0203
3273.00,0.0203
3272.00,0.0203
3271.00,0.0203
3270.00,0.0204
3269.00,0.0205
3268.00,0.0206
3267.00,0.0206
3266.00,0.0207
3265.00,0.0207
3264.00,0.0207
3263.00,0.0207
3262.00,0.0207
3261.00,0.0207
3260.00,0.0208
3259.00,0.0208
3258.00,0.0208
3257.00,0.0208
3256.00,0.0209
3255.00,0.0209
3254.00,0.0210
3253.00,0.0210
3252.00,0.0211
3251.00,0.0211
3250.00,0.0211
3249.00,0.0211
3248.00,0.0212
3247.00,0.0212
3246.00,0.0212
3245.00,0.0212
3244.00,0.0213
3243.00,0.0213
3242.00,0.0213
3241.00,0.0213
3240.00,0.0214
3239.00,0.0214
3238.00,0.0214
3237.00,0.0214
3236.00,0.0214
3235.00,0.0214
3234.00,0.0214
3233.00,0.0214
3232.00,0.0215
3231.00,0.0216
3230.00,0.0216
3229.00,0.0216
3228.00,0.0216
3227.00,0.0216
3226.00,0.0216
3225.00,0.0216
3224.00,0.0217
3223.00,0.0217
3222.00,0.0217
3221.00,0.0217
3220.00,0.0217
3219.00,0.0217
3218.00,0.0217
3217.00,0.0218
3216.00,0.0218
3215.00,0.0217
3214.00,0.0217
3213.00,0.0217
3212.00,0.0216
3211.00,0.0216
3210.00,0.0217
3209.00,0.0217
3208.00,0.0217
3207.00,0.0217
3206.00,0.0218
3205.00,0.0218
3204.00,0.0218
3203.00,0.0218
3202.00,0.0218
3201.00,0.0218
3200.00,0.0218
3199.00,0.0218
3198.00,0.0218
3197.00,0.0218
3196.00,0.0218
3195.00,0.0218
3194.00,0.0218
3193.00,0.0218
3192.00,0.0218
3191.00,0.0217
3190.00,0.0218
3189.00,0.0218
3188.00,0.0218
3187.00,0.0218
3186.00,0.0218
3185.00,0.0218
3184.00,0.0218
3183.00,0.0218
3182.00,0.0218
3181.00,0.0219
3180.00,0.0219
3179.00,0.0219
3178.00,0.0219
3177.00,0.0219
3176.00,0.0219
3175.00,0.0219
3174.00,0.0219
3173.00,0.0219
3172.00,0.0219
3171.00,0.0218
3170.00,0.0218
3169.00,0.0218
3168.00,0.0218
3167.00,0.0218
3166.00,0.0218
3165.00,0.0218
3164.00,0.0217
3163.00,0.0217
3162.00,0.0217
3161.00,0.0216
3160.00,0.0216
3159.00,0.0216
3158.00,0.0216
3157.00,0.0216
3156.00,0.0215
3155.00,0.0215
3154.00,0.0214
3153.00,0.0214
3152.00,0.0214
3151.00,0.0214
3150.00,0.0214
3149.00,0.0214
3148.00,0.0214
3147.00,0.0214
3146.00,0.0213
3145.00,0.0213
3144.00,0.0213
3143.00,0.0213
3142.00,0.0212
3141.00,0.0212
3140.00,0.0211
3139.00,0.0211
3138.00,0.0211
3137.00,0.0210
3136.00,0.0210
3135.00,0.0210
3134.00,0.0210
3133.00,0.0210
3132.00,0.0210
3131.00,0.0210
3130.00,0.0210
3129.00,0.0210
3128.00,0.0210
3127.00,0.0210
3126.00,0.0210
3125.00,0.0209
3124.00,0.0209
3123.00,0.0209
3122.00,0.0209
3121.00,0.0208
3120.00,0.0208
3119.00,0.0208
3118.00,0.0208
3117.00,0.0207
3116.00,0.0207
3115.00,0.0207
3114.00,0.0207
3113.00,0.0206
3112.00,0.0206
3111.00,0.0205
3110.00,0.0205
3109.00,0.0204
3108.00,0.0204
3107.00,0.0203
3106.00,0.0203
3105.00,0.0202
3104.00,0.0202
3103.00,0.0202
3102.00,0.0201
3101.00,0.0201
3100.00,0.0201
3099.00,0.0201
3098.00,0.0201
3097.00,0.0201
3096.00,0.0201
3095.00,0.0200
3094.00,0.0200
3093.00,0.0200
3092.00,0.0200
3091.00,0.0200
3090.00,0.0201
3089.00,0.0201
3088.00,0.0201
3087.00,0.0201
3086.00,0.0202
3085.00,0.0202
3084.00,0.0202
3083.00,0.0202
3082.00,0.0202
3081.00,0.0202
3080.00,0.0202
3079.00,0.0202
3078.00,0.0201
3077.00,0.0201
3076.00,0.0201
3075.00,0.0201
3074.00,0.0200
3073.00,0.0200
3072.00,0.0200
3071.00,0.0199
3070.00,0.0198
3069.00,0.0198
3068.00,0.0197
3067.00,0.0196
3066.00,0.0196
3065.00,0.0196
3064.00,0.0195
3063.00,0.0195
3062.00,0.0194
3061.00,0.0194
3060.00,0.0194
3059.00,0.0193
3058.00,0.0193
3057.00,0.0192
3056.00,0.0192
3055.00,0.0191
3054.00,0.0191
3053.00,0.0191
3052.00,0.0191
3051.00,0.0191
3050.00,0.0190
3049.00,0.0190
3048.00,0.0190
3047.00,0.0189
3046.00,0.0189
3045.00,0.0189
3044.00,0.0188
3043.00,0.0188
3042.00,0.0188
3041.00,0.0187
3040.00,0.0187
3039.00,0.0187
3038.00,0.0187
3037.00,0.0186
3036.00,0.0186
3035.00,0.0186
3034.00,0.0185
3033.00,0.0185
3032.00,0.0184
3031.00,0.0184
3030.00,0.0184
3029.00,0.0183
3028.00,0.0183
3027.00,0.0182
3026.00,0.0181
3025.00,0.0180
3024.00,0.0180
3023.00,0.0179
3022.00,0.0178
3021.00,0.0178
3020.00,0.0177
3019.00,0.0177
3018.00,0.0177
3017.00,0.0176
3016.00,0.0176
3015.00,0.0176
3014.00,0.0176
3013.00,0.0176
3012.00,0.0176
3011.00,0.0176
3010.00,0.0176
3009.00,0.0176
3008.00,0.0177
3007.00,0.0177
3006.00,0.0179
3005.00,0.0180
3004.00,0.0181
3003.00,0.0182
3002.00,0.0184
3001.00,0.0186
3000.00,0.0188
2999.00,0.0191
2998.00,0.0194
2997.00,0.0198
2996.00,0.0202
2995.00,0.0206
2994.00,0.0211
2993.00,0.0215
2992.00,0.0221
2991.00,0.0226
2990.00,0.0232
2989.00,0.0237
2988.00,0.0243
2987.00,0.0248
2986.00,0.0252
2985.00,0.0256
2984.00,0.0259
2983.00,0.0262
2982.00,0.0265
2981.00,0.0268
2980.00,0.0272
2979.00,0.0276
2978.00,0.0280
2977.00,0.0283
2976.00,0.0286
2975.00,0.0289
2974.00,0.0291
2973.00,0.0292
2972.00,0.0294
2971.00,0.0297
2970.00,0.0300
2969.00,0.0305
2968.00,0.0309
2967.00,0.0314
2966.00,0.0318
2965.00,0.0323
2964.00,0.0328
2963.00,0.0333
2962.00,0.0337
2961.00,0.0342
2960.00,0.0346
2959.00,0.0350
2958.00,0.0354
2957.00,0.0357
2956.00,0.0360
2955.00,0.0362
2954.00,0.0363
2953.00,0.0364
2952.00,0.0364
2951.00,0.0363
2950.00,0.0362
2949.00,0.0360
2948.00,0.0359
2947.00,0.0359
2946.00,0.0359
2945.00,0.0359
2944.00,0.0361
2943.00,0.0363
2942.00,0.0367
2941.00,0.0370
2940.00,0.0375
2939.00,0.0380
2938.00,0.0385
2937.00,0.0391
2936.00,0.0396
2935.00,0.0402
2934.00,0.0408
2933.00,0.0413
2932.00,0.0418
2931.00,0.0423
2930.00,0.0427
2929.00,0.0431
2928.00,0.0434
2927.00,0.0435
2926.00,0.0436
2925.00,0.0436
2924.00,0.0434
2923.00,0.0432
2922.00,0.0429
2921.00,0.0426
2920.00,0.0421
2919.00,0.0416
2918.00,0.0411
2917.00,0.0405
2916.00,0.0398
2915.00,0.0392
2914.00,0.0385
2913.00,0.0378
2912.00,0.0371
2911.00,0.0364
2910.00,0.0358
2909.00,0.0352
2908.00,0.0346
2907.00,0.0340
2906.00,0.0335
2905.00,0.0330
2904.00,0.0326
2903.00,0.0322
2902.00,0.0319
2901.00,0.0316
2900.00,0.0314
2899.00,0.0311
2898.00,0.0309
2897.00,0.0308
2896.00,0.0306
2895.00,0.0304
2894.00,0.0303
2893.00,0.0301
2892.00,0.0300
2891.00,0.0298
2890.00,0.0297
2889.00,0.0296
2888.00,0.0295
2887.00,0.0293
2886.00,0.0293
2885.00,0.0292
2884.00,0.0292
2883.00,0.0292
2882.00,0.0292
2881.00,0.0294
2880.00,0.0295
2879.00,0.0297
2878.00,0.0300
2877.00,0.0302
2876.00,0.0306
2875.00,0.0309
2874.00,0.0313
2873.00,0.0316
2872.00,0.0319
2871.00,0.0321
2870.00,0.0323
2869.00,0.0324
2868.00,0.0324
2867.00,0.0324
2866.00,0.0324
2865.00,0.0325
2864.00,0.0327
2863.00,0.0329
2862.00,0.0331
2861.00,0.0334
2860.00,0.0336
2859.00,0.0338
2858.00,0.0340
2857.00,0.0339
2856.00,0.0338
2855.00,0.0335
2854.00,0.0331
2853.00,0.0326
2852.00,0.0320
2851.00,0.0313
2850.00,0.0306
2849.00,0.0299
2848.00,0.0291
2847.00,0.0284
2846.00,0.0276
2845.00,0.0269
2844.00,0.0262
2843.00,0.0255
2842.00,0.0249
2841.00,0.0243
2840.00,0.0237
2839.00,0.0232
2838.00,0.0227
2837.00,0.0223
2836.00,0.0220
2835.00,0.0217
2834.00,0.0214
2833.00,0.0211
2832.00,0.0208
2831.00,0.0205
2830.00,0.0202
2829.00,0.0200
2828.00,0.0197
2827.00,0.0195
2826.00,0.0193
2825.00,0.0191
2824.00,0.0188
2823.00,0.0186
2822.00,0.0184
2821.00,0.0183
2820.00,0.0181
2819.00,0.0179
2818.00,0.0178
2817.00,0.0176
2816.00,0.0175
2815.00,0.0174
2814.00,0.0172
2813.00,0.0171
2812.00,0.0170
2811.00,0.0169
2810.00,0.0168
2809.00,0.0167
2808.00,0.0167
2807.00,0.0166
2806.00,0.0165
2805.00,0.0165
2804.00,0.0164
2803.00,0.0163
2802.00,0.0163
2801.00,0.0162
2800.00,0.0161
2799.00,0.0161
2798.00,0.0160
2797.00,0.0160
2796.00,0.0159
2795.00,0.0158
2794.00,0.0158
2793.00,0.0158
2792.00,0.0157
2791.00,0.0156
2790.00,0.0156
2789.00,0.0155
2788.00,0.0155
2787.00,0.0155
2786.00,0.0154
2785.00,0.0154
2784.00,0.0153
2783.00,0.0153
2782.00,0.0152
2781.00,0.0152
2780.00,0.0151
2779.00,0.0151
2778.00,0.0151
2777.00,0.0150
2776.00,0.0150
2775.00,0.0150
2774.00,0.0149
2773.00,0.0149
2772.00,0.0149
2771.00,0.0148
2770.00,0.0148
2769.00,0.0148
2768.00,0.0148
2767.00,0.0148
2766.00,0.0148
2765.00,0.0148
2764.00,0.0147
2763.00,0.0147
2762.00,0.0147
2761.00,0.0147
2760.00,0.0147
2759.00,0.0147
2758.00,0.0147
2757.00,0.0147
