Created as New Dataset,Sample 333 By YargerLab Date Tuesday, November 11 2025
cm-1,A
4000.00,0.0289
3999.00,0.0289
3998.00,0.0289
3997.00,0.0289
3996.00,0.0289
3995.00,0.0289
3994.00,0.0289
3993.00,0.0289
3992.00,0.0289
3991.00,0.0289
3990.00,0.0289
3989.00,0.0288
3988.00,0.0288
3987.00,0.0288
3986.00,0.0288
3985.00,0.0288
3984.00,0.0288
3983.00,0.0287
3982.00,0.0287
3981.00,0.0287
3980.00,0.0288
3979.00,0.0288
3978.00,0.0288
3977.00,0.0288
3976.00,0.0287
3975.00,0.0287
3974.00,0.0287
3973.00,0.0287
3972.00,0.0287
3971.00,0.0287
3970.00,0.0286
3969.00,0.0286
3968.00,0.0286
3967.00,0.0286
3966.00,0.0286
3965.00,0.0286
3964.00,0.0286
3963.00,0.0286
3962.00,0.0286
3961.00,0.0286
3960.00,0.0286
3959.00,0.0286
3958.00,0.0285
3957.00,0.0285
3956.00,0.0285
3955.00,0.0285
3954.00,0.0285
3953.00,0.0284
3952.00,0.0284
3951.00,0.0284
3950.00,0.0284
3949.00,0.0284
3948.00,0.0284
3947.00,0.0284
3946.00,0.0283
3945.00,0.0283
3944.00,0.0284
3943.00,0.0284
3942.00,0.0284
3941.00,0.0284
3940.00,0.0283
3939.00,0.0283
3938.00,0.0283
3937.00,0.0283
3936.00,0.0283
3935.00,0.0282
3934.00,0.0282
3933.00,0.0283
3932.00,0.0283
3931.00,0.0283
3930.00,0.0283
3929.00,0.0283
3928.00,0.0282
3927.00,0.0282
3926.00,0.0282
3925.00,0.0282
3924.00,0.0281
3923.00,0.0281
3922.00,0.0281
3921.00,0.0280
3920.00,0.0280
3919.00,0.0280
3918.00,0.0281
3917.00,0.0281
3916.00,0.0281
3915.00,0.0281
3914.00,0.0281
3913.00,0.0281
3912.00,0.0281
3911.00,0.0281
3910.00,0.0280
3909.00,0.0279
3908.00,0.0279
3907.00,0.0278
3906.00,0.0277
3905.00,0.0277
3904.00,0.0277
3903.00,0.0277
3902.00,0.0278
3901.00,0.0278
3900.00,0.0279
3899.00,0.0279
3898.00,0.0279
3897.00,0.0278
3896.00,0.0278
3895.00,0.0277
3894.00,0.0277
3893.00,0.0277
3892.00,0.0277
3891.00,0.0277
3890.00,0.0276
3889.00,0.0275
3888.00,0.0275
3887.00,0.0275
3886.00,0.0276
3885.00,0.0276
3884.00,0.0276
3883.00,0.0275
3882.00,0.0276
3881.00,0.0276
3880.00,0.0277
3879.00,0.0276
3878.00,0.0276
3877.00,0.0275
3876.00,0.0275
3875.00,0.0275
3874.00,0.0275
3873.00,0.0274
3872.00,0.0273
3871.00,0.0273
3870.00,0.0274
3869.00,0.0274
3868.00,0.0273
3867.00,0.0273
3866.00,0.0273
3865.00,0.0274
3864.00,0.0274
3863.00,0.0274
3862.00,0.0274
3861.00,0.0274
3860.00,0.0274
3859.00,0.0273
3858.00,0.0271
3857.00,0.0268
3856.00,0.0266
3855.00,0.0265
3854.00,0.0266
3853.00,0.0267
3852.00,0.0267
3851.00,0.0268
3850.00,0.0270
3849.00,0.0272
3848.00,0.0273
3847.00,0.0273
3846.00,0.0273
3845.00,0.0272
3844.00,0.0272
3843.00,0.0271
3842.00,0.0270
3841.00,0.0269
3840.00,0.0268
3839.00,0.0268
3838.00,0.0267
3837.00,0.0267
3836.00,0.0267
3835.00,0.0268
3834.00,0.0269
3833.00,0.0270
3832.00,0.0270
3831.00,0.0270
3830.00,0.0270
3829.00,0.0270
3828.00,0.0270
3827.00,0.0271
3826.00,0.0270
3825.00,0.0269
3824.00,0.0268
3823.00,0.0267
3822.00,0.0268
3821.00,0.0268
3820.00,0.0267
3819.00,0.0266
3818.00,0.0266
3817.00,0.0267
3816.00,0.0268
3815.00,0.0268
3814.00,0.0268
3813.00,0.0268
3812.00,0.0269
3811.00,0.0268
3810.00,0.0268
3809.00,0.0267
3808.00,0.0267
3807.00,0.0267
3806.00,0.0266
3805.00,0.0265
3804.00,0.0265
3803.00,0.0265
3802.00,0.0265
3801.00,0.0265
3800.00,0.0265
3799.00,0.0265
3798.00,0.0266
3797.00,0.0267
3796.00,0.0268
3795.00,0.0268
3794.00,0.0268
3793.00,0.0268
3792.00,0.0268
3791.00,0.0268
3790.00,0.0268
3789.00,0.0268
3788.00,0.0268
3787.00,0.0268
3786.00,0.0267
3785.00,0.0267
3784.00,0.0267
3783.00,0.0266
3782.00,0.0266
3781.00,0.0266
3780.00,0.0266
3779.00,0.0266
3778.00,0.0266
3777.00,0.0266
3776.00,0.0266
3775.00,0.0266
3774.00,0.0265
3773.00,0.0265
3772.00,0.0264
3771.00,0.0264
3770.00,0.0264
3769.00,0.0264
3768.00,0.0263
3767.00,0.0263
3766.00,0.0264
3765.00,0.0264
3764.00,0.0264
3763.00,0.0263
3762.00,0.0263
3761.00,0.0263
3760.00,0.0264
3759.00,0.0264
3758.00,0.0264
3757.00,0.0263
3756.00,0.0262
3755.00,0.0261
3754.00,0.0259
3753.00,0.0258
3752.00,0.0257
3751.00,0.0256
3750.00,0.0256
3749.00,0.0255
3748.00,0.0255
3747.00,0.0255
3746.00,0.0255
3745.00,0.0257
3744.00,0.0258
3743.00,0.0258
3742.00,0.0258
3741.00,0.0259
3740.00,0.0260
3739.00,0.0260
3738.00,0.0259
3737.00,0.0259
3736.00,0.0259
3735.00,0.0259
3734.00,0.0258
3733.00,0.0258
3732.00,0.0259
3731.00,0.0259
3730.00,0.0259
3729.00,0.0259
3728.00,0.0259
3727.00,0.0259
3726.00,0.0259
3725.00,0.0259
3724.00,0.0259
3723.00,0.0259
3722.00,0.0259
3721.00,0.0259
3720.00,0.0259
3719.00,0.0259
3718.00,0.0259
3717.00,0.0259
3716.00,0.0258
3715.00,0.0257
3714.00,0.0256
3713.00,0.0256
3712.00,0.0256
3711.00,0.0256
3710.00,0.0256
3709.00,0.0256
3708.00,0.0256
3707.00,0.0257
3706.00,0.0257
3705.00,0.0257
3704.00,0.0257
3703.00,0.0256
3702.00,0.0256
3701.00,0.0256
3700.00,0.0256
3699.00,0.0256
3698.00,0.0256
3697.00,0.0256
3696.00,0.0256
3695.00,0.0255
3694.00,0.0255
3693.00,0.0254
3692.00,0.0254
3691.00,0.0254
3690.00,0.0253
3689.00,0.0253
3688.00,0.0253
3687.00,0.0254
3686.00,0.0254
3685.00,0.0256
3684.00,0.0257
3683.00,0.0258
3682.00,0.0258
3681.00,0.0257
3680.00,0.0256
3679.00,0.0254
3678.00,0.0253
3677.00,0.0252
3676.00,0.0253
3675.00,0.0253
3674.00,0.0252
3673.00,0.0251
3672.00,0.0252
3671.00,0.0253
3670.00,0.0254
3669.00,0.0255
3668.00,0.0255
3667.00,0.0256
3666.00,0.0257
3665.00,0.0257
3664.00,0.0258
3663.00,0.0258
3662.00,0.0257
3661.00,0.0257
3660.00,0.0256
3659.00,0.0255
3658.00,0.0256
3657.00,0.0256
3656.00,0.0257
3655.00,0.0256
3654.00,0.0255
3653.00,0.0255
3652.00,0.0254
3651.00,0.0254
3650.00,0.0255
3649.00,0.0255
3648.00,0.0256
3647.00,0.0256
3646.00,0.0257
3645.00,0.0259
3644.00,0.0260
3643.00,0.0260
3642.00,0.0260
3641.00,0.0260
3640.00,0.0259
3639.00,0.0259
3638.00,0.0259
3637.00,0.0258
3636.00,0.0258
3635.00,0.0258
3634.00,0.0258
3633.00,0.0258
3632.00,0.0257
3631.00,0.0256
3630.00,0.0257
3629.00,0.0258
3628.00,0.0258
3627.00,0.0258
3626.00,0.0259
3625.00,0.0259
3624.00,0.0260
3623.00,0.0260
3622.00,0.0260
3621.00,0.0260
3620.00,0.0261
3619.00,0.0261
3618.00,0.0261
3617.00,0.0260
3616.00,0.0261
3615.00,0.0261
3614.00,0.0262
3613.00,0.0262
3612.00,0.0262
3611.00,0.0262
3610.00,0.0263
3609.00,0.0264
3608.00,0.0264
3607.00,0.0264
3606.00,0.0264
3605.00,0.0264
3604.00,0.0265
3603.00,0.0265
3602.00,0.0265
3601.00,0.0265
3600.00,0.0265
3599.00,0.0265
3598.00,0.0265
3597.00,0.0266
3596.00,0.0266
3595.00,0.0267
3594.00,0.0267
3593.00,0.0267
3592.00,0.0267
3591.00,0.0267
3590.00,0.0267
3589.00,0.0268
3588.00,0.0269
3587.00,0.0270
3586.00,0.0270
3585.00,0.0270
3584.00,0.0270
3583.00,0.0271
3582.00,0.0271
3581.00,0.0272
3580.00,0.0272
3579.00,0.0273
3578.00,0.0273
3577.00,0.0274
3576.00,0.0274
3575.00,0.0274
3574.00,0.0274
3573.00,0.0274
3572.00,0.0274
3571.00,0.0274
3570.00,0.0275
3569.00,0.0275
3568.00,0.0277
3567.00,0.0278
3566.00,0.0279
3565.00,0.0279
3564.00,0.0279
3563.00,0.0279
3562.00,0.0280
3561.00,0.0280
3560.00,0.0280
3559.00,0.0280
3558.00,0.0281
3557.00,0.0281
3556.00,0.0281
3555.00,0.0281
3554.00,0.0281
3553.00,0.0281
3552.00,0.0282
3551.00,0.0282
3550.00,0.0282
3549.00,0.0283
3548.00,0.0283
3547.00,0.0284
3546.00,0.0284
3545.00,0.0285
3544.00,0.0285
3543.00,0.0285
3542.00,0.0285
3541.00,0.0285
3540.00,0.0285
3539.00,0.0285
3538.00,0.0285
3537.00,0.0285
3536.00,0.0286
3535.00,0.0286
3534.00,0.0286
3533.00,0.0286
3532.00,0.0286
3531.00,0.0287
3530.00,0.0287
3529.00,0.0287
3528.00,0.0287
3527.00,0.0288
3526.00,0.0288
3525.00,0.0288
3524.00,0.0289
3523.00,0.0289
3522.00,0.0289
3521.00,0.0289
3520.00,0.0289
3519.00,0.0289
3518.00,0.0290
3517.00,0.0290
3516.00,0.0290
3515.00,0.0290
3514.00,0.0290
3513.00,0.0290
3512.00,0.0291
3511.00,0.0291
3510.00,0.0291
3509.00,0.0291
3508.00,0.0291
3507.00,0.0292
3506.00,0.0292
3505.00,0.0292
3504.00,0.0293
3503.00,0.0293
3502.00,0.0294
3501.00,0.0294
3500.00,0.0293
3499.00,0.0293
3498.00,0.0294
3497.00,0.0294
3496.00,0.0294
3495.00,0.0294
3494.00,0.0294
3493.00,0.0295
3492.00,0.0295
3491.00,0.0295
3490.00,0.0295
3489.00,0.0296
3488.00,0.0296
3487.00,0.0296
3486.00,0.0297
3485.00,0.0297
3484.00,0.0297
3483.00,0.0298
3482.00,0.0298
3481.00,0.0299
3480.00,0.0299
3479.00,0.0299
3478.00,0.0299
3477.00,0.0299
3476.00,0.0299
3475.00,0.0299
3474.00,0.0300
3473.00,0.0300
3472.00,0.0300
3471.00,0.0300
3470.00,0.0300
3469.00,0.0300
3468.00,0.0300
3467.00,0.0301
3466.00,0.0301
3465.00,0.0301
3464.00,0.0302
3463.00,0.0302
3462.00,0.0302
3461.00,0.0302
3460.00,0.0302
3459.00,0.0302
3458.00,0.0303
3457.00,0.0303
3456.00,0.0303
3455.00,0.0303
3454.00,0.0303
3453.00,0.0303
3452.00,0.0303
3451.00,0.0303
3450.00,0.0303
3449.00,0.0303
3448.00,0.0304
3447.00,0.0304
3446.00,0.0304
3445.00,0.0304
3444.00,0.0304
3443.00,0.0304
3442.00,0.0304
3441.00,0.0304
3440.00,0.0304
3439.00,0.0304
3438.00,0.0304
3437.00,0.0304
3436.00,0.0305
3435.00,0.0305
3434.00,0.0305
3433.00,0.0305
3432.00,0.0305
3431.00,0.0305
3430.00,0.0305
3429.00,0.0306
3428.00,0.0306
3427.00,0.0306
3426.00,0.0306
3425.00,0.0306
3424.00,0.0306
3423.00,0.0306
3422.00,0.0306
3421.00,0.0306
3420.00,0.0306
3419.00,0.0306
3418.00,0.0307
3417.00,0.0306
3416.00,0.0306
3415.00,0.0306
3414.00,0.0306
3413.00,0.0306
3412.00,0.0306
3411.00,0.0306
3410.00,0.0306
3409.00,0.0306
3408.00,0.0306
3407.00,0.0306
3406.00,0.0306
3405.00,0.0306
3404.00,0.0306
3403.00,0.0306
3402.00,0.0306
3401.00,0.0306
3400.00,0.0307
3399.00,0.0307
3398.00,0.0307
3397.00,0.0307
3396.00,0.0307
3395.00,0.0307
3394.00,0.0307
3393.00,0.0307
3392.00,0.0307
3391.00,0.0308
3390.00,0.0308
3389.00,0.0309
3388.00,0.0309
3387.00,0.0309
3386.00,0.0310
3385.00,0.0310
3384.00,0.0310
3383.00,0.0310
3382.00,0.0310
3381.00,0.0310
3380.00,0.0310
3379.00,0.0310
3378.00,0.0311
3377.00,0.0311
3376.00,0.0311
3375.00,0.0312
3374.00,0.0312
3373.00,0.0311
3372.00,0.0311
3371.00,0.0310
3370.00,0.0309
3369.00,0.0309
3368.00,0.0310
3367.00,0.0311
3366.00,0.0312
3365.00,0.0313
3364.00,0.0314
3363.00,0.0314
3362.00,0.0314
3361.00,0.0314
3360.00,0.0315
3359.00,0.0315
3358.00,0.0316
3357.00,0.0317
3356.00,0.0317
3355.00,0.0317
3354.00,0.0317
3353.00,0.0316
3352.00,0.0316
3351.00,0.0316
3350.00,0.0316
3349.00,0.0317
3348.00,0.0318
3347.00,0.0318
3346.00,0.0318
3345.00,0.0318
3344.00,0.0317
3343.00,0.0317
3342.00,0.0317
3341.00,0.0317
3340.00,0.0317
3339.00,0.0317
3338.00,0.0317
3337.00,0.0318
3336.00,0.0319
3335.00,0.0320
3334.00,0.0320
3333.00,0.0321
3332.00,0.0321
3331.00,0.0321
3330.00,0.0320
3329.00,0.0320
3328.00,0.0320
3327.00,0.0320
3326.00,0.0320
3325.00,0.0320
3324.00,0.0321
3323.00,0.0322
3322.00,0.0322
3321.00,0.0323
3320.00,0.0323
3319.00,0.0323
3318.00,0.0323
3317.00,0.0323
3316.00,0.0323
3315.00,0.0323
3314.00,0.0324
3313.00,0.0323
3312.00,0.0323
3311.00,0.0322
3310.00,0.0321
3309.00,0.0320
3308.00,0.0320
3307.00,0.0320
3306.00,0.0320
3305.00,0.0321
3304.00,0.0322
3303.00,0.0324
3302.00,0.0325
3301.00,0.0326
3300.00,0.0326
3299.00,0.0326
3298.00,0.0325
3297.00,0.0325
3296.00,0.0324
3295.00,0.0324
3294.00,0.0324
3293.00,0.0325
3292.00,0.0326
3291.00,0.0327
3290.00,0.0328
3289.00,0.0328
3288.00,0.0329
3287.00,0.0329
3286.00,0.0329
3285.00,0.0329
3284.00,0.0329
3283.00,0.0329
3282.00,0.0329
3281.00,0.0329
3280.00,0.0329
3279.00,0.0328
3278.00,0.0328
3277.00,0.0328
3276.00,0.0327
3275.00,0.0327
3274.00,0.0327
3273.00,0.0326
3272.00,0.0326
3271.00,0.0326
3270.00,0.0327
3269.00,0.0327
3268.00,0.0328
3267.00,0.0328
3266.00,0.0328
3265.00,0.0328
3264.00,0.0328
3263.00,0.0327
3262.00,0.0327
3261.00,0.0327
3260.00,0.0327
3259.00,0.0327
3258.00,0.0326
3257.00,0.0326
3256.00,0.0325
3255.00,0.0326
3254.00,0.0326
3253.00,0.0326
3252.00,0.0326
3251.00,0.0325
3250.00,0.0325
3249.00,0.0324
3248.00,0.0324
3247.00,0.0324
3246.00,0.0324
3245.00,0.0325
3244.00,0.0325
3243.00,0.0325
3242.00,0.0325
3241.00,0.0325
3240.00,0.0325
3239.00,0.0325
3238.00,0.0325
3237.00,0.0324
3236.00,0.0324
3235.00,0.0323
3234.00,0.0323
3233.00,0.0323
3232.00,0.0323
3231.00,0.0323
3230.00,0.0324
3229.00,0.0324
3228.00,0.0324
3227.00,0.0324
3226.00,0.0324
3225.00,0.0324
3224.00,0.0324
3223.00,0.0323
3222.00,0.0323
3221.00,0.0323
3220.00,0.0322
3219.00,0.0322
3218.00,0.0322
3217.00,0.0322
3216.00,0.0322
3215.00,0.0322
3214.00,0.0322
3213.00,0.0322
3212.00,0.0321
3211.00,0.0321
3210.00,0.0321
3209.00,0.0321
3208.00,0.0321
3207.00,0.0321
3206.00,0.0321
3205.00,0.0320
3204.00,0.0320
3203.00,0.0320
3202.00,0.0320
3201.00,0.0320
3200.00,0.0320
3199.00,0.0320
3198.00,0.0320
3197.00,0.0319
3196.00,0.0319
3195.00,0.0319
3194.00,0.0319
3193.00,0.0319
3192.00,0.0318
3191.00,0.0318
3190.00,0.0318
3189.00,0.0318
3188.00,0.0318
3187.00,0.0318
3186.00,0.0318
3185.00,0.0318
3184.00,0.0318
3183.00,0.0318
3182.00,0.0318
3181.00,0.0318
3180.00,0.0317
3179.00,0.0317
3178.00,0.0317
3177.00,0.0317
3176.00,0.0317
3175.00,0.0316
3174.00,0.0316
3173.00,0.0316
3172.00,0.0316
3171.00,0.0316
3170.00,0.0316
3169.00,0.0315
3168.00,0.0315
3167.00,0.0315
3166.00,0.0315
3165.00,0.0315
3164.00,0.0315
3163.00,0.0314
3162.00,0.0314
3161.00,0.0313
3160.00,0.0313
3159.00,0.0313
3158.00,0.0312
3157.00,0.0312
3156.00,0.0311
3155.00,0.0311
3154.00,0.0310
3153.00,0.0310
3152.00,0.0309
3151.00,0.0309
3150.00,0.0309
3149.00,0.0310
3148.00,0.0309
3147.00,0.0309
3146.00,0.0309
3145.00,0.0309
3144.00,0.0308
3143.00,0.0308
3142.00,0.0307
3141.00,0.0307
3140.00,0.0306
3139.00,0.0306
3138.00,0.0306
3137.00,0.0306
3136.00,0.0307
3135.00,0.0306
3134.00,0.0306
3133.00,0.0306
3132.00,0.0305
3131.00,0.0305
3130.00,0.0305
3129.00,0.0305
3128.00,0.0305
3127.00,0.0305
3126.00,0.0305
3125.00,0.0305
3124.00,0.0304
3123.00,0.0304
3122.00,0.0303
3121.00,0.0303
3120.00,0.0302
3119.00,0.0302
3118.00,0.0302
3117.00,0.0302
3116.00,0.0302
3115.00,0.0302
3114.00,0.0302
3113.00,0.0302
3112.00,0.0302
3111.00,0.0301
3110.00,0.0301
3109.00,0.0300
3108.00,0.0300
3107.00,0.0300
3106.00,0.0300
3105.00,0.0300
3104.00,0.0300
3103.00,0.0299
3102.00,0.0299
3101.00,0.0298
3100.00,0.0298
3099.00,0.0298
3098.00,0.0298
3097.00,0.0298
3096.00,0.0298
3095.00,0.0298
3094.00,0.0298
3093.00,0.0298
3092.00,0.0298
3091.00,0.0298
3090.00,0.0298
3089.00,0.0298
3088.00,0.0298
3087.00,0.0298
3086.00,0.0298
3085.00,0.0298
3084.00,0.0298
3083.00,0.0297
3082.00,0.0297
3081.00,0.0297
3080.00,0.0297
3079.00,0.0297
3078.00,0.0297
3077.00,0.0298
3076.00,0.0298
3075.00,0.0298
3074.00,0.0298
3073.00,0.0298
3072.00,0.0298
3071.00,0.0297
3070.00,0.0296
3069.00,0.0295
3068.00,0.0295
3067.00,0.0294
3066.00,0.0294
3065.00,0.0294
3064.00,0.0294
3063.00,0.0294
3062.00,0.0294
3061.00,0.0293
3060.00,0.0293
3059.00,0.0292
3058.00,0.0292
3057.00,0.0291
3056.00,0.0291
3055.00,0.0290
3054.00,0.0290
3053.00,0.0290
3052.00,0.0290
3051.00,0.0289
3050.00,0.0289
3049.00,0.0289
3048.00,0.0289
3047.00,0.0288
3046.00,0.0287
3045.00,0.0287
3044.00,0.0286
3043.00,0.0286
3042.00,0.0286
3041.00,0.0286
3040.00,0.0286
3039.00,0.0286
3038.00,0.0286
3037.00,0.0285
3036.00,0.0285
3035.00,0.0284
3034.00,0.0284
3033.00,0.0284
3032.00,0.0284
3031.00,0.0284
3030.00,0.0283
3029.00,0.0283
3028.00,0.0283
3027.00,0.0282
3026.00,0.0282
3025.00,0.0281
3024.00,0.0281
3023.00,0.0281
3022.00,0.0280
3021.00,0.0280
3020.00,0.0280
3019.00,0.0280
3018.00,0.0279
3017.00,0.0279
3016.00,0.0279
3015.00,0.0279
3014.00,0.0280
3013.00,0.0280
3012.00,0.0281
3011.00,0.0282
3010.00,0.0283
3009.00,0.0284
3008.00,0.0286
3007.00,0.0287
3006.00,0.0289
3005.00,0.0290
3004.00,0.0292
3003.00,0.0294
3002.00,0.0296
3001.00,0.0299
3000.00,0.0302
2999.00,0.0304
2998.00,0.0308
2997.00,0.0312
2996.00,0.0316
2995.00,0.0320
2994.00,0.0324
2993.00,0.0328
2992.00,0.0333
2991.00,0.0338
2990.00,0.0344
2989.00,0.0349
2988.00,0.0354
2987.00,0.0360
2986.00,0.0364
2985.00,0.0369
2984.00,0.0373
2983.00,0.0377
2982.00,0.0381
2981.00,0.0385
2980.00,0.0389
2979.00,0.0393
2978.00,0.0396
2977.00,0.0400
2976.00,0.0402
2975.00,0.0405
2974.00,0.0408
2973.00,0.0410
2972.00,0.0413
2971.00,0.0415
2970.00,0.0418
2969.00,0.0420
2968.00,0.0423
2967.00,0.0427
2966.00,0.0430
2965.00,0.0433
2964.00,0.0437
2963.00,0.0440
2962.00,0.0443
2961.00,0.0446
2960.00,0.0449
2959.00,0.0452
2958.00,0.0454
2957.00,0.0457
2956.00,0.0458
2955.00,0.0459
2954.00,0.0460
2953.00,0.0460
2952.00,0.0460
2951.00,0.0460
2950.00,0.0459
2949.00,0.0458
2948.00,0.0457
2947.00,0.0456
2946.00,0.0455
2945.00,0.0455
2944.00,0.0455
2943.00,0.0456
2942.00,0.0457
2941.00,0.0459
2940.00,0.0461
2939.00,0.0464
2938.00,0.0467
2937.00,0.0470
2936.00,0.0473
2935.00,0.0477
2934.00,0.0480
2933.00,0.0483
2932.00,0.0486
2931.00,0.0490
2930.00,0.0493
2929.00,0.0495
2928.00,0.0498
2927.00,0.0499
2926.00,0.0500
2925.00,0.0500
2924.00,0.0500
2923.00,0.0499
2922.00,0.0497
2921.00,0.0494
2920.00,0.0491
2919.00,0.0487
2918.00,0.0483
2917.00,0.0478
2916.00,0.0473
2915.00,0.0468
2914.00,0.0462
2913.00,0.0457
2912.00,0.0451
2911.00,0.0446
2910.00,0.0441
2909.00,0.0436
2908.00,0.0431
2907.00,0.0427
2906.00,0.0422
2905.00,0.0418
2904.00,0.0415
2903.00,0.0412
2902.00,0.0410
2901.00,0.0407
2900.00,0.0405
2899.00,0.0404
2898.00,0.0402
2897.00,0.0401
2896.00,0.0401
2895.00,0.0400
2894.00,0.0400
2893.00,0.0399
2892.00,0.0398
2891.00,0.0397
2890.00,0.0397
2889.00,0.0396
2888.00,0.0396
2887.00,0.0395
2886.00,0.0395
2885.00,0.0395
2884.00,0.0395
2883.00,0.0395
2882.00,0.0395
2881.00,0.0396
2880.00,0.0397
2879.00,0.0398
2878.00,0.0399
2877.00,0.0401
2876.00,0.0402
2875.00,0.0403
2874.00,0.0405
2873.00,0.0406
2872.00,0.0408
2871.00,0.0409
2870.00,0.0409
2869.00,0.0409
2868.00,0.0408
2867.00,0.0407
2866.00,0.0406
2865.00,0.0406
2864.00,0.0406
2863.00,0.0407
2862.00,0.0407
2861.00,0.0408
2860.00,0.0409
2859.00,0.0409
2858.00,0.0409
2857.00,0.0408
2856.00,0.0406
2855.00,0.0404
2854.00,0.0400
2853.00,0.0396
2852.00,0.0391
2851.00,0.0385
2850.00,0.0379
2849.00,0.0373
2848.00,0.0368
2847.00,0.0362
2846.00,0.0357
2845.00,0.0351
2844.00,0.0346
2843.00,0.0341
2842.00,0.0335
2841.00,0.0330
2840.00,0.0325
2839.00,0.0321
2838.00,0.0318
2837.00,0.0315
2836.00,0.0312
2835.00,0.0310
2834.00,0.0307
2833.00,0.0304
2832.00,0.0302
2831.00,0.0299
2830.00,0.0297
2829.00,0.0294
2828.00,0.0292
2827.00,0.0290
2826.00,0.0288
2825.00,0.0285
2824.00,0.0283
2823.00,0.0281
2822.00,0.0280
2821.00,0.0278
2820.00,0.0276
2819.00,0.0275
2818.00,0.0274
2817.00,0.0272
2816.00,0.0271
2815.00,0.0270
2814.00,0.0269
2813.00,0.0268
2812.00,0.0266
2811.00,0.0265
2810.00,0.0264
2809.00,0.0263
2808.00,0.0263
2807.00,0.0262
2806.00,0.0261
2805.00,0.0260
2804.00,0.0259
2803.00,0.0259
2802.00,0.0258
2801.00,0.0257
2800.00,0.0256
2799.00,0.0255
2798.00,0.0254
2797.00,0.0254
2796.00,0.0254
2795.00,0.0253
2794.00,0.0253
2793.00,0.0252
2792.00,0.0252
2791.00,0.0251
2790.00,0.0250
2789.00,0.0250
2788.00,0.0250
2787.00,0.0250
2786.00,0.0249
2785.00,0.0249
2784.00,0.0249
2783.00,0.0248
2782.00,0.0248
2781.00,0.0247
2780.00,0.0247
2779.00,0.0246
2778.00,0.0246
2777.00,0.0245
2776.00,0.0244
2775.00,0.0244
2774.00,0.0244
2773.00,0.0243
2772.00,0.0243
2771.00,0.0243
2770.00,0.0242
2769.00,0.0242
2768.00,0.0242
2767.00,0.0242
2766.00,0.0241
2765.00,0.0241
2764.00,0.0241
2763.00,0.0240
2762.00,0.0240
2761.00,0.0240
2760.00,0.0240
2759.00,0.0240
2758.00,0.0240
2757.00,0.0240
