Created as New Dataset,Sample 337 By YargerLab Date Tuesday, November 11 2025
cm-1,A
4000.00,0.0034
3999.00,0.0034
3998.00,0.0034
3997.00,0.0035
3996.00,0.0035
3995.00,0.0035
3994.00,0.0036
3993.00,0.0035
3992.00,0.0035
3991.00,0.0035
3990.00,0.0035
3989.00,0.0035
3988.00,0.0035
3987.00,0.0034
3986.00,0.0034
3985.00,0.0035
3984.00,0.0035
3983.00,0.0035
3982.00,0.0035
3981.00,0.0035
3980.00,0.0035
3979.00,0.0034
3978.00,0.0034
3977.00,0.0034
3976.00,0.0034
3975.00,0.0034
3974.00,0.0035
3973.00,0.0035
3972.00,0.0035
3971.00,0.0035
3970.00,0.0035
3969.00,0.0034
3968.00,0.0034
3967.00,0.0034
3966.00,0.0034
3965.00,0.0034
3964.00,0.0034
3963.00,0.0034
3962.00,0.0034
3961.00,0.0035
3960.00,0.0035
3959.00,0.0035
3958.00,0.0035
3957.00,0.0034
3956.00,0.0034
3955.00,0.0034
3954.00,0.0034
3953.00,0.0034
3952.00,0.0034
3951.00,0.0034
3950.00,0.0035
3949.00,0.0035
3948.00,0.0035
3947.00,0.0035
3946.00,0.0035
3945.00,0.0036
3944.00,0.0036
3943.00,0.0036
3942.00,0.0035
3941.00,0.0035
3940.00,0.0035
3939.00,0.0035
3938.00,0.0035
3937.00,0.0035
3936.00,0.0035
3935.00,0.0035
3934.00,0.0035
3933.00,0.0035
3932.00,0.0035
3931.00,0.0035
3930.00,0.0036
3929.00,0.0036
3928.00,0.0036
3927.00,0.0035
3926.00,0.0035
3925.00,0.0034
3924.00,0.0034
3923.00,0.0035
3922.00,0.0035
3921.00,0.0035
3920.00,0.0035
3919.00,0.0036
3918.00,0.0036
3917.00,0.0036
3916.00,0.0036
3915.00,0.0035
3914.00,0.0035
3913.00,0.0035
3912.00,0.0035
3911.00,0.0035
3910.00,0.0035
3909.00,0.0035
3908.00,0.0035
3907.00,0.0035
3906.00,0.0036
3905.00,0.0036
3904.00,0.0037
3903.00,0.0038
3902.00,0.0038
3901.00,0.0038
3900.00,0.0037
3899.00,0.0037
3898.00,0.0037
3897.00,0.0037
3896.00,0.0037
3895.00,0.0037
3894.00,0.0036
3893.00,0.0036
3892.00,0.0036
3891.00,0.0035
3890.00,0.0036
3889.00,0.0036
3888.00,0.0036
3887.00,0.0036
3886.00,0.0036
3885.00,0.0035
3884.00,0.0035
3883.00,0.0036
3882.00,0.0037
3881.00,0.0037
3880.00,0.0036
3879.00,0.0036
3878.00,0.0036
3877.00,0.0036
3876.00,0.0036
3875.00,0.0036
3874.00,0.0037
3873.00,0.0037
3872.00,0.0037
3871.00,0.0037
3870.00,0.0037
3869.00,0.0037
3868.00,0.0037
3867.00,0.0037
3866.00,0.0038
3865.00,0.0038
3864.00,0.0037
3863.00,0.0037
3862.00,0.0037
3861.00,0.0037
3860.00,0.0037
3859.00,0.0037
3858.00,0.0036
3857.00,0.0036
3856.00,0.0036
3855.00,0.0037
3854.00,0.0037
3853.00,0.0037
3852.00,0.0038
3851.00,0.0038
3850.00,0.0038
3849.00,0.0038
3848.00,0.0037
3847.00,0.0037
3846.00,0.0037
3845.00,0.0037
3844.00,0.0037
3843.00,0.0037
3842.00,0.0037
3841.00,0.0038
3840.00,0.0037
3839.00,0.0038
3838.00,0.0038
3837.00,0.0038
3836.00,0.0038
3835.00,0.0038
3834.00,0.0038
3833.00,0.0038
3832.00,0.0038
3831.00,0.0037
3830.00,0.0037
3829.00,0.0037
3828.00,0.0037
3827.00,0.0037
3826.00,0.0037
3825.00,0.0037
3824.00,0.0037
3823.00,0.0037
3822.00,0.0038
3821.00,0.0038
3820.00,0.0037
3819.00,0.0038
3818.00,0.0038
3817.00,0.0038
3816.00,0.0038
3815.00,0.0037
3814.00,0.0037
3813.00,0.0037
3812.00,0.0037
3811.00,0.0036
3810.00,0.0036
3809.00,0.0037
3808.00,0.0037
3807.00,0.0037
3806.00,0.0037
3805.00,0.0038
3804.00,0.0038
3803.00,0.0038
3802.00,0.0038
3801.00,0.0038
3800.00,0.0037
3799.00,0.0037
3798.00,0.0037
3797.00,0.0037
3796.00,0.0037
3795.00,0.0037
3794.00,0.0037
3793.00,0.0037
3792.00,0.0036
3791.00,0.0036
3790.00,0.0036
3789.00,0.0036
3788.00,0.0036
3787.00,0.0036
3786.00,0.0036
3785.00,0.0036
3784.00,0.0036
3783.00,0.0036
3782.00,0.0036
3781.00,0.0036
3780.00,0.0036
3779.00,0.0036
3778.00,0.0036
3777.00,0.0037
3776.00,0.0037
3775.00,0.0037
3774.00,0.0037
3773.00,0.0036
3772.00,0.0036
3771.00,0.0037
3770.00,0.0037
3769.00,0.0037
3768.00,0.0038
3767.00,0.0038
3766.00,0.0037
3765.00,0.0037
3764.00,0.0037
3763.00,0.0037
3762.00,0.0037
3761.00,0.0037
3760.00,0.0038
3759.00,0.0037
3758.00,0.0037
3757.00,0.0037
3756.00,0.0037
3755.00,0.0038
3754.00,0.0038
3753.00,0.0039
3752.00,0.0039
3751.00,0.0040
3750.00,0.0040
3749.00,0.0040
3748.00,0.0041
3747.00,0.0041
3746.00,0.0041
3745.00,0.0041
3744.00,0.0040
3743.00,0.0039
3742.00,0.0039
3741.00,0.0039
3740.00,0.0039
3739.00,0.0040
3738.00,0.0040
3737.00,0.0040
3736.00,0.0040
3735.00,0.0039
3734.00,0.0039
3733.00,0.0038
3732.00,0.0038
3731.00,0.0037
3730.00,0.0037
3729.00,0.0037
3728.00,0.0037
3727.00,0.0036
3726.00,0.0036
3725.00,0.0036
3724.00,0.0036
3723.00,0.0036
3722.00,0.0037
3721.00,0.0037
3720.00,0.0037
3719.00,0.0037
3718.00,0.0037
3717.00,0.0037
3716.00,0.0037
3715.00,0.0037
3714.00,0.0037
3713.00,0.0037
3712.00,0.0037
3711.00,0.0037
3710.00,0.0037
3709.00,0.0037
3708.00,0.0037
3707.00,0.0037
3706.00,0.0037
3705.00,0.0036
3704.00,0.0036
3703.00,0.0036
3702.00,0.0036
3701.00,0.0035
3700.00,0.0035
3699.00,0.0035
3698.00,0.0035
3697.00,0.0035
3696.00,0.0035
3695.00,0.0036
3694.00,0.0036
3693.00,0.0037
3692.00,0.0038
3691.00,0.0039
3690.00,0.0040
3689.00,0.0041
3688.00,0.0041
3687.00,0.0042
3686.00,0.0042
3685.00,0.0042
3684.00,0.0042
3683.00,0.0042
3682.00,0.0042
3681.00,0.0042
3680.00,0.0042
3679.00,0.0043
3678.00,0.0043
3677.00,0.0044
3676.00,0.0045
3675.00,0.0045
3674.00,0.0045
3673.00,0.0046
3672.00,0.0046
3671.00,0.0046
3670.00,0.0045
3669.00,0.0045
3668.00,0.0045
3667.00,0.0045
3666.00,0.0045
3665.00,0.0045
3664.00,0.0045
3663.00,0.0045
3662.00,0.0045
3661.00,0.0045
3660.00,0.0045
3659.00,0.0046
3658.00,0.0046
3657.00,0.0047
3656.00,0.0048
3655.00,0.0049
3654.00,0.0049
3653.00,0.0050
3652.00,0.0051
3651.00,0.0051
3650.00,0.0051
3649.00,0.0052
3648.00,0.0053
3647.00,0.0053
3646.00,0.0053
3645.00,0.0053
3644.00,0.0053
3643.00,0.0053
3642.00,0.0053
3641.00,0.0053
3640.00,0.0053
3639.00,0.0053
3638.00,0.0053
3637.00,0.0054
3636.00,0.0054
3635.00,0.0055
3634.00,0.0055
3633.00,0.0056
3632.00,0.0056
3631.00,0.0057
3630.00,0.0057
3629.00,0.0057
3628.00,0.0058
3627.00,0.0058
3626.00,0.0059
3625.00,0.0059
3624.00,0.0060
3623.00,0.0060
3622.00,0.0061
3621.00,0.0062
3620.00,0.0063
3619.00,0.0063
3618.00,0.0064
3617.00,0.0065
3616.00,0.0066
3615.00,0.0066
3614.00,0.0067
3613.00,0.0067
3612.00,0.0068
3611.00,0.0069
3610.00,0.0069
3609.00,0.0070
3608.00,0.0070
3607.00,0.0070
3606.00,0.0071
3605.00,0.0071
3604.00,0.0072
3603.00,0.0072
3602.00,0.0073
3601.00,0.0073
3600.00,0.0074
3599.00,0.0075
3598.00,0.0076
3597.00,0.0077
3596.00,0.0078
3595.00,0.0079
3594.00,0.0080
3593.00,0.0080
3592.00,0.0081
3591.00,0.0082
3590.00,0.0084
3589.00,0.0085
3588.00,0.0086
3587.00,0.0087
3586.00,0.0088
3585.00,0.0089
3584.00,0.0089
3583.00,0.0090
3582.00,0.0091
3581.00,0.0092
3580.00,0.0092
3579.00,0.0093
3578.00,0.0095
3577.00,0.0096
3576.00,0.0097
3575.00,0.0098
3574.00,0.0098
3573.00,0.0099
3572.00,0.0100
3571.00,0.0101
3570.00,0.0103
3569.00,0.0104
3568.00,0.0106
3567.00,0.0107
3566.00,0.0108
3565.00,0.0109
3564.00,0.0110
3563.00,0.0110
3562.00,0.0111
3561.00,0.0112
3560.00,0.0112
3559.00,0.0113
3558.00,0.0114
3557.00,0.0115
3556.00,0.0115
3555.00,0.0116
3554.00,0.0117
3553.00,0.0118
3552.00,0.0119
3551.00,0.0120
3550.00,0.0122
3549.00,0.0123
3548.00,0.0123
3547.00,0.0124
3546.00,0.0125
3545.00,0.0125
3544.00,0.0126
3543.00,0.0127
3542.00,0.0128
3541.00,0.0129
3540.00,0.0129
3539.00,0.0130
3538.00,0.0130
3537.00,0.0131
3536.00,0.0132
3535.00,0.0133
3534.00,0.0134
3533.00,0.0135
3532.00,0.0135
3531.00,0.0136
3530.00,0.0137
3529.00,0.0138
3528.00,0.0138
3527.00,0.0139
3526.00,0.0140
3525.00,0.0141
3524.00,0.0142
3523.00,0.0143
3522.00,0.0144
3521.00,0.0144
3520.00,0.0145
3519.00,0.0146
3518.00,0.0147
3517.00,0.0147
3516.00,0.0148
3515.00,0.0149
3514.00,0.0150
3513.00,0.0151
3512.00,0.0152
3511.00,0.0153
3510.00,0.0154
3509.00,0.0155
3508.00,0.0156
3507.00,0.0157
3506.00,0.0158
3505.00,0.0159
3504.00,0.0160
3503.00,0.0160
3502.00,0.0161
3501.00,0.0162
3500.00,0.0163
3499.00,0.0164
3498.00,0.0165
3497.00,0.0166
3496.00,0.0166
3495.00,0.0167
3494.00,0.0168
3493.00,0.0169
3492.00,0.0170
3491.00,0.0171
3490.00,0.0172
3489.00,0.0173
3488.00,0.0174
3487.00,0.0175
3486.00,0.0176
3485.00,0.0177
3484.00,0.0178
3483.00,0.0179
3482.00,0.0181
3481.00,0.0181
3480.00,0.0182
3479.00,0.0183
3478.00,0.0184
3477.00,0.0185
3476.00,0.0186
3475.00,0.0187
3474.00,0.0188
3473.00,0.0189
3472.00,0.0190
3471.00,0.0191
3470.00,0.0192
3469.00,0.0192
3468.00,0.0193
3467.00,0.0194
3466.00,0.0194
3465.00,0.0195
3464.00,0.0196
3463.00,0.0197
3462.00,0.0198
3461.00,0.0199
3460.00,0.0199
3459.00,0.0200
3458.00,0.0201
3457.00,0.0201
3456.00,0.0202
3455.00,0.0202
3454.00,0.0203
3453.00,0.0204
3452.00,0.0204
3451.00,0.0205
3450.00,0.0206
3449.00,0.0206
3448.00,0.0207
3447.00,0.0208
3446.00,0.0209
3445.00,0.0209
3444.00,0.0209
3443.00,0.0210
3442.00,0.0210
3441.00,0.0210
3440.00,0.0211
3439.00,0.0211
3438.00,0.0212
3437.00,0.0212
3436.00,0.0213
3435.00,0.0213
3434.00,0.0213
3433.00,0.0214
3432.00,0.0214
3431.00,0.0215
3430.00,0.0215
3429.00,0.0216
3428.00,0.0216
3427.00,0.0217
3426.00,0.0217
3425.00,0.0217
3424.00,0.0217
3423.00,0.0217
3422.00,0.0217
3421.00,0.0218
3420.00,0.0218
3419.00,0.0219
3418.00,0.0219
3417.00,0.0219
3416.00,0.0220
3415.00,0.0220
3414.00,0.0220
3413.00,0.0220
3412.00,0.0220
3411.00,0.0220
3410.00,0.0220
3409.00,0.0221
3408.00,0.0221
3407.00,0.0222
3406.00,0.0222
3405.00,0.0222
3404.00,0.0221
3403.00,0.0221
3402.00,0.0221
3401.00,0.0221
3400.00,0.0222
3399.00,0.0223
3398.00,0.0223
3397.00,0.0223
3396.00,0.0223
3395.00,0.0223
3394.00,0.0223
3393.00,0.0223
3392.00,0.0223
3391.00,0.0224
3390.00,0.0224
3389.00,0.0225
3388.00,0.0225
3387.00,0.0225
3386.00,0.0225
3385.00,0.0226
3384.00,0.0226
3383.00,0.0226
3382.00,0.0226
3381.00,0.0226
3380.00,0.0226
3379.00,0.0226
3378.00,0.0226
3377.00,0.0226
3376.00,0.0226
3375.00,0.0227
3374.00,0.0227
3373.00,0.0226
3372.00,0.0225
3371.00,0.0224
3370.00,0.0223
3369.00,0.0223
3368.00,0.0224
3367.00,0.0225
3366.00,0.0227
3365.00,0.0228
3364.00,0.0229
3363.00,0.0229
3362.00,0.0229
3361.00,0.0229
3360.00,0.0229
3359.00,0.0229
3358.00,0.0229
3357.00,0.0229
3356.00,0.0230
3355.00,0.0229
3354.00,0.0229
3353.00,0.0228
3352.00,0.0227
3351.00,0.0227
3350.00,0.0228
3349.00,0.0229
3348.00,0.0230
3347.00,0.0230
3346.00,0.0230
3345.00,0.0230
3344.00,0.0229
3343.00,0.0229
3342.00,0.0229
3341.00,0.0228
3340.00,0.0228
3339.00,0.0228
3338.00,0.0228
3337.00,0.0228
3336.00,0.0229
3335.00,0.0230
3334.00,0.0230
3333.00,0.0230
3332.00,0.0230
3331.00,0.0230
3330.00,0.0230
3329.00,0.0229
3328.00,0.0229
3327.00,0.0229
3326.00,0.0228
3325.00,0.0229
3324.00,0.0229
3323.00,0.0230
3322.00,0.0230
3321.00,0.0231
3320.00,0.0231
3319.00,0.0231
3318.00,0.0231
3317.00,0.0231
3316.00,0.0231
3315.00,0.0231
3314.00,0.0231
3313.00,0.0231
3312.00,0.0231
3311.00,0.0229
3310.00,0.0228
3309.00,0.0227
3308.00,0.0226
3307.00,0.0225
3306.00,0.0226
3305.00,0.0227
3304.00,0.0229
3303.00,0.0230
3302.00,0.0232
3301.00,0.0232
3300.00,0.0232
3299.00,0.0231
3298.00,0.0230
3297.00,0.0230
3296.00,0.0229
3295.00,0.0229
3294.00,0.0229
3293.00,0.0229
3292.00,0.0229
3291.00,0.0230
3290.00,0.0231
3289.00,0.0232
3288.00,0.0233
3287.00,0.0233
3286.00,0.0233
3285.00,0.0233
3284.00,0.0233
3283.00,0.0233
3282.00,0.0233
3281.00,0.0233
3280.00,0.0233
3279.00,0.0232
3278.00,0.0232
3277.00,0.0231
3276.00,0.0230
3275.00,0.0230
3274.00,0.0229
3273.00,0.0229
3272.00,0.0229
3271.00,0.0229
3270.00,0.0229
3269.00,0.0230
3268.00,0.0230
3267.00,0.0230
3266.00,0.0230
3265.00,0.0230
3264.00,0.0230
3263.00,0.0230
3262.00,0.0230
3261.00,0.0230
3260.00,0.0230
3259.00,0.0230
3258.00,0.0229
3257.00,0.0229
3256.00,0.0229
3255.00,0.0229
3254.00,0.0229
3253.00,0.0229
3252.00,0.0228
3251.00,0.0228
3250.00,0.0227
3249.00,0.0227
3248.00,0.0226
3247.00,0.0226
3246.00,0.0227
3245.00,0.0227
3244.00,0.0228
3243.00,0.0228
3242.00,0.0228
3241.00,0.0228
3240.00,0.0227
3239.00,0.0227
3238.00,0.0227
3237.00,0.0226
3236.00,0.0226
3235.00,0.0225
3234.00,0.0225
3233.00,0.0225
3232.00,0.0225
3231.00,0.0226
3230.00,0.0226
3229.00,0.0226
3228.00,0.0226
3227.00,0.0226
3226.00,0.0225
3225.00,0.0225
3224.00,0.0224
3223.00,0.0224
3222.00,0.0224
3221.00,0.0223
3220.00,0.0223
3219.00,0.0223
3218.00,0.0223
3217.00,0.0223
3216.00,0.0223
3215.00,0.0222
3214.00,0.0222
3213.00,0.0221
3212.00,0.0221
3211.00,0.0221
3210.00,0.0221
3209.00,0.0220
3208.00,0.0220
3207.00,0.0219
3206.00,0.0219
3205.00,0.0219
3204.00,0.0219
3203.00,0.0219
3202.00,0.0218
3201.00,0.0218
3200.00,0.0218
3199.00,0.0218
3198.00,0.0217
3197.00,0.0217
3196.00,0.0217
3195.00,0.0217
3194.00,0.0216
3193.00,0.0216
3192.00,0.0216
3191.00,0.0216
3190.00,0.0215
3189.00,0.0215
3188.00,0.0215
3187.00,0.0215
3186.00,0.0215
3185.00,0.0215
3184.00,0.0214
3183.00,0.0214
3182.00,0.0214
3181.00,0.0214
3180.00,0.0215
3179.00,0.0215
3178.00,0.0214
3177.00,0.0214
3176.00,0.0213
3175.00,0.0213
3174.00,0.0213
3173.00,0.0212
3172.00,0.0212
3171.00,0.0212
3170.00,0.0211
3169.00,0.0211
3168.00,0.0211
3167.00,0.0211
3166.00,0.0210
3165.00,0.0210
3164.00,0.0209
3163.00,0.0209
3162.00,0.0209
3161.00,0.0208
3160.00,0.0208
3159.00,0.0208
3158.00,0.0207
3157.00,0.0207
3156.00,0.0206
3155.00,0.0205
3154.00,0.0205
3153.00,0.0205
3152.00,0.0204
3151.00,0.0204
3150.00,0.0204
3149.00,0.0204
3148.00,0.0203
3147.00,0.0203
3146.00,0.0203
3145.00,0.0203
3144.00,0.0202
3143.00,0.0202
3142.00,0.0201
3141.00,0.0201
3140.00,0.0200
3139.00,0.0200
3138.00,0.0200
3137.00,0.0200
3136.00,0.0199
3135.00,0.0199
3134.00,0.0199
3133.00,0.0198
3132.00,0.0198
3131.00,0.0198
3130.00,0.0197
3129.00,0.0197
3128.00,0.0197
3127.00,0.0197
3126.00,0.0197
3125.00,0.0197
3124.00,0.0197
3123.00,0.0196
3122.00,0.0196
3121.00,0.0196
3120.00,0.0196
3119.00,0.0196
3118.00,0.0195
3117.00,0.0195
3116.00,0.0195
3115.00,0.0194
3114.00,0.0194
3113.00,0.0193
3112.00,0.0193
3111.00,0.0193
3110.00,0.0192
3109.00,0.0192
3108.00,0.0191
3107.00,0.0190
3106.00,0.0190
3105.00,0.0189
3104.00,0.0189
3103.00,0.0188
3102.00,0.0188
3101.00,0.0188
3100.00,0.0188
3099.00,0.0187
3098.00,0.0187
3097.00,0.0187
3096.00,0.0187
3095.00,0.0187
3094.00,0.0187
3093.00,0.0187
3092.00,0.0187
3091.00,0.0187
3090.00,0.0187
3089.00,0.0187
3088.00,0.0188
3087.00,0.0188
3086.00,0.0188
3085.00,0.0188
3084.00,0.0188
3083.00,0.0188
3082.00,0.0188
3081.00,0.0188
3080.00,0.0188
3079.00,0.0188
3078.00,0.0188
3077.00,0.0188
3076.00,0.0188
3075.00,0.0187
3074.00,0.0187
3073.00,0.0187
3072.00,0.0186
3071.00,0.0185
3070.00,0.0185
3069.00,0.0184
3068.00,0.0184
3067.00,0.0183
3066.00,0.0183
3065.00,0.0182
3064.00,0.0182
3063.00,0.0181
3062.00,0.0181
3061.00,0.0180
3060.00,0.0180
3059.00,0.0180
3058.00,0.0179
3057.00,0.0178
3056.00,0.0178
3055.00,0.0178
3054.00,0.0178
3053.00,0.0178
3052.00,0.0178
3051.00,0.0177
3050.00,0.0177
3049.00,0.0176
3048.00,0.0176
3047.00,0.0176
3046.00,0.0175
3045.00,0.0175
3044.00,0.0175
3043.00,0.0175
3042.00,0.0175
3041.00,0.0175
3040.00,0.0175
3039.00,0.0175
3038.00,0.0174
3037.00,0.0173
3036.00,0.0173
3035.00,0.0173
3034.00,0.0172
3033.00,0.0172
3032.00,0.0171
3031.00,0.0170
3030.00,0.0169
3029.00,0.0169
3028.00,0.0168
3027.00,0.0168
3026.00,0.0167
3025.00,0.0166
3024.00,0.0165
3023.00,0.0164
3022.00,0.0165
3021.00,0.0167
3020.00,0.0170
3019.00,0.0173
3018.00,0.0175
3017.00,0.0176
3016.00,0.0175
3015.00,0.0174
3014.00,0.0174
3013.00,0.0174
3012.00,0.0176
3011.00,0.0178
3010.00,0.0180
3009.00,0.0182
3008.00,0.0184
3007.00,0.0186
3006.00,0.0189
3005.00,0.0193
3004.00,0.0197
3003.00,0.0201
3002.00,0.0206
3001.00,0.0211
3000.00,0.0216
2999.00,0.0223
2998.00,0.0230
2997.00,0.0238
2996.00,0.0245
2995.00,0.0253
2994.00,0.0262
2993.00,0.0271
2992.00,0.0281
2991.00,0.0291
2990.00,0.0302
2989.00,0.0312
2988.00,0.0323
2987.00,0.0333
2986.00,0.0344
2985.00,0.0355
2984.00,0.0366
2983.00,0.0377
2982.00,0.0388
2981.00,0.0398
2980.00,0.0408
2979.00,0.0417
2978.00,0.0426
2977.00,0.0435
2976.00,0.0443
2975.00,0.0451
2974.00,0.0459
2973.00,0.0467
2972.00,0.0475
2971.00,0.0482
2970.00,0.0489
2969.00,0.0496
2968.00,0.0502
2967.00,0.0507
2966.00,0.0512
2965.00,0.0516
2964.00,0.0520
2963.00,0.0522
2962.00,0.0524
2961.00,0.0525
2960.00,0.0526
2959.00,0.0526
2958.00,0.0526
2957.00,0.0525
2956.00,0.0524
2955.00,0.0523
2954.00,0.0520
2953.00,0.0517
2952.00,0.0514
2951.00,0.0510
2950.00,0.0506
2949.00,0.0501
2948.00,0.0497
2947.00,0.0494
2946.00,0.0491
2945.00,0.0490
2944.00,0.0489
2943.00,0.0490
2942.00,0.0492
2941.00,0.0494
2940.00,0.0498
2939.00,0.0502
2938.00,0.0507
2937.00,0.0512
2936.00,0.0518
2935.00,0.0524
2934.00,0.0530
2933.00,0.0536
2932.00,0.0542
2931.00,0.0548
2930.00,0.0553
2929.00,0.0558
2928.00,0.0561
2927.00,0.0563
2926.00,0.0564
2925.00,0.0564
2924.00,0.0562
2923.00,0.0560
2922.00,0.0557
2921.00,0.0552
2920.00,0.0546
2919.00,0.0539
2918.00,0.0531
2917.00,0.0523
2916.00,0.0514
2915.00,0.0505
2914.00,0.0496
2913.00,0.0486
2912.00,0.0477
2911.00,0.0468
2910.00,0.0459
2909.00,0.0450
2908.00,0.0441
2907.00,0.0434
2906.00,0.0427
2905.00,0.0421
2904.00,0.0416
2903.00,0.0411
2902.00,0.0408
2901.00,0.0405
2900.00,0.0402
2899.00,0.0400
2898.00,0.0399
2897.00,0.0398
2896.00,0.0397
2895.00,0.0397
2894.00,0.0396
2893.00,0.0396
2892.00,0.0395
2891.00,0.0395
2890.00,0.0395
2889.00,0.0394
2888.00,0.0394
2887.00,0.0394
2886.00,0.0393
2885.00,0.0393
2884.00,0.0393
2883.00,0.0394
2882.00,0.0395
2881.00,0.0396
2880.00,0.0397
2879.00,0.0398
2878.00,0.0400
2877.00,0.0403
2876.00,0.0406
2875.00,0.0408
2874.00,0.0411
2873.00,0.0413
2872.00,0.0414
2871.00,0.0415
2870.00,0.0415
2869.00,0.0414
2868.00,0.0412
2867.00,0.0411
2866.00,0.0409
2865.00,0.0408
2864.00,0.0408
2863.00,0.0408
2862.00,0.0408
2861.00,0.0409
2860.00,0.0410
2859.00,0.0410
2858.00,0.0409
2857.00,0.0406
2856.00,0.0402
2855.00,0.0396
2854.00,0.0390
2853.00,0.0381
2852.00,0.0372
2851.00,0.0362
2850.00,0.0352
2849.00,0.0341
2848.00,0.0330
2847.00,0.0320
2846.00,0.0310
2845.00,0.0301
2844.00,0.0291
2843.00,0.0282
2842.00,0.0273
2841.00,0.0265
2840.00,0.0257
2839.00,0.0251
2838.00,0.0245
2837.00,0.0240
2836.00,0.0235
2835.00,0.0230
2834.00,0.0225
2833.00,0.0221
2832.00,0.0216
2831.00,0.0212
2830.00,0.0208
2829.00,0.0204
2828.00,0.0200
2827.00,0.0197
2826.00,0.0193
2825.00,0.0190
2824.00,0.0186
2823.00,0.0183
2822.00,0.0181
2821.00,0.0178
2820.00,0.0175
2819.00,0.0173
2818.00,0.0170
2817.00,0.0168
2816.00,0.0166
2815.00,0.0164
2814.00,0.0163
2813.00,0.0161
2812.00,0.0159
2811.00,0.0158
2810.00,0.0156
2809.00,0.0155
2808.00,0.0153
2807.00,0.0152
2806.00,0.0151
2805.00,0.0150
2804.00,0.0149
2803.00,0.0148
2802.00,0.0147
2801.00,0.0146
2800.00,0.0145
2799.00,0.0144
2798.00,0.0143
2797.00,0.0143
2796.00,0.0142
2795.00,0.0141
2794.00,0.0140
2793.00,0.0139
2792.00,0.0138
2791.00,0.0138
2790.00,0.0137
2789.00,0.0137
2788.00,0.0136
2787.00,0.0136
2786.00,0.0135
2785.00,0.0135
2784.00,0.0134
2783.00,0.0133
2782.00,0.0133
2781.00,0.0132
2780.00,0.0132
2779.00,0.0131
2778.00,0.0130
2777.00,0.0130
2776.00,0.0129
2775.00,0.0128
2774.00,0.0128
2773.00,0.0128
2772.00,0.0127
2771.00,0.0127
2770.00,0.0127
2769.00,0.0126
2768.00,0.0126
2767.00,0.0126
2766.00,0.0125
2765.00,0.0125
2764.00,0.0125
2763.00,0.0124
2762.00,0.0124
2761.00,0.0124
2760.00,0.0124
2759.00,0.0124
2758.00,0.0124
2757.00,0.0124
