Created as New Dataset,Sample 283 By YargerLab Date Saturday, October 18 2025
cm-1,A
4000.00,0.0030
3999.00,0.0030
3998.00,0.0030
3997.00,0.0031
3996.00,0.0030
3995.00,0.0030
3994.00,0.0030
3993.00,0.0030
3992.00,0.0030
3991.00,0.0030
3990.00,0.0030
3989.00,0.0030
3988.00,0.0029
3987.00,0.0029
3986.00,0.0029
3985.00,0.0030
3984.00,0.0030
3983.00,0.0030
3982.00,0.0030
3981.00,0.0030
3980.00,0.0030
3979.00,0.0030
3978.00,0.0030
3977.00,0.0030
3976.00,0.0030
3975.00,0.0029
3974.00,0.0029
3973.00,0.0029
3972.00,0.0029
3971.00,0.0029
3970.00,0.0029
3969.00,0.0029
3968.00,0.0029
3967.00,0.0029
3966.00,0.0030
3965.00,0.0030
3964.00,0.0030
3963.00,0.0030
3962.00,0.0030
3961.00,0.0030
3960.00,0.0030
3959.00,0.0030
3958.00,0.0030
3957.00,0.0030
3956.00,0.0030
3955.00,0.0030
3954.00,0.0030
3953.00,0.0030
3952.00,0.0030
3951.00,0.0030
3950.00,0.0030
3949.00,0.0030
3948.00,0.0030
3947.00,0.0030
3946.00,0.0030
3945.00,0.0030
3944.00,0.0030
3943.00,0.0030
3942.00,0.0030
3941.00,0.0030
3940.00,0.0029
3939.00,0.0029
3938.00,0.0029
3937.00,0.0029
3936.00,0.0030
3935.00,0.0030
3934.00,0.0030
3933.00,0.0030
3932.00,0.0030
3931.00,0.0030
3930.00,0.0030
3929.00,0.0030
3928.00,0.0030
3927.00,0.0030
3926.00,0.0030
3925.00,0.0030
3924.00,0.0030
3923.00,0.0030
3922.00,0.0030
3921.00,0.0030
3920.00,0.0030
3919.00,0.0029
3918.00,0.0029
3917.00,0.0029
3916.00,0.0029
3915.00,0.0029
3914.00,0.0029
3913.00,0.0029
3912.00,0.0030
3911.00,0.0030
3910.00,0.0030
3909.00,0.0030
3908.00,0.0030
3907.00,0.0030
3906.00,0.0030
3905.00,0.0030
3904.00,0.0030
3903.00,0.0030
3902.00,0.0030
3901.00,0.0030
3900.00,0.0029
3899.00,0.0029
3898.00,0.0029
3897.00,0.0029
3896.00,0.0030
3895.00,0.0030
3894.00,0.0030
3893.00,0.0030
3892.00,0.0030
3891.00,0.0030
3890.00,0.0030
3889.00,0.0030
3888.00,0.0030
3887.00,0.0030
3886.00,0.0030
3885.00,0.0030
3884.00,0.0030
3883.00,0.0030
3882.00,0.0030
3881.00,0.0029
3880.00,0.0029
3879.00,0.0030
3878.00,0.0030
3877.00,0.0030
3876.00,0.0030
3875.00,0.0030
3874.00,0.0030
3873.00,0.0030
3872.00,0.0030
3871.00,0.0030
3870.00,0.0030
3869.00,0.0031
3868.00,0.0031
3867.00,0.0031
3866.00,0.0030
3865.00,0.0030
3864.00,0.0030
3863.00,0.0030
3862.00,0.0030
3861.00,0.0030
3860.00,0.0030
3859.00,0.0030
3858.00,0.0030
3857.00,0.0030
3856.00,0.0031
3855.00,0.0031
3854.00,0.0030
3853.00,0.0030
3852.00,0.0030
3851.00,0.0031
3850.00,0.0030
3849.00,0.0030
3848.00,0.0030
3847.00,0.0030
3846.00,0.0030
3845.00,0.0030
3844.00,0.0030
3843.00,0.0030
3842.00,0.0030
3841.00,0.0030
3840.00,0.0030
3839.00,0.0030
3838.00,0.0030
3837.00,0.0030
3836.00,0.0030
3835.00,0.0030
3834.00,0.0030
3833.00,0.0030
3832.00,0.0030
3831.00,0.0030
3830.00,0.0030
3829.00,0.0030
3828.00,0.0030
3827.00,0.0030
3826.00,0.0031
3825.00,0.0031
3824.00,0.0031
3823.00,0.0031
3822.00,0.0030
3821.00,0.0030
3820.00,0.0031
3819.00,0.0031
3818.00,0.0030
3817.00,0.0030
3816.00,0.0030
3815.00,0.0030
3814.00,0.0031
3813.00,0.0031
3812.00,0.0030
3811.00,0.0030
3810.00,0.0030
3809.00,0.0030
3808.00,0.0030
3807.00,0.0030
3806.00,0.0030
3805.00,0.0030
3804.00,0.0031
3803.00,0.0030
3802.00,0.0030
3801.00,0.0030
3800.00,0.0031
3799.00,0.0031
3798.00,0.0030
3797.00,0.0030
3796.00,0.0030
3795.00,0.0030
3794.00,0.0030
3793.00,0.0030
3792.00,0.0030
3791.00,0.0030
3790.00,0.0030
3789.00,0.0030
3788.00,0.0030
3787.00,0.0030
3786.00,0.0030
3785.00,0.0030
3784.00,0.0030
3783.00,0.0030
3782.00,0.0030
3781.00,0.0030
3780.00,0.0030
3779.00,0.0030
3778.00,0.0030
3777.00,0.0030
3776.00,0.0030
3775.00,0.0030
3774.00,0.0030
3773.00,0.0031
3772.00,0.0031
3771.00,0.0030
3770.00,0.0030
3769.00,0.0030
3768.00,0.0030
3767.00,0.0030
3766.00,0.0030
3765.00,0.0030
3764.00,0.0030
3763.00,0.0030
3762.00,0.0031
3761.00,0.0031
3760.00,0.0031
3759.00,0.0031
3758.00,0.0031
3757.00,0.0031
3756.00,0.0031
3755.00,0.0031
3754.00,0.0031
3753.00,0.0031
3752.00,0.0030
3751.00,0.0030
3750.00,0.0030
3749.00,0.0031
3748.00,0.0031
3747.00,0.0031
3746.00,0.0031
3745.00,0.0031
3744.00,0.0031
3743.00,0.0031
3742.00,0.0031
3741.00,0.0030
3740.00,0.0030
3739.00,0.0030
3738.00,0.0030
3737.00,0.0030
3736.00,0.0030
3735.00,0.0030
3734.00,0.0030
3733.00,0.0029
3732.00,0.0029
3731.00,0.0029
3730.00,0.0029
3729.00,0.0029
3728.00,0.0029
3727.00,0.0029
3726.00,0.0029
3725.00,0.0029
3724.00,0.0030
3723.00,0.0030
3722.00,0.0030
3721.00,0.0030
3720.00,0.0030
3719.00,0.0030
3718.00,0.0030
3717.00,0.0030
3716.00,0.0030
3715.00,0.0030
3714.00,0.0030
3713.00,0.0030
3712.00,0.0030
3711.00,0.0030
3710.00,0.0030
3709.00,0.0030
3708.00,0.0030
3707.00,0.0030
3706.00,0.0030
3705.00,0.0029
3704.00,0.0029
3703.00,0.0029
3702.00,0.0028
3701.00,0.0029
3700.00,0.0029
3699.00,0.0029
3698.00,0.0029
3697.00,0.0029
3696.00,0.0029
3695.00,0.0029
3694.00,0.0029
3693.00,0.0029
3692.00,0.0030
3691.00,0.0030
3690.00,0.0030
3689.00,0.0030
3688.00,0.0030
3687.00,0.0030
3686.00,0.0030
3685.00,0.0029
3684.00,0.0029
3683.00,0.0029
3682.00,0.0029
3681.00,0.0029
3680.00,0.0030
3679.00,0.0030
3678.00,0.0030
3677.00,0.0030
3676.00,0.0030
3675.00,0.0030
3674.00,0.0030
3673.00,0.0030
3672.00,0.0030
3671.00,0.0029
3670.00,0.0029
3669.00,0.0029
3668.00,0.0030
3667.00,0.0029
3666.00,0.0029
3665.00,0.0029
3664.00,0.0030
3663.00,0.0030
3662.00,0.0030
3661.00,0.0031
3660.00,0.0031
3659.00,0.0031
3658.00,0.0030
3657.00,0.0030
3656.00,0.0030
3655.00,0.0031
3654.00,0.0031
3653.00,0.0031
3652.00,0.0031
3651.00,0.0031
3650.00,0.0032
3649.00,0.0032
3648.00,0.0032
3647.00,0.0032
3646.00,0.0031
3645.00,0.0031
3644.00,0.0031
3643.00,0.0031
3642.00,0.0031
3641.00,0.0031
3640.00,0.0031
3639.00,0.0031
3638.00,0.0031
3637.00,0.0031
3636.00,0.0032
3635.00,0.0032
3634.00,0.0032
3633.00,0.0032
3632.00,0.0033
3631.00,0.0033
3630.00,0.0033
3629.00,0.0033
3628.00,0.0032
3627.00,0.0032
3626.00,0.0032
3625.00,0.0031
3624.00,0.0031
3623.00,0.0032
3622.00,0.0032
3621.00,0.0033
3620.00,0.0033
3619.00,0.0033
3618.00,0.0034
3617.00,0.0034
3616.00,0.0034
3615.00,0.0034
3614.00,0.0034
3613.00,0.0035
3612.00,0.0035
3611.00,0.0035
3610.00,0.0035
3609.00,0.0035
3608.00,0.0035
3607.00,0.0035
3606.00,0.0035
3605.00,0.0035
3604.00,0.0035
3603.00,0.0035
3602.00,0.0035
3601.00,0.0035
3600.00,0.0036
3599.00,0.0036
3598.00,0.0036
3597.00,0.0036
3596.00,0.0036
3595.00,0.0036
3594.00,0.0036
3593.00,0.0036
3592.00,0.0037
3591.00,0.0037
3590.00,0.0037
3589.00,0.0038
3588.00,0.0038
3587.00,0.0038
3586.00,0.0038
3585.00,0.0038
3584.00,0.0038
3583.00,0.0038
3582.00,0.0038
3581.00,0.0039
3580.00,0.0039
3579.00,0.0039
3578.00,0.0040
3577.00,0.0040
3576.00,0.0040
3575.00,0.0040
3574.00,0.0040
3573.00,0.0041
3572.00,0.0041
3571.00,0.0041
3570.00,0.0041
3569.00,0.0041
3568.00,0.0042
3567.00,0.0042
3566.00,0.0042
3565.00,0.0043
3564.00,0.0043
3563.00,0.0043
3562.00,0.0043
3561.00,0.0043
3560.00,0.0043
3559.00,0.0043
3558.00,0.0043
3557.00,0.0044
3556.00,0.0044
3555.00,0.0044
3554.00,0.0044
3553.00,0.0044
3552.00,0.0045
3551.00,0.0045
3550.00,0.0046
3549.00,0.0046
3548.00,0.0046
3547.00,0.0046
3546.00,0.0047
3545.00,0.0047
3544.00,0.0047
3543.00,0.0048
3542.00,0.0048
3541.00,0.0048
3540.00,0.0048
3539.00,0.0048
3538.00,0.0048
3537.00,0.0048
3536.00,0.0049
3535.00,0.0049
3534.00,0.0049
3533.00,0.0049
3532.00,0.0049
3531.00,0.0049
3530.00,0.0050
3529.00,0.0050
3528.00,0.0050
3527.00,0.0051
3526.00,0.0051
3525.00,0.0051
3524.00,0.0051
3523.00,0.0051
3522.00,0.0051
3521.00,0.0052
3520.00,0.0052
3519.00,0.0052
3518.00,0.0053
3517.00,0.0053
3516.00,0.0053
3515.00,0.0053
3514.00,0.0053
3513.00,0.0054
3512.00,0.0054
3511.00,0.0054
3510.00,0.0055
3509.00,0.0055
3508.00,0.0055
3507.00,0.0055
3506.00,0.0055
3505.00,0.0055
3504.00,0.0055
3503.00,0.0055
3502.00,0.0056
3501.00,0.0056
3500.00,0.0056
3499.00,0.0056
3498.00,0.0057
3497.00,0.0057
3496.00,0.0058
3495.00,0.0058
3494.00,0.0058
3493.00,0.0059
3492.00,0.0059
3491.00,0.0059
3490.00,0.0059
3489.00,0.0059
3488.00,0.0059
3487.00,0.0060
3486.00,0.0060
3485.00,0.0060
3484.00,0.0061
3483.00,0.0061
3482.00,0.0061
3481.00,0.0061
3480.00,0.0062
3479.00,0.0062
3478.00,0.0062
3477.00,0.0062
3476.00,0.0062
3475.00,0.0063
3474.00,0.0063
3473.00,0.0063
3472.00,0.0063
3471.00,0.0064
3470.00,0.0064
3469.00,0.0064
3468.00,0.0064
3467.00,0.0064
3466.00,0.0064
3465.00,0.0064
3464.00,0.0064
3463.00,0.0065
3462.00,0.0065
3461.00,0.0066
3460.00,0.0066
3459.00,0.0066
3458.00,0.0067
3457.00,0.0067
3456.00,0.0067
3455.00,0.0067
3454.00,0.0067
3453.00,0.0067
3452.00,0.0067
3451.00,0.0068
3450.00,0.0068
3449.00,0.0068
3448.00,0.0068
3447.00,0.0068
3446.00,0.0069
3445.00,0.0069
3444.00,0.0069
3443.00,0.0069
3442.00,0.0069
3441.00,0.0069
3440.00,0.0069
3439.00,0.0069
3438.00,0.0069
3437.00,0.0069
3436.00,0.0069
3435.00,0.0070
3434.00,0.0070
3433.00,0.0070
3432.00,0.0070
3431.00,0.0070
3430.00,0.0070
3429.00,0.0070
3428.00,0.0071
3427.00,0.0071
3426.00,0.0071
3425.00,0.0071
3424.00,0.0072
3423.00,0.0072
3422.00,0.0072
3421.00,0.0072
3420.00,0.0072
3419.00,0.0073
3418.00,0.0073
3417.00,0.0073
3416.00,0.0073
3415.00,0.0073
3414.00,0.0073
3413.00,0.0073
3412.00,0.0073
3411.00,0.0073
3410.00,0.0073
3409.00,0.0073
3408.00,0.0074
3407.00,0.0074
3406.00,0.0074
3405.00,0.0074
3404.00,0.0074
3403.00,0.0074
3402.00,0.0074
3401.00,0.0075
3400.00,0.0075
3399.00,0.0076
3398.00,0.0076
3397.00,0.0076
3396.00,0.0076
3395.00,0.0076
3394.00,0.0076
3393.00,0.0076
3392.00,0.0076
3391.00,0.0076
3390.00,0.0076
3389.00,0.0076
3388.00,0.0077
3387.00,0.0077
3386.00,0.0078
3385.00,0.0078
3384.00,0.0078
3383.00,0.0078
3382.00,0.0078
3381.00,0.0078
3380.00,0.0079
3379.00,0.0079
3378.00,0.0079
3377.00,0.0079
3376.00,0.0079
3375.00,0.0080
3374.00,0.0080
3373.00,0.0080
3372.00,0.0079
3371.00,0.0079
3370.00,0.0079
3369.00,0.0079
3368.00,0.0079
3367.00,0.0080
3366.00,0.0080
3365.00,0.0081
3364.00,0.0081
3363.00,0.0081
3362.00,0.0081
3361.00,0.0082
3360.00,0.0082
3359.00,0.0082
3358.00,0.0083
3357.00,0.0083
3356.00,0.0083
3355.00,0.0083
3354.00,0.0083
3353.00,0.0083
3352.00,0.0082
3351.00,0.0082
3350.00,0.0083
3349.00,0.0083
3348.00,0.0084
3347.00,0.0084
3346.00,0.0084
3345.00,0.0084
3344.00,0.0083
3343.00,0.0083
3342.00,0.0083
3341.00,0.0084
3340.00,0.0083
3339.00,0.0083
3338.00,0.0084
3337.00,0.0084
3336.00,0.0085
3335.00,0.0085
3334.00,0.0085
3333.00,0.0086
3332.00,0.0086
3331.00,0.0086
3330.00,0.0086
3329.00,0.0086
3328.00,0.0086
3327.00,0.0086
3326.00,0.0086
3325.00,0.0086
3324.00,0.0086
3323.00,0.0086
3322.00,0.0086
3321.00,0.0087
3320.00,0.0087
3319.00,0.0087
3318.00,0.0088
3317.00,0.0088
3316.00,0.0088
3315.00,0.0088
3314.00,0.0088
3313.00,0.0088
3312.00,0.0087
3311.00,0.0086
3310.00,0.0086
3309.00,0.0086
3308.00,0.0085
3307.00,0.0085
3306.00,0.0086
3305.00,0.0086
3304.00,0.0087
3303.00,0.0088
3302.00,0.0088
3301.00,0.0089
3300.00,0.0089
3299.00,0.0089
3298.00,0.0088
3297.00,0.0088
3296.00,0.0088
3295.00,0.0088
3294.00,0.0088
3293.00,0.0088
3292.00,0.0088
3291.00,0.0089
3290.00,0.0089
3289.00,0.0090
3288.00,0.0090
3287.00,0.0090
3286.00,0.0090
3285.00,0.0090
3284.00,0.0090
3283.00,0.0090
3282.00,0.0090
3281.00,0.0090
3280.00,0.0090
3279.00,0.0090
3278.00,0.0090
3277.00,0.0090
3276.00,0.0090
3275.00,0.0090
3274.00,0.0090
3273.00,0.0089
3272.00,0.0089
3271.00,0.0090
3270.00,0.0090
3269.00,0.0090
3268.00,0.0091
3267.00,0.0091
3266.00,0.0091
3265.00,0.0091
3264.00,0.0091
3263.00,0.0091
3262.00,0.0091
3261.00,0.0091
3260.00,0.0091
3259.00,0.0091
3258.00,0.0091
3257.00,0.0091
3256.00,0.0091
3255.00,0.0091
3254.00,0.0091
3253.00,0.0091
3252.00,0.0091
3251.00,0.0091
3250.00,0.0091
3249.00,0.0091
3248.00,0.0091
3247.00,0.0091
3246.00,0.0091
3245.00,0.0091
3244.00,0.0091
3243.00,0.0092
3242.00,0.0092
3241.00,0.0092
3240.00,0.0092
3239.00,0.0092
3238.00,0.0092
3237.00,0.0092
3236.00,0.0091
3235.00,0.0091
3234.00,0.0091
3233.00,0.0091
3232.00,0.0091
3231.00,0.0091
3230.00,0.0092
3229.00,0.0092
3228.00,0.0092
3227.00,0.0091
3226.00,0.0091
3225.00,0.0091
3224.00,0.0091
3223.00,0.0091
3222.00,0.0091
3221.00,0.0091
3220.00,0.0091
3219.00,0.0091
3218.00,0.0091
3217.00,0.0091
3216.00,0.0091
3215.00,0.0091
3214.00,0.0091
3213.00,0.0091
3212.00,0.0091
3211.00,0.0091
3210.00,0.0091
3209.00,0.0091
3208.00,0.0091
3207.00,0.0091
3206.00,0.0091
3205.00,0.0091
3204.00,0.0090
3203.00,0.0090
3202.00,0.0090
3201.00,0.0090
3200.00,0.0090
3199.00,0.0090
3198.00,0.0090
3197.00,0.0090
3196.00,0.0090
3195.00,0.0090
3194.00,0.0090
3193.00,0.0090
3192.00,0.0090
3191.00,0.0090
3190.00,0.0090
3189.00,0.0090
3188.00,0.0090
3187.00,0.0090
3186.00,0.0090
3185.00,0.0090
3184.00,0.0090
3183.00,0.0090
3182.00,0.0090
3181.00,0.0090
3180.00,0.0090
3179.00,0.0090
3178.00,0.0090
3177.00,0.0090
3176.00,0.0090
3175.00,0.0090
3174.00,0.0090
3173.00,0.0090
3172.00,0.0090
3171.00,0.0090
3170.00,0.0090
3169.00,0.0089
3168.00,0.0089
3167.00,0.0089
3166.00,0.0089
3165.00,0.0089
3164.00,0.0089
3163.00,0.0088
3162.00,0.0088
3161.00,0.0088
3160.00,0.0088
3159.00,0.0088
3158.00,0.0088
3157.00,0.0088
3156.00,0.0087
3155.00,0.0087
3154.00,0.0087
3153.00,0.0087
3152.00,0.0087
3151.00,0.0087
3150.00,0.0087
3149.00,0.0087
3148.00,0.0087
3147.00,0.0087
3146.00,0.0086
3145.00,0.0086
3144.00,0.0086
3143.00,0.0086
3142.00,0.0086
3141.00,0.0086
3140.00,0.0086
3139.00,0.0085
3138.00,0.0085
3137.00,0.0085
3136.00,0.0085
3135.00,0.0085
3134.00,0.0085
3133.00,0.0085
3132.00,0.0085
3131.00,0.0085
3130.00,0.0085
3129.00,0.0085
3128.00,0.0085
3127.00,0.0085
3126.00,0.0085
3125.00,0.0085
3124.00,0.0085
3123.00,0.0085
3122.00,0.0084
3121.00,0.0084
3120.00,0.0084
3119.00,0.0084
3118.00,0.0084
3117.00,0.0083
3116.00,0.0083
3115.00,0.0083
3114.00,0.0083
3113.00,0.0083
3112.00,0.0083
3111.00,0.0083
3110.00,0.0083
3109.00,0.0083
3108.00,0.0082
3107.00,0.0082
3106.00,0.0082
3105.00,0.0082
3104.00,0.0082
3103.00,0.0082
3102.00,0.0082
3101.00,0.0082
3100.00,0.0081
3099.00,0.0081
3098.00,0.0081
3097.00,0.0081
3096.00,0.0081
3095.00,0.0081
3094.00,0.0081
3093.00,0.0081
3092.00,0.0081
3091.00,0.0081
3090.00,0.0081
3089.00,0.0081
3088.00,0.0081
3087.00,0.0081
3086.00,0.0081
3085.00,0.0081
3084.00,0.0081
3083.00,0.0081
3082.00,0.0081
3081.00,0.0081
3080.00,0.0081
3079.00,0.0081
3078.00,0.0081
3077.00,0.0081
3076.00,0.0081
3075.00,0.0081
3074.00,0.0081
3073.00,0.0081
3072.00,0.0080
3071.00,0.0080
3070.00,0.0080
3069.00,0.0080
3068.00,0.0080
3067.00,0.0080
3066.00,0.0079
3065.00,0.0079
3064.00,0.0079
3063.00,0.0079
3062.00,0.0079
3061.00,0.0079
3060.00,0.0078
3059.00,0.0078
3058.00,0.0078
3057.00,0.0078
3056.00,0.0078
3055.00,0.0077
3054.00,0.0077
3053.00,0.0077
3052.00,0.0077
3051.00,0.0077
3050.00,0.0077
3049.00,0.0077
3048.00,0.0077
3047.00,0.0077
3046.00,0.0077
3045.00,0.0077
3044.00,0.0077
3043.00,0.0077
3042.00,0.0076
3041.00,0.0076
3040.00,0.0076
3039.00,0.0076
3038.00,0.0076
3037.00,0.0076
3036.00,0.0076
3035.00,0.0075
3034.00,0.0075
3033.00,0.0075
3032.00,0.0075
3031.00,0.0075
3030.00,0.0075
3029.00,0.0075
3028.00,0.0075
3027.00,0.0075
3026.00,0.0075
3025.00,0.0075
3024.00,0.0074
3023.00,0.0074
3022.00,0.0074
3021.00,0.0074
3020.00,0.0074
3019.00,0.0074
3018.00,0.0074
3017.00,0.0073
3016.00,0.0073
3015.00,0.0074
3014.00,0.0074
3013.00,0.0074
3012.00,0.0075
3011.00,0.0075
3010.00,0.0075
3009.00,0.0076
3008.00,0.0076
3007.00,0.0077
3006.00,0.0078
3005.00,0.0079
3004.00,0.0080
3003.00,0.0081
3002.00,0.0082
3001.00,0.0083
3000.00,0.0085
2999.00,0.0087
2998.00,0.0088
2997.00,0.0090
2996.00,0.0093
2995.00,0.0095
2994.00,0.0097
2993.00,0.0099
2992.00,0.0102
2991.00,0.0105
2990.00,0.0107
2989.00,0.0110
2988.00,0.0113
2987.00,0.0116
2986.00,0.0118
2985.00,0.0121
2984.00,0.0123
2983.00,0.0124
2982.00,0.0126
2981.00,0.0128
2980.00,0.0130
2979.00,0.0132
2978.00,0.0134
2977.00,0.0135
2976.00,0.0137
2975.00,0.0139
2974.00,0.0140
2973.00,0.0141
2972.00,0.0142
2971.00,0.0143
2970.00,0.0145
2969.00,0.0147
2968.00,0.0149
2967.00,0.0150
2966.00,0.0152
2965.00,0.0154
2964.00,0.0156
2963.00,0.0158
2962.00,0.0161
2961.00,0.0163
2960.00,0.0165
2959.00,0.0166
2958.00,0.0168
2957.00,0.0169
2956.00,0.0171
2955.00,0.0172
2954.00,0.0173
2953.00,0.0174
2952.00,0.0174
2951.00,0.0174
2950.00,0.0173
2949.00,0.0173
2948.00,0.0173
2947.00,0.0172
2946.00,0.0172
2945.00,0.0172
2944.00,0.0172
2943.00,0.0173
2942.00,0.0174
2941.00,0.0175
2940.00,0.0177
2939.00,0.0178
2938.00,0.0179
2937.00,0.0181
2936.00,0.0183
2935.00,0.0184
2934.00,0.0186
2933.00,0.0188
2932.00,0.0190
2931.00,0.0192
2930.00,0.0194
2929.00,0.0195
2928.00,0.0196
2927.00,0.0197
2926.00,0.0198
2925.00,0.0199
2924.00,0.0199
2923.00,0.0198
2922.00,0.0198
2921.00,0.0196
2920.00,0.0195
2919.00,0.0193
2918.00,0.0191
2917.00,0.0189
2916.00,0.0187
2915.00,0.0184
2914.00,0.0182
2913.00,0.0179
2912.00,0.0176
2911.00,0.0173
2910.00,0.0170
2909.00,0.0168
2908.00,0.0165
2907.00,0.0163
2906.00,0.0161
2905.00,0.0159
2904.00,0.0157
2903.00,0.0156
2902.00,0.0154
2901.00,0.0153
2900.00,0.0152
2899.00,0.0151
2898.00,0.0150
2897.00,0.0150
2896.00,0.0149
2895.00,0.0149
2894.00,0.0148
2893.00,0.0148
2892.00,0.0147
2891.00,0.0147
2890.00,0.0147
2889.00,0.0146
2888.00,0.0146
2887.00,0.0146
2886.00,0.0145
2885.00,0.0145
2884.00,0.0145
2883.00,0.0145
2882.00,0.0145
2881.00,0.0145
2880.00,0.0145
2879.00,0.0146
2878.00,0.0147
2877.00,0.0148
2876.00,0.0149
2875.00,0.0150
2874.00,0.0151
2873.00,0.0152
2872.00,0.0152
2871.00,0.0153
2870.00,0.0153
2869.00,0.0153
2868.00,0.0152
2867.00,0.0152
2866.00,0.0152
2865.00,0.0152
2864.00,0.0152
2863.00,0.0153
2862.00,0.0153
2861.00,0.0154
2860.00,0.0154
2859.00,0.0155
2858.00,0.0155
2857.00,0.0155
2856.00,0.0154
2855.00,0.0152
2854.00,0.0151
2853.00,0.0149
2852.00,0.0146
2851.00,0.0143
2850.00,0.0140
2849.00,0.0137
2848.00,0.0133
2847.00,0.0130
2846.00,0.0127
2845.00,0.0124
2844.00,0.0121
2843.00,0.0119
2842.00,0.0116
2841.00,0.0113
2840.00,0.0110
2839.00,0.0108
2838.00,0.0107
2837.00,0.0105
2836.00,0.0104
2835.00,0.0103
2834.00,0.0102
2833.00,0.0101
2832.00,0.0100
2831.00,0.0099
2830.00,0.0098
2829.00,0.0097
2828.00,0.0096
2827.00,0.0095
2826.00,0.0094
2825.00,0.0093
2824.00,0.0093
2823.00,0.0092
2822.00,0.0091
2821.00,0.0090
2820.00,0.0089
2819.00,0.0089
2818.00,0.0088
2817.00,0.0087
2816.00,0.0086
2815.00,0.0085
2814.00,0.0084
2813.00,0.0083
2812.00,0.0083
2811.00,0.0082
2810.00,0.0081
2809.00,0.0080
2808.00,0.0080
2807.00,0.0079
2806.00,0.0078
2805.00,0.0077
2804.00,0.0077
2803.00,0.0076
2802.00,0.0075
2801.00,0.0075
2800.00,0.0074
2799.00,0.0073
2798.00,0.0073
2797.00,0.0073
2796.00,0.0073
2795.00,0.0073
2794.00,0.0072
2793.00,0.0072
2792.00,0.0071
2791.00,0.0071
2790.00,0.0070
2789.00,0.0070
2788.00,0.0070
2787.00,0.0069
2786.00,0.0069
2785.00,0.0069
2784.00,0.0069
2783.00,0.0068
2782.00,0.0068
2781.00,0.0068
2780.00,0.0067
2779.00,0.0067
2778.00,0.0067
2777.00,0.0067
2776.00,0.0066
2775.00,0.0066
2774.00,0.0066
2773.00,0.0066
2772.00,0.0066
2771.00,0.0065
2770.00,0.0065
2769.00,0.0065
2768.00,0.0065
2767.00,0.0065
2766.00,0.0065
2765.00,0.0065
2764.00,0.0064
2763.00,0.0064
2762.00,0.0064
2761.00,0.0064
2760.00,0.0064
2759.00,0.0064
2758.00,0.0064
2757.00,0.0064
