Created as New Dataset,Sample 288 By YargerLab Date Saturday, October 18 2025
cm-1,A
4000.00,0.0077
3999.00,0.0077
3998.00,0.0077
3997.00,0.0077
3996.00,0.0077
3995.00,0.0077
3994.00,0.0077
3993.00,0.0077
3992.00,0.0077
3991.00,0.0077
3990.00,0.0077
3989.00,0.0077
3988.00,0.0077
3987.00,0.0077
3986.00,0.0077
3985.00,0.0076
3984.00,0.0076
3983.00,0.0076
3982.00,0.0076
3981.00,0.0076
3980.00,0.0076
3979.00,0.0076
3978.00,0.0076
3977.00,0.0076
3976.00,0.0076
3975.00,0.0076
3974.00,0.0076
3973.00,0.0076
3972.00,0.0076
3971.00,0.0076
3970.00,0.0076
3969.00,0.0076
3968.00,0.0076
3967.00,0.0076
3966.00,0.0076
3965.00,0.0076
3964.00,0.0076
3963.00,0.0077
3962.00,0.0077
3961.00,0.0076
3960.00,0.0076
3959.00,0.0076
3958.00,0.0076
3957.00,0.0076
3956.00,0.0076
3955.00,0.0076
3954.00,0.0076
3953.00,0.0077
3952.00,0.0077
3951.00,0.0077
3950.00,0.0077
3949.00,0.0077
3948.00,0.0077
3947.00,0.0077
3946.00,0.0077
3945.00,0.0077
3944.00,0.0077
3943.00,0.0077
3942.00,0.0077
3941.00,0.0076
3940.00,0.0076
3939.00,0.0076
3938.00,0.0076
3937.00,0.0076
3936.00,0.0076
3935.00,0.0076
3934.00,0.0076
3933.00,0.0076
3932.00,0.0076
3931.00,0.0076
3930.00,0.0076
3929.00,0.0076
3928.00,0.0076
3927.00,0.0076
3926.00,0.0076
3925.00,0.0076
3924.00,0.0076
3923.00,0.0076
3922.00,0.0076
3921.00,0.0076
3920.00,0.0076
3919.00,0.0076
3918.00,0.0075
3917.00,0.0075
3916.00,0.0075
3915.00,0.0076
3914.00,0.0076
3913.00,0.0076
3912.00,0.0076
3911.00,0.0076
3910.00,0.0076
3909.00,0.0076
3908.00,0.0076
3907.00,0.0076
3906.00,0.0076
3905.00,0.0075
3904.00,0.0075
3903.00,0.0075
3902.00,0.0075
3901.00,0.0075
3900.00,0.0075
3899.00,0.0075
3898.00,0.0075
3897.00,0.0075
3896.00,0.0075
3895.00,0.0076
3894.00,0.0076
3893.00,0.0076
3892.00,0.0076
3891.00,0.0076
3890.00,0.0076
3889.00,0.0075
3888.00,0.0075
3887.00,0.0075
3886.00,0.0075
3885.00,0.0075
3884.00,0.0075
3883.00,0.0075
3882.00,0.0075
3881.00,0.0075
3880.00,0.0075
3879.00,0.0075
3878.00,0.0075
3877.00,0.0075
3876.00,0.0075
3875.00,0.0075
3874.00,0.0075
3873.00,0.0074
3872.00,0.0074
3871.00,0.0075
3870.00,0.0075
3869.00,0.0075
3868.00,0.0075
3867.00,0.0075
3866.00,0.0075
3865.00,0.0075
3864.00,0.0074
3863.00,0.0074
3862.00,0.0074
3861.00,0.0074
3860.00,0.0074
3859.00,0.0074
3858.00,0.0074
3857.00,0.0074
3856.00,0.0075
3855.00,0.0075
3854.00,0.0075
3853.00,0.0074
3852.00,0.0074
3851.00,0.0074
3850.00,0.0075
3849.00,0.0075
3848.00,0.0075
3847.00,0.0075
3846.00,0.0074
3845.00,0.0074
3844.00,0.0074
3843.00,0.0074
3842.00,0.0074
3841.00,0.0074
3840.00,0.0074
3839.00,0.0074
3838.00,0.0074
3837.00,0.0074
3836.00,0.0074
3835.00,0.0074
3834.00,0.0074
3833.00,0.0074
3832.00,0.0074
3831.00,0.0074
3830.00,0.0074
3829.00,0.0074
3828.00,0.0074
3827.00,0.0074
3826.00,0.0074
3825.00,0.0074
3824.00,0.0074
3823.00,0.0074
3822.00,0.0074
3821.00,0.0074
3820.00,0.0074
3819.00,0.0074
3818.00,0.0074
3817.00,0.0074
3816.00,0.0074
3815.00,0.0074
3814.00,0.0074
3813.00,0.0074
3812.00,0.0074
3811.00,0.0074
3810.00,0.0074
3809.00,0.0074
3808.00,0.0074
3807.00,0.0074
3806.00,0.0074
3805.00,0.0074
3804.00,0.0074
3803.00,0.0074
3802.00,0.0074
3801.00,0.0074
3800.00,0.0074
3799.00,0.0073
3798.00,0.0073
3797.00,0.0074
3796.00,0.0074
3795.00,0.0074
3794.00,0.0074
3793.00,0.0074
3792.00,0.0074
3791.00,0.0074
3790.00,0.0075
3789.00,0.0075
3788.00,0.0075
3787.00,0.0074
3786.00,0.0074
3785.00,0.0074
3784.00,0.0074
3783.00,0.0074
3782.00,0.0074
3781.00,0.0074
3780.00,0.0074
3779.00,0.0074
3778.00,0.0074
3777.00,0.0075
3776.00,0.0075
3775.00,0.0075
3774.00,0.0075
3773.00,0.0075
3772.00,0.0074
3771.00,0.0074
3770.00,0.0074
3769.00,0.0074
3768.00,0.0073
3767.00,0.0074
3766.00,0.0074
3765.00,0.0074
3764.00,0.0074
3763.00,0.0074
3762.00,0.0074
3761.00,0.0074
3760.00,0.0074
3759.00,0.0074
3758.00,0.0074
3757.00,0.0074
3756.00,0.0073
3755.00,0.0073
3754.00,0.0073
3753.00,0.0073
3752.00,0.0073
3751.00,0.0074
3750.00,0.0074
3749.00,0.0074
3748.00,0.0074
3747.00,0.0074
3746.00,0.0074
3745.00,0.0074
3744.00,0.0074
3743.00,0.0073
3742.00,0.0073
3741.00,0.0073
3740.00,0.0073
3739.00,0.0072
3738.00,0.0072
3737.00,0.0072
3736.00,0.0072
3735.00,0.0072
3734.00,0.0072
3733.00,0.0072
3732.00,0.0073
3731.00,0.0073
3730.00,0.0073
3729.00,0.0073
3728.00,0.0073
3727.00,0.0072
3726.00,0.0072
3725.00,0.0072
3724.00,0.0072
3723.00,0.0073
3722.00,0.0073
3721.00,0.0073
3720.00,0.0073
3719.00,0.0073
3718.00,0.0073
3717.00,0.0073
3716.00,0.0073
3715.00,0.0073
3714.00,0.0072
3713.00,0.0072
3712.00,0.0072
3711.00,0.0072
3710.00,0.0072
3709.00,0.0072
3708.00,0.0072
3707.00,0.0072
3706.00,0.0073
3705.00,0.0072
3704.00,0.0072
3703.00,0.0072
3702.00,0.0072
3701.00,0.0072
3700.00,0.0072
3699.00,0.0072
3698.00,0.0072
3697.00,0.0072
3696.00,0.0072
3695.00,0.0072
3694.00,0.0072
3693.00,0.0072
3692.00,0.0072
3691.00,0.0072
3690.00,0.0072
3689.00,0.0072
3688.00,0.0072
3687.00,0.0072
3686.00,0.0072
3685.00,0.0072
3684.00,0.0072
3683.00,0.0072
3682.00,0.0072
3681.00,0.0072
3680.00,0.0072
3679.00,0.0072
3678.00,0.0073
3677.00,0.0073
3676.00,0.0073
3675.00,0.0073
3674.00,0.0072
3673.00,0.0072
3672.00,0.0072
3671.00,0.0072
3670.00,0.0072
3669.00,0.0073
3668.00,0.0073
3667.00,0.0073
3666.00,0.0073
3665.00,0.0074
3664.00,0.0074
3663.00,0.0074
3662.00,0.0075
3661.00,0.0075
3660.00,0.0075
3659.00,0.0075
3658.00,0.0075
3657.00,0.0075
3656.00,0.0075
3655.00,0.0075
3654.00,0.0075
3653.00,0.0075
3652.00,0.0075
3651.00,0.0075
3650.00,0.0075
3649.00,0.0075
3648.00,0.0075
3647.00,0.0075
3646.00,0.0075
3645.00,0.0076
3644.00,0.0076
3643.00,0.0076
3642.00,0.0077
3641.00,0.0077
3640.00,0.0078
3639.00,0.0078
3638.00,0.0078
3637.00,0.0078
3636.00,0.0078
3635.00,0.0078
3634.00,0.0079
3633.00,0.0079
3632.00,0.0079
3631.00,0.0080
3630.00,0.0080
3629.00,0.0080
3628.00,0.0080
3627.00,0.0080
3626.00,0.0080
3625.00,0.0081
3624.00,0.0081
3623.00,0.0081
3622.00,0.0082
3621.00,0.0082
3620.00,0.0083
3619.00,0.0083
3618.00,0.0083
3617.00,0.0084
3616.00,0.0084
3615.00,0.0085
3614.00,0.0085
3613.00,0.0086
3612.00,0.0086
3611.00,0.0086
3610.00,0.0087
3609.00,0.0087
3608.00,0.0088
3607.00,0.0088
3606.00,0.0089
3605.00,0.0089
3604.00,0.0089
3603.00,0.0090
3602.00,0.0090
3601.00,0.0090
3600.00,0.0091
3599.00,0.0091
3598.00,0.0092
3597.00,0.0092
3596.00,0.0093
3595.00,0.0093
3594.00,0.0093
3593.00,0.0093
3592.00,0.0094
3591.00,0.0094
3590.00,0.0095
3589.00,0.0095
3588.00,0.0096
3587.00,0.0096
3586.00,0.0096
3585.00,0.0097
3584.00,0.0097
3583.00,0.0098
3582.00,0.0099
3581.00,0.0099
3580.00,0.0100
3579.00,0.0100
3578.00,0.0101
3577.00,0.0101
3576.00,0.0102
3575.00,0.0102
3574.00,0.0103
3573.00,0.0103
3572.00,0.0104
3571.00,0.0104
3570.00,0.0104
3569.00,0.0105
3568.00,0.0105
3567.00,0.0106
3566.00,0.0107
3565.00,0.0108
3564.00,0.0109
3563.00,0.0109
3562.00,0.0110
3561.00,0.0110
3560.00,0.0111
3559.00,0.0111
3558.00,0.0112
3557.00,0.0113
3556.00,0.0113
3555.00,0.0114
3554.00,0.0114
3553.00,0.0115
3552.00,0.0116
3551.00,0.0117
3550.00,0.0118
3549.00,0.0119
3548.00,0.0119
3547.00,0.0120
3546.00,0.0122
3545.00,0.0123
3544.00,0.0124
3543.00,0.0125
3542.00,0.0126
3541.00,0.0127
3540.00,0.0127
3539.00,0.0128
3538.00,0.0129
3537.00,0.0130
3536.00,0.0131
3535.00,0.0132
3534.00,0.0133
3533.00,0.0134
3532.00,0.0135
3531.00,0.0136
3530.00,0.0137
3529.00,0.0139
3528.00,0.0140
3527.00,0.0141
3526.00,0.0143
3525.00,0.0144
3524.00,0.0145
3523.00,0.0147
3522.00,0.0148
3521.00,0.0150
3520.00,0.0151
3519.00,0.0152
3518.00,0.0154
3517.00,0.0155
3516.00,0.0157
3515.00,0.0158
3514.00,0.0159
3513.00,0.0161
3512.00,0.0163
3511.00,0.0164
3510.00,0.0166
3509.00,0.0167
3508.00,0.0169
3507.00,0.0170
3506.00,0.0172
3505.00,0.0173
3504.00,0.0175
3503.00,0.0177
3502.00,0.0179
3501.00,0.0181
3500.00,0.0183
3499.00,0.0184
3498.00,0.0186
3497.00,0.0188
3496.00,0.0190
3495.00,0.0191
3494.00,0.0193
3493.00,0.0194
3492.00,0.0196
3491.00,0.0197
3490.00,0.0199
3489.00,0.0200
3488.00,0.0202
3487.00,0.0203
3486.00,0.0205
3485.00,0.0206
3484.00,0.0208
3483.00,0.0209
3482.00,0.0211
3481.00,0.0212
3480.00,0.0213
3479.00,0.0214
3478.00,0.0215
3477.00,0.0216
3476.00,0.0217
3475.00,0.0217
3474.00,0.0218
3473.00,0.0219
3472.00,0.0219
3471.00,0.0220
3470.00,0.0221
3469.00,0.0222
3468.00,0.0222
3467.00,0.0223
3466.00,0.0223
3465.00,0.0223
3464.00,0.0223
3463.00,0.0223
3462.00,0.0223
3461.00,0.0223
3460.00,0.0223
3459.00,0.0223
3458.00,0.0223
3457.00,0.0223
3456.00,0.0223
3455.00,0.0222
3454.00,0.0222
3453.00,0.0222
3452.00,0.0221
3451.00,0.0221
3450.00,0.0221
3449.00,0.0220
3448.00,0.0220
3447.00,0.0219
3446.00,0.0219
3445.00,0.0218
3444.00,0.0218
3443.00,0.0217
3442.00,0.0216
3441.00,0.0216
3440.00,0.0215
3439.00,0.0214
3438.00,0.0214
3437.00,0.0213
3436.00,0.0212
3435.00,0.0212
3434.00,0.0211
3433.00,0.0210
3432.00,0.0209
3431.00,0.0209
3430.00,0.0208
3429.00,0.0207
3428.00,0.0206
3427.00,0.0205
3426.00,0.0204
3425.00,0.0203
3424.00,0.0203
3423.00,0.0202
3422.00,0.0201
3421.00,0.0201
3420.00,0.0200
3419.00,0.0199
3418.00,0.0198
3417.00,0.0197
3416.00,0.0196
3415.00,0.0195
3414.00,0.0195
3413.00,0.0194
3412.00,0.0193
3411.00,0.0192
3410.00,0.0191
3409.00,0.0191
3408.00,0.0190
3407.00,0.0189
3406.00,0.0189
3405.00,0.0188
3404.00,0.0188
3403.00,0.0187
3402.00,0.0186
3401.00,0.0185
3400.00,0.0185
3399.00,0.0184
3398.00,0.0183
3397.00,0.0182
3396.00,0.0181
3395.00,0.0180
3394.00,0.0179
3393.00,0.0178
3392.00,0.0178
3391.00,0.0177
3390.00,0.0176
3389.00,0.0175
3388.00,0.0174
3387.00,0.0173
3386.00,0.0172
3385.00,0.0171
3384.00,0.0171
3383.00,0.0170
3382.00,0.0169
3381.00,0.0168
3380.00,0.0167
3379.00,0.0166
3378.00,0.0166
3377.00,0.0165
3376.00,0.0164
3375.00,0.0163
3374.00,0.0162
3373.00,0.0162
3372.00,0.0161
3371.00,0.0160
3370.00,0.0160
3369.00,0.0159
3368.00,0.0158
3367.00,0.0157
3366.00,0.0156
3365.00,0.0155
3364.00,0.0154
3363.00,0.0153
3362.00,0.0152
3361.00,0.0152
3360.00,0.0151
3359.00,0.0150
3358.00,0.0149
3357.00,0.0149
3356.00,0.0148
3355.00,0.0147
3354.00,0.0147
3353.00,0.0146
3352.00,0.0146
3351.00,0.0145
3350.00,0.0144
3349.00,0.0144
3348.00,0.0143
3347.00,0.0142
3346.00,0.0141
3345.00,0.0141
3344.00,0.0140
3343.00,0.0140
3342.00,0.0139
3341.00,0.0139
3340.00,0.0138
3339.00,0.0138
3338.00,0.0137
3337.00,0.0136
3336.00,0.0135
3335.00,0.0135
3334.00,0.0134
3333.00,0.0133
3332.00,0.0133
3331.00,0.0132
3330.00,0.0132
3329.00,0.0131
3328.00,0.0131
3327.00,0.0130
3326.00,0.0129
3325.00,0.0129
3324.00,0.0128
3323.00,0.0127
3322.00,0.0127
3321.00,0.0126
3320.00,0.0126
3319.00,0.0125
3318.00,0.0125
3317.00,0.0124
3316.00,0.0124
3315.00,0.0123
3314.00,0.0123
3313.00,0.0122
3312.00,0.0122
3311.00,0.0122
3310.00,0.0121
3309.00,0.0121
3308.00,0.0121
3307.00,0.0121
3306.00,0.0120
3305.00,0.0120
3304.00,0.0119
3303.00,0.0118
3302.00,0.0118
3301.00,0.0117
3300.00,0.0117
3299.00,0.0117
3298.00,0.0116
3297.00,0.0116
3296.00,0.0115
3295.00,0.0115
3294.00,0.0115
3293.00,0.0114
3292.00,0.0114
3291.00,0.0114
3290.00,0.0113
3289.00,0.0113
3288.00,0.0113
3287.00,0.0112
3286.00,0.0112
3285.00,0.0112
3284.00,0.0112
3283.00,0.0111
3282.00,0.0111
3281.00,0.0110
3280.00,0.0110
3279.00,0.0110
3278.00,0.0109
3277.00,0.0109
3276.00,0.0109
3275.00,0.0108
3274.00,0.0108
3273.00,0.0108
3272.00,0.0108
3271.00,0.0107
3270.00,0.0107
3269.00,0.0107
3268.00,0.0107
3267.00,0.0106
3266.00,0.0106
3265.00,0.0105
3264.00,0.0105
3263.00,0.0105
3262.00,0.0105
3261.00,0.0104
3260.00,0.0104
3259.00,0.0104
3258.00,0.0104
3257.00,0.0103
3256.00,0.0103
3255.00,0.0102
3254.00,0.0102
3253.00,0.0102
3252.00,0.0101
3251.00,0.0101
3250.00,0.0101
3249.00,0.0101
3248.00,0.0100
3247.00,0.0100
3246.00,0.0100
3245.00,0.0100
3244.00,0.0100
3243.00,0.0099
3242.00,0.0099
3241.00,0.0099
3240.00,0.0098
3239.00,0.0098
3238.00,0.0098
3237.00,0.0098
3236.00,0.0097
3235.00,0.0097
3234.00,0.0097
3233.00,0.0097
3232.00,0.0097
3231.00,0.0096
3230.00,0.0096
3229.00,0.0096
3228.00,0.0096
3227.00,0.0095
3226.00,0.0095
3225.00,0.0094
3224.00,0.0094
3223.00,0.0094
3222.00,0.0093
3221.00,0.0093
3220.00,0.0093
3219.00,0.0093
3218.00,0.0093
3217.00,0.0093
3216.00,0.0093
3215.00,0.0092
3214.00,0.0092
3213.00,0.0092
3212.00,0.0092
3211.00,0.0092
3210.00,0.0092
3209.00,0.0092
3208.00,0.0091
3207.00,0.0091
3206.00,0.0091
3205.00,0.0090
3204.00,0.0090
3203.00,0.0090
3202.00,0.0090
3201.00,0.0090
3200.00,0.0090
3199.00,0.0089
3198.00,0.0089
3197.00,0.0089
3196.00,0.0089
3195.00,0.0088
3194.00,0.0088
3193.00,0.0088
3192.00,0.0088
3191.00,0.0088
3190.00,0.0088
3189.00,0.0088
3188.00,0.0088
3187.00,0.0088
3186.00,0.0088
3185.00,0.0088
3184.00,0.0087
3183.00,0.0087
3182.00,0.0087
3181.00,0.0087
3180.00,0.0087
3179.00,0.0087
3178.00,0.0087
3177.00,0.0087
3176.00,0.0087
3175.00,0.0087
3174.00,0.0086
3173.00,0.0086
3172.00,0.0086
3171.00,0.0086
3170.00,0.0086
3169.00,0.0086
3168.00,0.0086
3167.00,0.0086
3166.00,0.0086
3165.00,0.0086
3164.00,0.0086
3163.00,0.0086
3162.00,0.0086
3161.00,0.0086
3160.00,0.0086
3159.00,0.0086
3158.00,0.0086
3157.00,0.0085
3156.00,0.0085
3155.00,0.0085
3154.00,0.0085
3153.00,0.0085
3152.00,0.0085
3151.00,0.0085
3150.00,0.0085
3149.00,0.0085
3148.00,0.0085
3147.00,0.0085
3146.00,0.0085
3145.00,0.0085
3144.00,0.0085
3143.00,0.0085
3142.00,0.0085
3141.00,0.0085
3140.00,0.0085
3139.00,0.0085
3138.00,0.0085
3137.00,0.0085
3136.00,0.0085
3135.00,0.0084
3134.00,0.0084
3133.00,0.0085
3132.00,0.0085
3131.00,0.0085
3130.00,0.0085
3129.00,0.0085
3128.00,0.0085
3127.00,0.0085
3126.00,0.0085
3125.00,0.0085
3124.00,0.0084
3123.00,0.0084
3122.00,0.0084
3121.00,0.0084
3120.00,0.0084
3119.00,0.0084
3118.00,0.0084
3117.00,0.0084
3116.00,0.0084
3115.00,0.0084
3114.00,0.0084
3113.00,0.0084
3112.00,0.0084
3111.00,0.0084
3110.00,0.0084
3109.00,0.0084
3108.00,0.0084
3107.00,0.0084
3106.00,0.0084
3105.00,0.0084
3104.00,0.0085
3103.00,0.0085
3102.00,0.0085
3101.00,0.0085
3100.00,0.0085
3099.00,0.0085
3098.00,0.0084
3097.00,0.0084
3096.00,0.0085
3095.00,0.0085
3094.00,0.0085
3093.00,0.0085
3092.00,0.0085
3091.00,0.0085
3090.00,0.0085
3089.00,0.0085
3088.00,0.0085
3087.00,0.0085
3086.00,0.0084
3085.00,0.0084
3084.00,0.0084
3083.00,0.0085
3082.00,0.0085
3081.00,0.0085
3080.00,0.0085
3079.00,0.0085
3078.00,0.0085
3077.00,0.0085
3076.00,0.0085
3075.00,0.0085
3074.00,0.0085
3073.00,0.0085
3072.00,0.0085
3071.00,0.0085
3070.00,0.0085
3069.00,0.0085
3068.00,0.0085
3067.00,0.0085
3066.00,0.0085
3065.00,0.0085
3064.00,0.0085
3063.00,0.0085
3062.00,0.0085
3061.00,0.0085
3060.00,0.0085
3059.00,0.0085
3058.00,0.0085
3057.00,0.0085
3056.00,0.0085
3055.00,0.0085
3054.00,0.0085
3053.00,0.0086
3052.00,0.0086
3051.00,0.0086
3050.00,0.0086
3049.00,0.0085
3048.00,0.0085
3047.00,0.0085
3046.00,0.0086
3045.00,0.0086
3044.00,0.0086
3043.00,0.0086
3042.00,0.0086
3041.00,0.0086
3040.00,0.0087
3039.00,0.0087
3038.00,0.0087
3037.00,0.0087
3036.00,0.0087
3035.00,0.0087
3034.00,0.0087
3033.00,0.0088
3032.00,0.0088
3031.00,0.0088
3030.00,0.0088
3029.00,0.0088
3028.00,0.0089
3027.00,0.0089
3026.00,0.0089
3025.00,0.0090
3024.00,0.0090
3023.00,0.0090
3022.00,0.0091
3021.00,0.0091
3020.00,0.0092
3019.00,0.0092
3018.00,0.0093
3017.00,0.0093
3016.00,0.0094
3015.00,0.0095
3014.00,0.0096
3013.00,0.0097
3012.00,0.0098
3011.00,0.0099
3010.00,0.0100
3009.00,0.0102
3008.00,0.0103
3007.00,0.0105
3006.00,0.0106
3005.00,0.0108
3004.00,0.0110
3003.00,0.0112
3002.00,0.0114
3001.00,0.0116
3000.00,0.0119
2999.00,0.0121
2998.00,0.0124
2997.00,0.0127
2996.00,0.0130
2995.00,0.0133
2994.00,0.0136
2993.00,0.0139
2992.00,0.0142
2991.00,0.0145
2990.00,0.0149
2989.00,0.0152
2988.00,0.0155
2987.00,0.0157
2986.00,0.0160
2985.00,0.0162
2984.00,0.0164
2983.00,0.0165
2982.00,0.0167
2981.00,0.0168
2980.00,0.0170
2979.00,0.0172
2978.00,0.0173
2977.00,0.0175
2976.00,0.0176
2975.00,0.0176
2974.00,0.0176
2973.00,0.0176
2972.00,0.0176
2971.00,0.0176
2970.00,0.0176
2969.00,0.0177
2968.00,0.0178
2967.00,0.0178
2966.00,0.0178
2965.00,0.0179
2964.00,0.0180
2963.00,0.0181
2962.00,0.0183
2961.00,0.0184
2960.00,0.0186
2959.00,0.0188
2958.00,0.0190
2957.00,0.0193
2956.00,0.0196
2955.00,0.0199
2954.00,0.0202
2953.00,0.0206
2952.00,0.0210
2951.00,0.0214
2950.00,0.0218
2949.00,0.0222
2948.00,0.0227
2947.00,0.0231
2946.00,0.0236
2945.00,0.0241
2944.00,0.0246
2943.00,0.0252
2942.00,0.0257
2941.00,0.0261
2940.00,0.0266
2939.00,0.0270
2938.00,0.0275
2937.00,0.0278
2936.00,0.0281
2935.00,0.0284
2934.00,0.0286
2933.00,0.0288
2932.00,0.0290
2931.00,0.0291
2930.00,0.0292
2929.00,0.0293
2928.00,0.0293
2927.00,0.0294
2926.00,0.0295
2925.00,0.0296
2924.00,0.0297
2923.00,0.0297
2922.00,0.0298
2921.00,0.0300
2920.00,0.0301
2919.00,0.0303
2918.00,0.0305
2917.00,0.0307
2916.00,0.0308
2915.00,0.0310
2914.00,0.0312
2913.00,0.0313
2912.00,0.0315
2911.00,0.0316
2910.00,0.0318
2909.00,0.0320
2908.00,0.0321
2907.00,0.0323
2906.00,0.0324
2905.00,0.0325
2904.00,0.0326
2903.00,0.0327
2902.00,0.0328
2901.00,0.0328
2900.00,0.0328
2899.00,0.0328
2898.00,0.0328
2897.00,0.0328
2896.00,0.0328
2895.00,0.0327
2894.00,0.0326
2893.00,0.0325
2892.00,0.0324
2891.00,0.0323
2890.00,0.0322
2889.00,0.0321
2888.00,0.0320
2887.00,0.0319
2886.00,0.0318
2885.00,0.0316
2884.00,0.0315
2883.00,0.0314
2882.00,0.0312
2881.00,0.0311
2880.00,0.0310
2879.00,0.0308
2878.00,0.0306
2877.00,0.0304
2876.00,0.0302
2875.00,0.0300
2874.00,0.0297
2873.00,0.0294
2872.00,0.0291
2871.00,0.0287
2870.00,0.0284
2869.00,0.0280
2868.00,0.0277
2867.00,0.0274
2866.00,0.0270
2865.00,0.0267
2864.00,0.0264
2863.00,0.0260
2862.00,0.0257
2861.00,0.0254
2860.00,0.0251
2859.00,0.0248
2858.00,0.0245
2857.00,0.0243
2856.00,0.0241
2855.00,0.0240
2854.00,0.0239
2853.00,0.0239
2852.00,0.0240
2851.00,0.0240
2850.00,0.0242
2849.00,0.0243
2848.00,0.0245
2847.00,0.0247
2846.00,0.0250
2845.00,0.0253
2844.00,0.0256
2843.00,0.0260
2842.00,0.0263
2841.00,0.0267
2840.00,0.0270
2839.00,0.0273
2838.00,0.0275
2837.00,0.0277
2836.00,0.0278
2835.00,0.0279
2834.00,0.0279
2833.00,0.0278
2832.00,0.0276
2831.00,0.0274
2830.00,0.0272
2829.00,0.0269
2828.00,0.0266
2827.00,0.0263
2826.00,0.0260
2825.00,0.0258
2824.00,0.0255
2823.00,0.0253
2822.00,0.0251
2821.00,0.0248
2820.00,0.0246
2819.00,0.0244
2818.00,0.0242
2817.00,0.0240
2816.00,0.0237
2815.00,0.0234
2814.00,0.0231
2813.00,0.0228
2812.00,0.0224
2811.00,0.0219
2810.00,0.0215
2809.00,0.0210
2808.00,0.0204
2807.00,0.0199
2806.00,0.0193
2805.00,0.0188
2804.00,0.0182
2803.00,0.0178
2802.00,0.0173
2801.00,0.0169
2800.00,0.0165
2799.00,0.0162
2798.00,0.0160
2797.00,0.0157
2796.00,0.0155
2795.00,0.0154
2794.00,0.0152
2793.00,0.0150
2792.00,0.0149
2791.00,0.0147
2790.00,0.0146
2789.00,0.0144
2788.00,0.0143
2787.00,0.0142
2786.00,0.0141
2785.00,0.0141
2784.00,0.0140
2783.00,0.0139
2782.00,0.0138
2781.00,0.0138
2780.00,0.0137
2779.00,0.0136
2778.00,0.0136
2777.00,0.0135
2776.00,0.0135
2775.00,0.0134
2774.00,0.0134
2773.00,0.0133
2772.00,0.0133
2771.00,0.0132
2770.00,0.0132
2769.00,0.0131
2768.00,0.0131
2767.00,0.0130
2766.00,0.0130
2765.00,0.0130
2764.00,0.0129
2763.00,0.0129
2762.00,0.0129
2761.00,0.0128
2760.00,0.0128
2759.00,0.0128
2758.00,0.0128
2757.00,0.0128
