Created as New Dataset,Sample 405 By YargerLab Date Thursday, December 04 2025
cm-1,A
4000.00,0.0071
3999.00,0.0071
3998.00,0.0070
3997.00,0.0070
3996.00,0.0070
3995.00,0.0070
3994.00,0.0070
3993.00,0.0071
3992.00,0.0071
3991.00,0.0071
3990.00,0.0071
3989.00,0.0071
3988.00,0.0070
3987.00,0.0070
3986.00,0.0070
3985.00,0.0070
3984.00,0.0070
3983.00,0.0070
3982.00,0.0070
3981.00,0.0070
3980.00,0.0070
3979.00,0.0070
3978.00,0.0070
3977.00,0.0070
3976.00,0.0070
3975.00,0.0070
3974.00,0.0070
3973.00,0.0070
3972.00,0.0070
3971.00,0.0070
3970.00,0.0070
3969.00,0.0070
3968.00,0.0070
3967.00,0.0070
3966.00,0.0070
3965.00,0.0070
3964.00,0.0070
3963.00,0.0070
3962.00,0.0070
3961.00,0.0070
3960.00,0.0070
3959.00,0.0070
3958.00,0.0070
3957.00,0.0070
3956.00,0.0070
3955.00,0.0070
3954.00,0.0070
3953.00,0.0070
3952.00,0.0070
3951.00,0.0070
3950.00,0.0070
3949.00,0.0070
3948.00,0.0070
3947.00,0.0070
3946.00,0.0070
3945.00,0.0070
3944.00,0.0070
3943.00,0.0070
3942.00,0.0070
3941.00,0.0070
3940.00,0.0070
3939.00,0.0070
3938.00,0.0070
3937.00,0.0070
3936.00,0.0070
3935.00,0.0070
3934.00,0.0070
3933.00,0.0070
3932.00,0.0070
3931.00,0.0070
3930.00,0.0070
3929.00,0.0070
3928.00,0.0071
3927.00,0.0071
3926.00,0.0071
3925.00,0.0070
3924.00,0.0070
3923.00,0.0070
3922.00,0.0070
3921.00,0.0070
3920.00,0.0070
3919.00,0.0070
3918.00,0.0070
3917.00,0.0070
3916.00,0.0070
3915.00,0.0070
3914.00,0.0070
3913.00,0.0070
3912.00,0.0070
3911.00,0.0070
3910.00,0.0070
3909.00,0.0070
3908.00,0.0070
3907.00,0.0070
3906.00,0.0070
3905.00,0.0071
3904.00,0.0070
3903.00,0.0070
3902.00,0.0070
3901.00,0.0069
3900.00,0.0069
3899.00,0.0069
3898.00,0.0069
3897.00,0.0069
3896.00,0.0069
3895.00,0.0070
3894.00,0.0070
3893.00,0.0071
3892.00,0.0070
3891.00,0.0070
3890.00,0.0070
3889.00,0.0070
3888.00,0.0070
3887.00,0.0070
3886.00,0.0070
3885.00,0.0070
3884.00,0.0070
3883.00,0.0070
3882.00,0.0070
3881.00,0.0070
3880.00,0.0070
3879.00,0.0070
3878.00,0.0070
3877.00,0.0070
3876.00,0.0070
3875.00,0.0070
3874.00,0.0069
3873.00,0.0069
3872.00,0.0069
3871.00,0.0069
3870.00,0.0069
3869.00,0.0069
3868.00,0.0069
3867.00,0.0070
3866.00,0.0070
3865.00,0.0070
3864.00,0.0070
3863.00,0.0070
3862.00,0.0070
3861.00,0.0070
3860.00,0.0070
3859.00,0.0070
3858.00,0.0070
3857.00,0.0070
3856.00,0.0071
3855.00,0.0071
3854.00,0.0071
3853.00,0.0070
3852.00,0.0070
3851.00,0.0070
3850.00,0.0070
3849.00,0.0070
3848.00,0.0070
3847.00,0.0070
3846.00,0.0070
3845.00,0.0070
3844.00,0.0071
3843.00,0.0070
3842.00,0.0070
3841.00,0.0070
3840.00,0.0070
3839.00,0.0070
3838.00,0.0070
3837.00,0.0070
3836.00,0.0070
3835.00,0.0070
3834.00,0.0070
3833.00,0.0070
3832.00,0.0070
3831.00,0.0070
3830.00,0.0070
3829.00,0.0070
3828.00,0.0070
3827.00,0.0070
3826.00,0.0070
3825.00,0.0070
3824.00,0.0070
3823.00,0.0070
3822.00,0.0070
3821.00,0.0070
3820.00,0.0070
3819.00,0.0070
3818.00,0.0070
3817.00,0.0070
3816.00,0.0070
3815.00,0.0070
3814.00,0.0071
3813.00,0.0071
3812.00,0.0071
3811.00,0.0071
3810.00,0.0071
3809.00,0.0071
3808.00,0.0071
3807.00,0.0070
3806.00,0.0070
3805.00,0.0070
3804.00,0.0070
3803.00,0.0070
3802.00,0.0070
3801.00,0.0070
3800.00,0.0070
3799.00,0.0070
3798.00,0.0070
3797.00,0.0070
3796.00,0.0070
3795.00,0.0070
3794.00,0.0070
3793.00,0.0070
3792.00,0.0070
3791.00,0.0070
3790.00,0.0070
3789.00,0.0070
3788.00,0.0070
3787.00,0.0070
3786.00,0.0070
3785.00,0.0070
3784.00,0.0070
3783.00,0.0070
3782.00,0.0070
3781.00,0.0070
3780.00,0.0070
3779.00,0.0070
3778.00,0.0070
3777.00,0.0070
3776.00,0.0070
3775.00,0.0070
3774.00,0.0070
3773.00,0.0070
3772.00,0.0070
3771.00,0.0071
3770.00,0.0071
3769.00,0.0071
3768.00,0.0071
3767.00,0.0071
3766.00,0.0071
3765.00,0.0070
3764.00,0.0070
3763.00,0.0070
3762.00,0.0070
3761.00,0.0070
3760.00,0.0070
3759.00,0.0070
3758.00,0.0070
3757.00,0.0070
3756.00,0.0070
3755.00,0.0071
3754.00,0.0071
3753.00,0.0071
3752.00,0.0071
3751.00,0.0071
3750.00,0.0070
3749.00,0.0070
3748.00,0.0070
3747.00,0.0070
3746.00,0.0070
3745.00,0.0070
3744.00,0.0070
3743.00,0.0070
3742.00,0.0070
3741.00,0.0070
3740.00,0.0070
3739.00,0.0069
3738.00,0.0069
3737.00,0.0069
3736.00,0.0069
3735.00,0.0068
3734.00,0.0068
3733.00,0.0068
3732.00,0.0068
3731.00,0.0068
3730.00,0.0068
3729.00,0.0069
3728.00,0.0069
3727.00,0.0069
3726.00,0.0068
3725.00,0.0068
3724.00,0.0068
3723.00,0.0068
3722.00,0.0068
3721.00,0.0068
3720.00,0.0068
3719.00,0.0068
3718.00,0.0068
3717.00,0.0068
3716.00,0.0069
3715.00,0.0069
3714.00,0.0069
3713.00,0.0069
3712.00,0.0069
3711.00,0.0069
3710.00,0.0069
3709.00,0.0069
3708.00,0.0068
3707.00,0.0068
3706.00,0.0068
3705.00,0.0068
3704.00,0.0068
3703.00,0.0068
3702.00,0.0068
3701.00,0.0068
3700.00,0.0068
3699.00,0.0068
3698.00,0.0068
3697.00,0.0068
3696.00,0.0068
3695.00,0.0068
3694.00,0.0068
3693.00,0.0068
3692.00,0.0069
3691.00,0.0069
3690.00,0.0069
3689.00,0.0069
3688.00,0.0069
3687.00,0.0070
3686.00,0.0070
3685.00,0.0070
3684.00,0.0070
3683.00,0.0071
3682.00,0.0071
3681.00,0.0071
3680.00,0.0071
3679.00,0.0071
3678.00,0.0071
3677.00,0.0071
3676.00,0.0071
3675.00,0.0072
3674.00,0.0072
3673.00,0.0072
3672.00,0.0073
3671.00,0.0073
3670.00,0.0073
3669.00,0.0073
3668.00,0.0073
3667.00,0.0073
3666.00,0.0073
3665.00,0.0073
3664.00,0.0073
3663.00,0.0073
3662.00,0.0074
3661.00,0.0074
3660.00,0.0074
3659.00,0.0074
3658.00,0.0075
3657.00,0.0075
3656.00,0.0075
3655.00,0.0076
3654.00,0.0076
3653.00,0.0076
3652.00,0.0076
3651.00,0.0076
3650.00,0.0077
3649.00,0.0077
3648.00,0.0078
3647.00,0.0078
3646.00,0.0078
3645.00,0.0079
3644.00,0.0079
3643.00,0.0079
3642.00,0.0079
3641.00,0.0080
3640.00,0.0080
3639.00,0.0080
3638.00,0.0080
3637.00,0.0081
3636.00,0.0081
3635.00,0.0081
3634.00,0.0082
3633.00,0.0082
3632.00,0.0082
3631.00,0.0082
3630.00,0.0083
3629.00,0.0083
3628.00,0.0084
3627.00,0.0084
3626.00,0.0085
3625.00,0.0085
3624.00,0.0085
3623.00,0.0086
3622.00,0.0086
3621.00,0.0087
3620.00,0.0087
3619.00,0.0088
3618.00,0.0088
3617.00,0.0088
3616.00,0.0088
3615.00,0.0089
3614.00,0.0090
3613.00,0.0090
3612.00,0.0091
3611.00,0.0091
3610.00,0.0092
3609.00,0.0092
3608.00,0.0093
3607.00,0.0093
3606.00,0.0093
3605.00,0.0094
3604.00,0.0094
3603.00,0.0095
3602.00,0.0095
3601.00,0.0096
3600.00,0.0096
3599.00,0.0097
3598.00,0.0098
3597.00,0.0098
3596.00,0.0099
3595.00,0.0099
3594.00,0.0100
3593.00,0.0100
3592.00,0.0100
3591.00,0.0101
3590.00,0.0101
3589.00,0.0102
3588.00,0.0102
3587.00,0.0103
3586.00,0.0103
3585.00,0.0104
3584.00,0.0104
3583.00,0.0105
3582.00,0.0105
3581.00,0.0106
3580.00,0.0107
3579.00,0.0107
3578.00,0.0108
3577.00,0.0109
3576.00,0.0109
3575.00,0.0110
3574.00,0.0110
3573.00,0.0111
3572.00,0.0111
3571.00,0.0111
3570.00,0.0112
3569.00,0.0112
3568.00,0.0113
3567.00,0.0113
3566.00,0.0114
3565.00,0.0115
3564.00,0.0115
3563.00,0.0116
3562.00,0.0116
3561.00,0.0117
3560.00,0.0117
3559.00,0.0118
3558.00,0.0118
3557.00,0.0118
3556.00,0.0119
3555.00,0.0119
3554.00,0.0120
3553.00,0.0120
3552.00,0.0121
3551.00,0.0121
3550.00,0.0122
3549.00,0.0122
3548.00,0.0122
3547.00,0.0123
3546.00,0.0123
3545.00,0.0124
3544.00,0.0124
3543.00,0.0124
3542.00,0.0124
3541.00,0.0125
3540.00,0.0125
3539.00,0.0125
3538.00,0.0126
3537.00,0.0126
3536.00,0.0127
3535.00,0.0127
3534.00,0.0128
3533.00,0.0128
3532.00,0.0128
3531.00,0.0129
3530.00,0.0129
3529.00,0.0129
3528.00,0.0129
3527.00,0.0130
3526.00,0.0130
3525.00,0.0130
3524.00,0.0131
3523.00,0.0131
3522.00,0.0131
3521.00,0.0131
3520.00,0.0131
3519.00,0.0132
3518.00,0.0132
3517.00,0.0133
3516.00,0.0133
3515.00,0.0134
3514.00,0.0134
3513.00,0.0134
3512.00,0.0134
3511.00,0.0135
3510.00,0.0135
3509.00,0.0136
3508.00,0.0136
3507.00,0.0136
3506.00,0.0136
3505.00,0.0136
3504.00,0.0137
3503.00,0.0137
3502.00,0.0137
3501.00,0.0137
3500.00,0.0137
3499.00,0.0138
3498.00,0.0138
3497.00,0.0138
3496.00,0.0138
3495.00,0.0138
3494.00,0.0139
3493.00,0.0139
3492.00,0.0139
3491.00,0.0140
3490.00,0.0140
3489.00,0.0140
3488.00,0.0140
3487.00,0.0140
3486.00,0.0141
3485.00,0.0141
3484.00,0.0141
3483.00,0.0142
3482.00,0.0142
3481.00,0.0142
3480.00,0.0142
3479.00,0.0142
3478.00,0.0142
3477.00,0.0142
3476.00,0.0143
3475.00,0.0143
3474.00,0.0143
3473.00,0.0143
3472.00,0.0144
3471.00,0.0144
3470.00,0.0145
3469.00,0.0145
3468.00,0.0145
3467.00,0.0145
3466.00,0.0145
3465.00,0.0145
3464.00,0.0145
3463.00,0.0145
3462.00,0.0145
3461.00,0.0145
3460.00,0.0146
3459.00,0.0146
3458.00,0.0146
3457.00,0.0146
3456.00,0.0147
3455.00,0.0147
3454.00,0.0147
3453.00,0.0147
3452.00,0.0147
3451.00,0.0147
3450.00,0.0147
3449.00,0.0147
3448.00,0.0147
3447.00,0.0148
3446.00,0.0148
3445.00,0.0148
3444.00,0.0148
3443.00,0.0148
3442.00,0.0148
3441.00,0.0148
3440.00,0.0148
3439.00,0.0148
3438.00,0.0148
3437.00,0.0149
3436.00,0.0149
3435.00,0.0149
3434.00,0.0149
3433.00,0.0150
3432.00,0.0150
3431.00,0.0150
3430.00,0.0150
3429.00,0.0151
3428.00,0.0151
3427.00,0.0151
3426.00,0.0151
3425.00,0.0151
3424.00,0.0151
3423.00,0.0151
3422.00,0.0151
3421.00,0.0151
3420.00,0.0151
3419.00,0.0151
3418.00,0.0152
3417.00,0.0152
3416.00,0.0152
3415.00,0.0152
3414.00,0.0152
3413.00,0.0152
3412.00,0.0153
3411.00,0.0153
3410.00,0.0153
3409.00,0.0153
3408.00,0.0153
3407.00,0.0154
3406.00,0.0154
3405.00,0.0154
3404.00,0.0154
3403.00,0.0154
3402.00,0.0153
3401.00,0.0153
3400.00,0.0154
3399.00,0.0155
3398.00,0.0155
3397.00,0.0156
3396.00,0.0156
3395.00,0.0156
3394.00,0.0155
3393.00,0.0155
3392.00,0.0155
3391.00,0.0156
3390.00,0.0156
3389.00,0.0157
3388.00,0.0158
3387.00,0.0158
3386.00,0.0158
3385.00,0.0159
3384.00,0.0159
3383.00,0.0158
3382.00,0.0158
3381.00,0.0158
3380.00,0.0158
3379.00,0.0158
3378.00,0.0158
3377.00,0.0158
3376.00,0.0159
3375.00,0.0159
3374.00,0.0159
3373.00,0.0159
3372.00,0.0158
3371.00,0.0157
3370.00,0.0157
3369.00,0.0157
3368.00,0.0158
3367.00,0.0159
3366.00,0.0160
3365.00,0.0161
3364.00,0.0162
3363.00,0.0162
3362.00,0.0162
3361.00,0.0163
3360.00,0.0163
3359.00,0.0164
3358.00,0.0164
3357.00,0.0164
3356.00,0.0165
3355.00,0.0165
3354.00,0.0164
3353.00,0.0164
3352.00,0.0163
3351.00,0.0163
3350.00,0.0164
3349.00,0.0165
3348.00,0.0166
3347.00,0.0166
3346.00,0.0166
3345.00,0.0166
3344.00,0.0165
3343.00,0.0165
3342.00,0.0164
3341.00,0.0164
3340.00,0.0164
3339.00,0.0164
3338.00,0.0164
3337.00,0.0165
3336.00,0.0166
3335.00,0.0166
3334.00,0.0166
3333.00,0.0167
3332.00,0.0167
3331.00,0.0168
3330.00,0.0168
3329.00,0.0168
3328.00,0.0168
3327.00,0.0168
3326.00,0.0169
3325.00,0.0170
3324.00,0.0171
3323.00,0.0173
3322.00,0.0174
3321.00,0.0174
3320.00,0.0175
3319.00,0.0176
3318.00,0.0177
3317.00,0.0178
3316.00,0.0179
3315.00,0.0179
3314.00,0.0180
3313.00,0.0180
3312.00,0.0181
3311.00,0.0180
3310.00,0.0180
3309.00,0.0180
3308.00,0.0180
3307.00,0.0180
3306.00,0.0182
3305.00,0.0183
3304.00,0.0186
3303.00,0.0188
3302.00,0.0189
3301.00,0.0190
3300.00,0.0191
3299.00,0.0191
3298.00,0.0191
3297.00,0.0191
3296.00,0.0191
3295.00,0.0191
3294.00,0.0191
3293.00,0.0192
3292.00,0.0193
3291.00,0.0194
3290.00,0.0195
3289.00,0.0195
3288.00,0.0196
3287.00,0.0196
3286.00,0.0196
3285.00,0.0196
3284.00,0.0196
3283.00,0.0195
3282.00,0.0195
3281.00,0.0194
3280.00,0.0194
3279.00,0.0193
3278.00,0.0192
3277.00,0.0191
3276.00,0.0190
3275.00,0.0189
3274.00,0.0188
3273.00,0.0187
3272.00,0.0186
3271.00,0.0185
3270.00,0.0185
3269.00,0.0185
3268.00,0.0184
3267.00,0.0184
3266.00,0.0183
3265.00,0.0182
3264.00,0.0182
3263.00,0.0181
3262.00,0.0180
3261.00,0.0179
3260.00,0.0179
3259.00,0.0178
3258.00,0.0177
3257.00,0.0176
3256.00,0.0175
3255.00,0.0175
3254.00,0.0174
3253.00,0.0174
3252.00,0.0173
3251.00,0.0173
3250.00,0.0172
3249.00,0.0172
3248.00,0.0172
3247.00,0.0171
3246.00,0.0172
3245.00,0.0172
3244.00,0.0172
3243.00,0.0172
3242.00,0.0172
3241.00,0.0173
3240.00,0.0173
3239.00,0.0173
3238.00,0.0174
3237.00,0.0174
3236.00,0.0175
3235.00,0.0175
3234.00,0.0176
3233.00,0.0176
3232.00,0.0177
3231.00,0.0178
3230.00,0.0178
3229.00,0.0179
3228.00,0.0179
3227.00,0.0179
3226.00,0.0180
3225.00,0.0180
3224.00,0.0181
3223.00,0.0181
3222.00,0.0180
3221.00,0.0180
3220.00,0.0181
3219.00,0.0181
3218.00,0.0181
3217.00,0.0181
3216.00,0.0180
3215.00,0.0180
3214.00,0.0180
3213.00,0.0179
3212.00,0.0179
3211.00,0.0178
3210.00,0.0178
3209.00,0.0177
3208.00,0.0176
3207.00,0.0175
3206.00,0.0175
3205.00,0.0174
3204.00,0.0173
3203.00,0.0173
3202.00,0.0172
3201.00,0.0172
3200.00,0.0171
3199.00,0.0170
3198.00,0.0169
3197.00,0.0168
3196.00,0.0167
3195.00,0.0166
3194.00,0.0165
3193.00,0.0164
3192.00,0.0163
3191.00,0.0163
3190.00,0.0162
3189.00,0.0161
3188.00,0.0160
3187.00,0.0159
3186.00,0.0158
3185.00,0.0157
3184.00,0.0156
3183.00,0.0155
3182.00,0.0154
3181.00,0.0153
3180.00,0.0152
3179.00,0.0151
3178.00,0.0150
3177.00,0.0149
3176.00,0.0148
3175.00,0.0148
3174.00,0.0147
3173.00,0.0146
3172.00,0.0145
3171.00,0.0143
3170.00,0.0142
3169.00,0.0141
3168.00,0.0141
3167.00,0.0140
3166.00,0.0139
3165.00,0.0138
3164.00,0.0137
3163.00,0.0137
3162.00,0.0136
3161.00,0.0135
3160.00,0.0135
3159.00,0.0134
3158.00,0.0133
3157.00,0.0132
3156.00,0.0132
3155.00,0.0131
3154.00,0.0131
3153.00,0.0130
3152.00,0.0130
3151.00,0.0129
3150.00,0.0128
3149.00,0.0128
3148.00,0.0127
3147.00,0.0126
3146.00,0.0126
3145.00,0.0126
3144.00,0.0125
3143.00,0.0125
3142.00,0.0124
3141.00,0.0124
3140.00,0.0124
3139.00,0.0123
3138.00,0.0123
3137.00,0.0123
3136.00,0.0122
3135.00,0.0122
3134.00,0.0122
3133.00,0.0122
3132.00,0.0122
3131.00,0.0122
3130.00,0.0123
3129.00,0.0123
3128.00,0.0123
3127.00,0.0124
3126.00,0.0124
3125.00,0.0125
3124.00,0.0125
3123.00,0.0126
3122.00,0.0126
3121.00,0.0127
3120.00,0.0128
3119.00,0.0129
3118.00,0.0130
3117.00,0.0131
3116.00,0.0132
3115.00,0.0133
3114.00,0.0135
3113.00,0.0136
3112.00,0.0137
3111.00,0.0139
3110.00,0.0140
3109.00,0.0141
3108.00,0.0143
3107.00,0.0144
3106.00,0.0146
3105.00,0.0147
3104.00,0.0148
3103.00,0.0149
3102.00,0.0150
3101.00,0.0151
3100.00,0.0152
3099.00,0.0153
3098.00,0.0154
3097.00,0.0155
3096.00,0.0156
3095.00,0.0156
3094.00,0.0156
3093.00,0.0157
3092.00,0.0157
3091.00,0.0157
3090.00,0.0157
3089.00,0.0157
3088.00,0.0156
3087.00,0.0156
3086.00,0.0156
3085.00,0.0155
3084.00,0.0155
3083.00,0.0154
3082.00,0.0154
3081.00,0.0153
3080.00,0.0153
3079.00,0.0153
3078.00,0.0153
3077.00,0.0152
3076.00,0.0152
3075.00,0.0152
3074.00,0.0152
3073.00,0.0152
3072.00,0.0151
3071.00,0.0151
3070.00,0.0150
3069.00,0.0149
3068.00,0.0148
3067.00,0.0148
3066.00,0.0147
3065.00,0.0147
3064.00,0.0146
3063.00,0.0146
3062.00,0.0145
3061.00,0.0144
3060.00,0.0143
3059.00,0.0142
3058.00,0.0140
3057.00,0.0139
3056.00,0.0138
3055.00,0.0137
3054.00,0.0136
3053.00,0.0135
3052.00,0.0134
3051.00,0.0133
3050.00,0.0133
3049.00,0.0132
3048.00,0.0132
3047.00,0.0131
3046.00,0.0130
3045.00,0.0129
3044.00,0.0129
3043.00,0.0128
3042.00,0.0128
3041.00,0.0129
3040.00,0.0129
3039.00,0.0129
3038.00,0.0128
3037.00,0.0128
3036.00,0.0128
3035.00,0.0128
3034.00,0.0129
3033.00,0.0129
3032.00,0.0130
3031.00,0.0130
3030.00,0.0130
3029.00,0.0131
3028.00,0.0131
3027.00,0.0132
3026.00,0.0132
3025.00,0.0132
3024.00,0.0132
3023.00,0.0133
3022.00,0.0134
3021.00,0.0134
3020.00,0.0135
3019.00,0.0135
3018.00,0.0136
3017.00,0.0137
3016.00,0.0137
3015.00,0.0138
3014.00,0.0139
3013.00,0.0140
3012.00,0.0142
3011.00,0.0144
3010.00,0.0146
3009.00,0.0148
3008.00,0.0151
3007.00,0.0153
3006.00,0.0156
3005.00,0.0158
3004.00,0.0161
3003.00,0.0163
3002.00,0.0166
3001.00,0.0169
3000.00,0.0172
2999.00,0.0175
2998.00,0.0178
2997.00,0.0182
2996.00,0.0185
2995.00,0.0188
2994.00,0.0192
2993.00,0.0195
2992.00,0.0199
2991.00,0.0202
2990.00,0.0206
2989.00,0.0209
2988.00,0.0212
2987.00,0.0214
2986.00,0.0216
2985.00,0.0218
2984.00,0.0219
2983.00,0.0220
2982.00,0.0221
2981.00,0.0222
2980.00,0.0223
2979.00,0.0225
2978.00,0.0226
2977.00,0.0227
2976.00,0.0228
2975.00,0.0229
2974.00,0.0230
2973.00,0.0230
2972.00,0.0231
2971.00,0.0232
2970.00,0.0234
2969.00,0.0236
2968.00,0.0238
2967.00,0.0240
2966.00,0.0242
2965.00,0.0245
2964.00,0.0248
2963.00,0.0251
2962.00,0.0254
2961.00,0.0258
2960.00,0.0262
2959.00,0.0266
2958.00,0.0270
2957.00,0.0274
2956.00,0.0279
2955.00,0.0283
2954.00,0.0287
2953.00,0.0290
2952.00,0.0293
2951.00,0.0296
2950.00,0.0297
2949.00,0.0298
2948.00,0.0297
2947.00,0.0296
2946.00,0.0294
2945.00,0.0291
2944.00,0.0287
2943.00,0.0282
2942.00,0.0277
2941.00,0.0272
2940.00,0.0267
2939.00,0.0262
2938.00,0.0258
2937.00,0.0254
2936.00,0.0250
2935.00,0.0246
2934.00,0.0243
2933.00,0.0240
2932.00,0.0238
2931.00,0.0236
2930.00,0.0234
2929.00,0.0233
2928.00,0.0232
2927.00,0.0231
2926.00,0.0231
2925.00,0.0230
2924.00,0.0230
2923.00,0.0230
2922.00,0.0231
2921.00,0.0231
2920.00,0.0231
2919.00,0.0231
2918.00,0.0231
2917.00,0.0230
2916.00,0.0230
2915.00,0.0229
2914.00,0.0227
2913.00,0.0226
2912.00,0.0225
2911.00,0.0223
2910.00,0.0222
2909.00,0.0220
2908.00,0.0219
2907.00,0.0217
2906.00,0.0216
2905.00,0.0215
2904.00,0.0214
2903.00,0.0214
2902.00,0.0214
2901.00,0.0214
2900.00,0.0214
2899.00,0.0214
2898.00,0.0215
2897.00,0.0215
2896.00,0.0216
2895.00,0.0217
2894.00,0.0218
2893.00,0.0219
2892.00,0.0219
2891.00,0.0220
2890.00,0.0220
2889.00,0.0221
2888.00,0.0221
2887.00,0.0221
2886.00,0.0222
2885.00,0.0222
2884.00,0.0222
2883.00,0.0223
2882.00,0.0223
2881.00,0.0223
2880.00,0.0223
2879.00,0.0222
2878.00,0.0221
2877.00,0.0220
2876.00,0.0218
2875.00,0.0217
2874.00,0.0215
2873.00,0.0214
2872.00,0.0213
2871.00,0.0211
2870.00,0.0210
2869.00,0.0208
2868.00,0.0206
2867.00,0.0204
2866.00,0.0203
2865.00,0.0201
2864.00,0.0198
2863.00,0.0196
2862.00,0.0193
2861.00,0.0190
2860.00,0.0187
2859.00,0.0185
2858.00,0.0182
2857.00,0.0179
2856.00,0.0176
2855.00,0.0173
2854.00,0.0171
2853.00,0.0169
2852.00,0.0168
2851.00,0.0167
2850.00,0.0166
2849.00,0.0166
2848.00,0.0166
2847.00,0.0166
2846.00,0.0167
2845.00,0.0167
2844.00,0.0167
2843.00,0.0167
2842.00,0.0166
2841.00,0.0165
2840.00,0.0164
2839.00,0.0163
2838.00,0.0162
2837.00,0.0161
2836.00,0.0160
2835.00,0.0159
2834.00,0.0157
2833.00,0.0156
2832.00,0.0154
2831.00,0.0152
2830.00,0.0151
2829.00,0.0149
2828.00,0.0148
2827.00,0.0146
2826.00,0.0145
2825.00,0.0144
2824.00,0.0142
2823.00,0.0141
2822.00,0.0140
2821.00,0.0138
2820.00,0.0137
2819.00,0.0136
2818.00,0.0135
2817.00,0.0134
2816.00,0.0133
2815.00,0.0132
2814.00,0.0131
2813.00,0.0130
2812.00,0.0129
2811.00,0.0128
2810.00,0.0127
2809.00,0.0126
2808.00,0.0125
2807.00,0.0125
2806.00,0.0124
2805.00,0.0123
2804.00,0.0122
2803.00,0.0121
2802.00,0.0120
2801.00,0.0120
2800.00,0.0119
2799.00,0.0118
2798.00,0.0118
2797.00,0.0117
2796.00,0.0117
2795.00,0.0116
2794.00,0.0115
2793.00,0.0114
2792.00,0.0114
2791.00,0.0113
2790.00,0.0113
2789.00,0.0112
2788.00,0.0112
2787.00,0.0111
2786.00,0.0111
2785.00,0.0111
2784.00,0.0110
2783.00,0.0110
2782.00,0.0109
2781.00,0.0109
2780.00,0.0109
2779.00,0.0108
2778.00,0.0108
2777.00,0.0108
2776.00,0.0107
2775.00,0.0107
2774.00,0.0107
2773.00,0.0106
2772.00,0.0106
2771.00,0.0106
2770.00,0.0105
2769.00,0.0105
2768.00,0.0105
2767.00,0.0105
2766.00,0.0105
2765.00,0.0104
2764.00,0.0104
2763.00,0.0104
2762.00,0.0103
2761.00,0.0103
2760.00,0.0103
2759.00,0.0103
2758.00,0.0103
2757.00,0.0103
