Created as New Dataset,Sample 401 By YargerLab Date Thursday, December 04 2025
cm-1,A
4000.00,0.0041
3999.00,0.0041
3998.00,0.0041
3997.00,0.0041
3996.00,0.0041
3995.00,0.0041
3994.00,0.0041
3993.00,0.0041
3992.00,0.0041
3991.00,0.0041
3990.00,0.0041
3989.00,0.0041
3988.00,0.0041
3987.00,0.0041
3986.00,0.0041
3985.00,0.0041
3984.00,0.0041
3983.00,0.0041
3982.00,0.0041
3981.00,0.0041
3980.00,0.0041
3979.00,0.0041
3978.00,0.0041
3977.00,0.0041
3976.00,0.0041
3975.00,0.0041
3974.00,0.0041
3973.00,0.0041
3972.00,0.0041
3971.00,0.0041
3970.00,0.0041
3969.00,0.0041
3968.00,0.0041
3967.00,0.0041
3966.00,0.0041
3965.00,0.0041
3964.00,0.0041
3963.00,0.0041
3962.00,0.0040
3961.00,0.0040
3960.00,0.0040
3959.00,0.0040
3958.00,0.0040
3957.00,0.0040
3956.00,0.0040
3955.00,0.0040
3954.00,0.0040
3953.00,0.0041
3952.00,0.0041
3951.00,0.0041
3950.00,0.0041
3949.00,0.0041
3948.00,0.0041
3947.00,0.0041
3946.00,0.0041
3945.00,0.0041
3944.00,0.0041
3943.00,0.0041
3942.00,0.0041
3941.00,0.0041
3940.00,0.0041
3939.00,0.0041
3938.00,0.0041
3937.00,0.0041
3936.00,0.0041
3935.00,0.0041
3934.00,0.0041
3933.00,0.0040
3932.00,0.0040
3931.00,0.0040
3930.00,0.0041
3929.00,0.0041
3928.00,0.0041
3927.00,0.0041
3926.00,0.0040
3925.00,0.0040
3924.00,0.0041
3923.00,0.0041
3922.00,0.0041
3921.00,0.0041
3920.00,0.0041
3919.00,0.0041
3918.00,0.0041
3917.00,0.0041
3916.00,0.0041
3915.00,0.0041
3914.00,0.0041
3913.00,0.0041
3912.00,0.0041
3911.00,0.0041
3910.00,0.0041
3909.00,0.0041
3908.00,0.0041
3907.00,0.0041
3906.00,0.0041
3905.00,0.0041
3904.00,0.0041
3903.00,0.0041
3902.00,0.0041
3901.00,0.0041
3900.00,0.0041
3899.00,0.0041
3898.00,0.0041
3897.00,0.0041
3896.00,0.0041
3895.00,0.0041
3894.00,0.0041
3893.00,0.0041
3892.00,0.0041
3891.00,0.0041
3890.00,0.0041
3889.00,0.0040
3888.00,0.0040
3887.00,0.0040
3886.00,0.0041
3885.00,0.0041
3884.00,0.0040
3883.00,0.0040
3882.00,0.0040
3881.00,0.0039
3880.00,0.0039
3879.00,0.0040
3878.00,0.0040
3877.00,0.0040
3876.00,0.0040
3875.00,0.0040
3874.00,0.0040
3873.00,0.0040
3872.00,0.0040
3871.00,0.0040
3870.00,0.0040
3869.00,0.0040
3868.00,0.0040
3867.00,0.0040
3866.00,0.0040
3865.00,0.0040
3864.00,0.0041
3863.00,0.0041
3862.00,0.0041
3861.00,0.0040
3860.00,0.0040
3859.00,0.0040
3858.00,0.0040
3857.00,0.0040
3856.00,0.0040
3855.00,0.0040
3854.00,0.0040
3853.00,0.0040
3852.00,0.0040
3851.00,0.0040
3850.00,0.0040
3849.00,0.0040
3848.00,0.0040
3847.00,0.0040
3846.00,0.0040
3845.00,0.0041
3844.00,0.0041
3843.00,0.0041
3842.00,0.0040
3841.00,0.0040
3840.00,0.0040
3839.00,0.0040
3838.00,0.0040
3837.00,0.0040
3836.00,0.0040
3835.00,0.0040
3834.00,0.0040
3833.00,0.0040
3832.00,0.0041
3831.00,0.0041
3830.00,0.0041
3829.00,0.0041
3828.00,0.0041
3827.00,0.0041
3826.00,0.0041
3825.00,0.0041
3824.00,0.0041
3823.00,0.0041
3822.00,0.0040
3821.00,0.0040
3820.00,0.0040
3819.00,0.0040
3818.00,0.0040
3817.00,0.0040
3816.00,0.0040
3815.00,0.0041
3814.00,0.0041
3813.00,0.0041
3812.00,0.0041
3811.00,0.0041
3810.00,0.0041
3809.00,0.0041
3808.00,0.0041
3807.00,0.0040
3806.00,0.0040
3805.00,0.0040
3804.00,0.0040
3803.00,0.0040
3802.00,0.0040
3801.00,0.0040
3800.00,0.0040
3799.00,0.0040
3798.00,0.0040
3797.00,0.0041
3796.00,0.0041
3795.00,0.0041
3794.00,0.0041
3793.00,0.0041
3792.00,0.0041
3791.00,0.0041
3790.00,0.0041
3789.00,0.0041
3788.00,0.0041
3787.00,0.0041
3786.00,0.0041
3785.00,0.0041
3784.00,0.0041
3783.00,0.0041
3782.00,0.0041
3781.00,0.0041
3780.00,0.0041
3779.00,0.0041
3778.00,0.0041
3777.00,0.0041
3776.00,0.0041
3775.00,0.0041
3774.00,0.0041
3773.00,0.0041
3772.00,0.0041
3771.00,0.0041
3770.00,0.0041
3769.00,0.0041
3768.00,0.0041
3767.00,0.0041
3766.00,0.0041
3765.00,0.0042
3764.00,0.0042
3763.00,0.0042
3762.00,0.0042
3761.00,0.0041
3760.00,0.0041
3759.00,0.0041
3758.00,0.0041
3757.00,0.0041
3756.00,0.0041
3755.00,0.0041
3754.00,0.0041
3753.00,0.0040
3752.00,0.0040
3751.00,0.0040
3750.00,0.0040
3749.00,0.0040
3748.00,0.0040
3747.00,0.0040
3746.00,0.0040
3745.00,0.0040
3744.00,0.0040
3743.00,0.0040
3742.00,0.0040
3741.00,0.0040
3740.00,0.0040
3739.00,0.0040
3738.00,0.0040
3737.00,0.0040
3736.00,0.0040
3735.00,0.0039
3734.00,0.0039
3733.00,0.0039
3732.00,0.0040
3731.00,0.0040
3730.00,0.0040
3729.00,0.0040
3728.00,0.0040
3727.00,0.0040
3726.00,0.0040
3725.00,0.0039
3724.00,0.0039
3723.00,0.0040
3722.00,0.0040
3721.00,0.0040
3720.00,0.0040
3719.00,0.0040
3718.00,0.0040
3717.00,0.0040
3716.00,0.0040
3715.00,0.0040
3714.00,0.0040
3713.00,0.0040
3712.00,0.0040
3711.00,0.0039
3710.00,0.0039
3709.00,0.0039
3708.00,0.0039
3707.00,0.0040
3706.00,0.0040
3705.00,0.0040
3704.00,0.0040
3703.00,0.0040
3702.00,0.0040
3701.00,0.0040
3700.00,0.0040
3699.00,0.0040
3698.00,0.0039
3697.00,0.0039
3696.00,0.0039
3695.00,0.0039
3694.00,0.0039
3693.00,0.0039
3692.00,0.0039
3691.00,0.0039
3690.00,0.0039
3689.00,0.0040
3688.00,0.0040
3687.00,0.0041
3686.00,0.0041
3685.00,0.0041
3684.00,0.0041
3683.00,0.0042
3682.00,0.0042
3681.00,0.0042
3680.00,0.0042
3679.00,0.0042
3678.00,0.0042
3677.00,0.0042
3676.00,0.0042
3675.00,0.0042
3674.00,0.0043
3673.00,0.0043
3672.00,0.0043
3671.00,0.0043
3670.00,0.0043
3669.00,0.0043
3668.00,0.0044
3667.00,0.0044
3666.00,0.0044
3665.00,0.0045
3664.00,0.0045
3663.00,0.0045
3662.00,0.0046
3661.00,0.0046
3660.00,0.0046
3659.00,0.0046
3658.00,0.0046
3657.00,0.0046
3656.00,0.0046
3655.00,0.0046
3654.00,0.0046
3653.00,0.0046
3652.00,0.0046
3651.00,0.0046
3650.00,0.0046
3649.00,0.0046
3648.00,0.0046
3647.00,0.0046
3646.00,0.0046
3645.00,0.0046
3644.00,0.0046
3643.00,0.0046
3642.00,0.0047
3641.00,0.0047
3640.00,0.0047
3639.00,0.0047
3638.00,0.0048
3637.00,0.0048
3636.00,0.0048
3635.00,0.0048
3634.00,0.0048
3633.00,0.0048
3632.00,0.0047
3631.00,0.0047
3630.00,0.0047
3629.00,0.0047
3628.00,0.0048
3627.00,0.0048
3626.00,0.0048
3625.00,0.0048
3624.00,0.0048
3623.00,0.0048
3622.00,0.0048
3621.00,0.0049
3620.00,0.0049
3619.00,0.0049
3618.00,0.0050
3617.00,0.0050
3616.00,0.0050
3615.00,0.0050
3614.00,0.0050
3613.00,0.0051
3612.00,0.0051
3611.00,0.0052
3610.00,0.0052
3609.00,0.0052
3608.00,0.0053
3607.00,0.0053
3606.00,0.0053
3605.00,0.0053
3604.00,0.0054
3603.00,0.0054
3602.00,0.0054
3601.00,0.0055
3600.00,0.0055
3599.00,0.0055
3598.00,0.0055
3597.00,0.0055
3596.00,0.0056
3595.00,0.0056
3594.00,0.0057
3593.00,0.0057
3592.00,0.0057
3591.00,0.0057
3590.00,0.0057
3589.00,0.0057
3588.00,0.0058
3587.00,0.0058
3586.00,0.0058
3585.00,0.0059
3584.00,0.0059
3583.00,0.0059
3582.00,0.0060
3581.00,0.0060
3580.00,0.0060
3579.00,0.0061
3578.00,0.0061
3577.00,0.0062
3576.00,0.0062
3575.00,0.0062
3574.00,0.0063
3573.00,0.0063
3572.00,0.0063
3571.00,0.0063
3570.00,0.0062
3569.00,0.0063
3568.00,0.0063
3567.00,0.0064
3566.00,0.0064
3565.00,0.0065
3564.00,0.0065
3563.00,0.0065
3562.00,0.0066
3561.00,0.0066
3560.00,0.0066
3559.00,0.0067
3558.00,0.0067
3557.00,0.0067
3556.00,0.0067
3555.00,0.0068
3554.00,0.0068
3553.00,0.0068
3552.00,0.0069
3551.00,0.0069
3550.00,0.0069
3549.00,0.0069
3548.00,0.0069
3547.00,0.0069
3546.00,0.0070
3545.00,0.0070
3544.00,0.0071
3543.00,0.0071
3542.00,0.0071
3541.00,0.0072
3540.00,0.0072
3539.00,0.0072
3538.00,0.0072
3537.00,0.0072
3536.00,0.0072
3535.00,0.0072
3534.00,0.0072
3533.00,0.0072
3532.00,0.0072
3531.00,0.0073
3530.00,0.0073
3529.00,0.0073
3528.00,0.0073
3527.00,0.0073
3526.00,0.0073
3525.00,0.0074
3524.00,0.0074
3523.00,0.0074
3522.00,0.0074
3521.00,0.0075
3520.00,0.0075
3519.00,0.0075
3518.00,0.0075
3517.00,0.0075
3516.00,0.0075
3515.00,0.0076
3514.00,0.0076
3513.00,0.0075
3512.00,0.0075
3511.00,0.0075
3510.00,0.0076
3509.00,0.0076
3508.00,0.0076
3507.00,0.0076
3506.00,0.0076
3505.00,0.0077
3504.00,0.0077
3503.00,0.0077
3502.00,0.0077
3501.00,0.0077
3500.00,0.0078
3499.00,0.0078
3498.00,0.0078
3497.00,0.0078
3496.00,0.0078
3495.00,0.0078
3494.00,0.0079
3493.00,0.0079
3492.00,0.0079
3491.00,0.0079
3490.00,0.0079
3489.00,0.0079
3488.00,0.0079
3487.00,0.0079
3486.00,0.0080
3485.00,0.0080
3484.00,0.0080
3483.00,0.0080
3482.00,0.0080
3481.00,0.0080
3480.00,0.0080
3479.00,0.0080
3478.00,0.0080
3477.00,0.0080
3476.00,0.0081
3475.00,0.0081
3474.00,0.0081
3473.00,0.0081
3472.00,0.0081
3471.00,0.0081
3470.00,0.0081
3469.00,0.0081
3468.00,0.0081
3467.00,0.0081
3466.00,0.0081
3465.00,0.0081
3464.00,0.0081
3463.00,0.0081
3462.00,0.0081
3461.00,0.0081
3460.00,0.0082
3459.00,0.0082
3458.00,0.0082
3457.00,0.0082
3456.00,0.0081
3455.00,0.0081
3454.00,0.0082
3453.00,0.0082
3452.00,0.0082
3451.00,0.0083
3450.00,0.0083
3449.00,0.0082
3448.00,0.0082
3447.00,0.0082
3446.00,0.0082
3445.00,0.0082
3444.00,0.0082
3443.00,0.0082
3442.00,0.0082
3441.00,0.0082
3440.00,0.0082
3439.00,0.0083
3438.00,0.0083
3437.00,0.0083
3436.00,0.0083
3435.00,0.0083
3434.00,0.0083
3433.00,0.0083
3432.00,0.0082
3431.00,0.0082
3430.00,0.0082
3429.00,0.0083
3428.00,0.0083
3427.00,0.0083
3426.00,0.0083
3425.00,0.0083
3424.00,0.0083
3423.00,0.0083
3422.00,0.0083
3421.00,0.0083
3420.00,0.0083
3419.00,0.0084
3418.00,0.0084
3417.00,0.0084
3416.00,0.0084
3415.00,0.0084
3414.00,0.0084
3413.00,0.0084
3412.00,0.0084
3411.00,0.0084
3410.00,0.0084
3409.00,0.0085
3408.00,0.0085
3407.00,0.0085
3406.00,0.0085
3405.00,0.0084
3404.00,0.0084
3403.00,0.0084
3402.00,0.0084
3401.00,0.0084
3400.00,0.0084
3399.00,0.0085
3398.00,0.0085
3397.00,0.0085
3396.00,0.0085
3395.00,0.0085
3394.00,0.0085
3393.00,0.0085
3392.00,0.0085
3391.00,0.0085
3390.00,0.0086
3389.00,0.0086
3388.00,0.0086
3387.00,0.0087
3386.00,0.0087
3385.00,0.0087
3384.00,0.0087
3383.00,0.0087
3382.00,0.0087
3381.00,0.0087
3380.00,0.0087
3379.00,0.0087
3378.00,0.0087
3377.00,0.0088
3376.00,0.0088
3375.00,0.0088
3374.00,0.0088
3373.00,0.0088
3372.00,0.0087
3371.00,0.0086
3370.00,0.0086
3369.00,0.0086
3368.00,0.0086
3367.00,0.0087
3366.00,0.0088
3365.00,0.0089
3364.00,0.0089
3363.00,0.0090
3362.00,0.0090
3361.00,0.0090
3360.00,0.0090
3359.00,0.0090
3358.00,0.0091
3357.00,0.0091
3356.00,0.0092
3355.00,0.0092
3354.00,0.0091
3353.00,0.0091
3352.00,0.0091
3351.00,0.0091
3350.00,0.0092
3349.00,0.0092
3348.00,0.0093
3347.00,0.0094
3346.00,0.0094
3345.00,0.0094
3344.00,0.0094
3343.00,0.0094
3342.00,0.0095
3341.00,0.0095
3340.00,0.0095
3339.00,0.0095
3338.00,0.0095
3337.00,0.0096
3336.00,0.0097
3335.00,0.0098
3334.00,0.0098
3333.00,0.0098
3332.00,0.0099
3331.00,0.0099
3330.00,0.0099
3329.00,0.0099
3328.00,0.0099
3327.00,0.0099
3326.00,0.0099
3325.00,0.0099
3324.00,0.0100
3323.00,0.0100
3322.00,0.0101
3321.00,0.0101
3320.00,0.0101
3319.00,0.0101
3318.00,0.0101
3317.00,0.0101
3316.00,0.0102
3315.00,0.0102
3314.00,0.0102
3313.00,0.0102
3312.00,0.0102
3311.00,0.0101
3310.00,0.0101
3309.00,0.0100
3308.00,0.0100
3307.00,0.0100
3306.00,0.0101
3305.00,0.0102
3304.00,0.0103
3303.00,0.0104
3302.00,0.0105
3301.00,0.0106
3300.00,0.0107
3299.00,0.0107
3298.00,0.0106
3297.00,0.0106
3296.00,0.0106
3295.00,0.0106
3294.00,0.0106
3293.00,0.0106
3292.00,0.0107
3291.00,0.0107
3290.00,0.0108
3289.00,0.0108
3288.00,0.0108
3287.00,0.0108
3286.00,0.0108
3285.00,0.0108
3284.00,0.0108
3283.00,0.0108
3282.00,0.0108
3281.00,0.0107
3280.00,0.0107
3279.00,0.0107
3278.00,0.0106
3277.00,0.0105
3276.00,0.0104
3275.00,0.0104
3274.00,0.0103
3273.00,0.0102
3272.00,0.0102
3271.00,0.0101
3270.00,0.0101
3269.00,0.0101
3268.00,0.0101
3267.00,0.0101
3266.00,0.0101
3265.00,0.0101
3264.00,0.0100
3263.00,0.0099
3262.00,0.0099
3261.00,0.0098
3260.00,0.0098
3259.00,0.0097
3258.00,0.0097
3257.00,0.0096
3256.00,0.0096
3255.00,0.0095
3254.00,0.0095
3253.00,0.0095
3252.00,0.0094
3251.00,0.0094
3250.00,0.0094
3249.00,0.0093
3248.00,0.0093
3247.00,0.0093
3246.00,0.0093
3245.00,0.0093
3244.00,0.0093
3243.00,0.0093
3242.00,0.0094
3241.00,0.0094
3240.00,0.0095
3239.00,0.0095
3238.00,0.0095
3237.00,0.0095
3236.00,0.0095
3235.00,0.0096
3234.00,0.0096
3233.00,0.0096
3232.00,0.0097
3231.00,0.0097
3230.00,0.0098
3229.00,0.0099
3228.00,0.0099
3227.00,0.0100
3226.00,0.0100
3225.00,0.0100
3224.00,0.0100
3223.00,0.0101
3222.00,0.0101
3221.00,0.0100
3220.00,0.0100
3219.00,0.0100
3218.00,0.0100
3217.00,0.0100
3216.00,0.0100
3215.00,0.0100
3214.00,0.0099
3213.00,0.0099
3212.00,0.0098
3211.00,0.0098
3210.00,0.0097
3209.00,0.0097
3208.00,0.0096
3207.00,0.0096
3206.00,0.0096
3205.00,0.0096
3204.00,0.0095
3203.00,0.0095
3202.00,0.0094
3201.00,0.0093
3200.00,0.0093
3199.00,0.0092
3198.00,0.0092
3197.00,0.0091
3196.00,0.0090
3195.00,0.0090
3194.00,0.0089
3193.00,0.0089
3192.00,0.0088
3191.00,0.0087
3190.00,0.0087
3189.00,0.0086
3188.00,0.0085
3187.00,0.0085
3186.00,0.0084
3185.00,0.0083
3184.00,0.0083
3183.00,0.0082
3182.00,0.0081
3181.00,0.0080
3180.00,0.0080
3179.00,0.0079
3178.00,0.0079
3177.00,0.0078
3176.00,0.0077
3175.00,0.0077
3174.00,0.0076
3173.00,0.0075
3172.00,0.0074
3171.00,0.0073
3170.00,0.0073
3169.00,0.0072
3168.00,0.0072
3167.00,0.0072
3166.00,0.0071
3165.00,0.0070
3164.00,0.0070
3163.00,0.0069
3162.00,0.0068
3161.00,0.0068
3160.00,0.0067
3159.00,0.0067
3158.00,0.0067
3157.00,0.0066
3156.00,0.0066
3155.00,0.0065
3154.00,0.0065
3153.00,0.0065
3152.00,0.0065
3151.00,0.0064
3150.00,0.0064
3149.00,0.0064
3148.00,0.0063
3147.00,0.0063
3146.00,0.0062
3145.00,0.0062
3144.00,0.0061
3143.00,0.0061
3142.00,0.0061
3141.00,0.0061
3140.00,0.0060
3139.00,0.0060
3138.00,0.0060
3137.00,0.0060
3136.00,0.0060
3135.00,0.0060
3134.00,0.0060
3133.00,0.0060
3132.00,0.0060
3131.00,0.0060
3130.00,0.0060
3129.00,0.0060
3128.00,0.0060
3127.00,0.0061
3126.00,0.0061
3125.00,0.0061
3124.00,0.0061
3123.00,0.0062
3122.00,0.0062
3121.00,0.0063
3120.00,0.0063
3119.00,0.0064
3118.00,0.0065
3117.00,0.0066
3116.00,0.0067
3115.00,0.0068
3114.00,0.0069
3113.00,0.0070
3112.00,0.0071
3111.00,0.0072
3110.00,0.0073
3109.00,0.0074
3108.00,0.0075
3107.00,0.0076
3106.00,0.0077
3105.00,0.0078
3104.00,0.0079
3103.00,0.0080
3102.00,0.0081
3101.00,0.0082
3100.00,0.0082
3099.00,0.0083
3098.00,0.0083
3097.00,0.0084
3096.00,0.0084
3095.00,0.0085
3094.00,0.0085
3093.00,0.0085
3092.00,0.0085
3091.00,0.0085
3090.00,0.0085
3089.00,0.0085
3088.00,0.0084
3087.00,0.0084
3086.00,0.0084
3085.00,0.0084
3084.00,0.0083
3083.00,0.0083
3082.00,0.0083
3081.00,0.0083
3080.00,0.0083
3079.00,0.0082
3078.00,0.0082
3077.00,0.0082
3076.00,0.0082
3075.00,0.0081
3074.00,0.0081
3073.00,0.0081
3072.00,0.0081
3071.00,0.0080
3070.00,0.0080
3069.00,0.0080
3068.00,0.0079
3067.00,0.0079
3066.00,0.0078
3065.00,0.0078
3064.00,0.0077
3063.00,0.0076
3062.00,0.0076
3061.00,0.0075
3060.00,0.0075
3059.00,0.0074
3058.00,0.0073
3057.00,0.0072
3056.00,0.0071
3055.00,0.0070
3054.00,0.0070
3053.00,0.0069
3052.00,0.0068
3051.00,0.0068
3050.00,0.0068
3049.00,0.0068
3048.00,0.0067
3047.00,0.0067
3046.00,0.0066
3045.00,0.0066
3044.00,0.0065
3043.00,0.0065
3042.00,0.0065
3041.00,0.0065
3040.00,0.0065
3039.00,0.0065
3038.00,0.0065
3037.00,0.0065
3036.00,0.0066
3035.00,0.0066
3034.00,0.0066
3033.00,0.0066
3032.00,0.0067
3031.00,0.0067
3030.00,0.0067
3029.00,0.0067
3028.00,0.0068
3027.00,0.0068
3026.00,0.0069
3025.00,0.0069
3024.00,0.0069
3023.00,0.0070
3022.00,0.0070
3021.00,0.0070
3020.00,0.0071
3019.00,0.0072
3018.00,0.0072
3017.00,0.0073
3016.00,0.0074
3015.00,0.0075
3014.00,0.0076
3013.00,0.0077
3012.00,0.0079
3011.00,0.0081
3010.00,0.0083
3009.00,0.0085
3008.00,0.0087
3007.00,0.0090
3006.00,0.0092
3005.00,0.0095
3004.00,0.0098
3003.00,0.0101
3002.00,0.0104
3001.00,0.0107
3000.00,0.0109
2999.00,0.0112
2998.00,0.0115
2997.00,0.0118
2996.00,0.0121
2995.00,0.0124
2994.00,0.0126
2993.00,0.0129
2992.00,0.0132
2991.00,0.0134
2990.00,0.0137
2989.00,0.0140
2988.00,0.0142
2987.00,0.0145
2986.00,0.0147
2985.00,0.0150
2984.00,0.0153
2983.00,0.0156
2982.00,0.0158
2981.00,0.0159
2980.00,0.0159
2979.00,0.0159
2978.00,0.0158
2977.00,0.0157
2976.00,0.0157
2975.00,0.0156
2974.00,0.0157
2973.00,0.0157
2972.00,0.0158
2971.00,0.0158
2970.00,0.0158
2969.00,0.0157
2968.00,0.0157
2967.00,0.0157
2966.00,0.0157
2965.00,0.0158
2964.00,0.0159
2963.00,0.0160
2962.00,0.0161
2961.00,0.0163
2960.00,0.0165
2959.00,0.0167
2958.00,0.0169
2957.00,0.0171
2956.00,0.0174
2955.00,0.0176
2954.00,0.0178
2953.00,0.0180
2952.00,0.0182
2951.00,0.0183
2950.00,0.0184
2949.00,0.0184
2948.00,0.0183
2947.00,0.0181
2946.00,0.0179
2945.00,0.0176
2944.00,0.0173
2943.00,0.0169
2942.00,0.0165
2941.00,0.0161
2940.00,0.0157
2939.00,0.0153
2938.00,0.0149
2937.00,0.0145
2936.00,0.0142
2935.00,0.0138
2934.00,0.0135
2933.00,0.0132
2932.00,0.0129
2931.00,0.0127
2930.00,0.0125
2929.00,0.0123
2928.00,0.0121
2927.00,0.0119
2926.00,0.0118
2925.00,0.0117
2924.00,0.0116
2923.00,0.0115
2922.00,0.0115
2921.00,0.0114
2920.00,0.0115
2919.00,0.0115
2918.00,0.0115
2917.00,0.0116
2916.00,0.0117
2915.00,0.0118
2914.00,0.0119
2913.00,0.0119
2912.00,0.0120
2911.00,0.0121
2910.00,0.0121
2909.00,0.0121
2908.00,0.0120
2907.00,0.0120
2906.00,0.0120
2905.00,0.0120
2904.00,0.0120
2903.00,0.0121
2902.00,0.0121
2901.00,0.0122
2900.00,0.0122
2899.00,0.0123
2898.00,0.0124
2897.00,0.0125
2896.00,0.0126
2895.00,0.0127
2894.00,0.0128
2893.00,0.0129
2892.00,0.0130
2891.00,0.0131
2890.00,0.0131
2889.00,0.0132
2888.00,0.0133
2887.00,0.0133
2886.00,0.0134
2885.00,0.0135
2884.00,0.0135
2883.00,0.0135
2882.00,0.0135
2881.00,0.0134
2880.00,0.0134
2879.00,0.0133
2878.00,0.0132
2877.00,0.0131
2876.00,0.0130
2875.00,0.0128
2874.00,0.0127
2873.00,0.0126
2872.00,0.0125
2871.00,0.0124
2870.00,0.0122
2869.00,0.0121
2868.00,0.0119
2867.00,0.0118
2866.00,0.0116
2865.00,0.0114
2864.00,0.0112
2863.00,0.0110
2862.00,0.0108
2861.00,0.0105
2860.00,0.0102
2859.00,0.0099
2858.00,0.0096
2857.00,0.0092
2856.00,0.0089
2855.00,0.0087
2854.00,0.0084
2853.00,0.0082
2852.00,0.0080
2851.00,0.0080
2850.00,0.0079
2849.00,0.0080
2848.00,0.0081
2847.00,0.0083
2846.00,0.0085
2845.00,0.0086
2844.00,0.0088
2843.00,0.0089
2842.00,0.0090
2841.00,0.0090
2840.00,0.0091
2839.00,0.0091
2838.00,0.0091
2837.00,0.0091
2836.00,0.0091
2835.00,0.0090
2834.00,0.0089
2833.00,0.0089
2832.00,0.0088
2831.00,0.0087
2830.00,0.0086
2829.00,0.0085
2828.00,0.0084
2827.00,0.0083
2826.00,0.0082
2825.00,0.0082
2824.00,0.0081
2823.00,0.0080
2822.00,0.0080
2821.00,0.0079
2820.00,0.0078
2819.00,0.0078
2818.00,0.0077
2817.00,0.0076
2816.00,0.0076
2815.00,0.0075
2814.00,0.0074
2813.00,0.0074
2812.00,0.0073
2811.00,0.0072
2810.00,0.0072
2809.00,0.0071
2808.00,0.0070
2807.00,0.0070
2806.00,0.0069
2805.00,0.0068
2804.00,0.0067
2803.00,0.0067
2802.00,0.0066
2801.00,0.0066
2800.00,0.0065
2799.00,0.0065
2798.00,0.0065
2797.00,0.0064
2796.00,0.0064
2795.00,0.0063
2794.00,0.0063
2793.00,0.0063
2792.00,0.0062
2791.00,0.0062
2790.00,0.0062
2789.00,0.0062
2788.00,0.0061
2787.00,0.0061
2786.00,0.0060
2785.00,0.0060
2784.00,0.0060
2783.00,0.0059
2782.00,0.0059
2781.00,0.0059
2780.00,0.0059
2779.00,0.0058
2778.00,0.0058
2777.00,0.0058
2776.00,0.0057
2775.00,0.0057
2774.00,0.0057
2773.00,0.0057
2772.00,0.0057
2771.00,0.0057
2770.00,0.0057
2769.00,0.0056
2768.00,0.0056
2767.00,0.0056
2766.00,0.0056
2765.00,0.0055
2764.00,0.0055
2763.00,0.0055
2762.00,0.0055
2761.00,0.0055
2760.00,0.0055
2759.00,0.0055
2758.00,0.0055
2757.00,0.0055
