Created as New Dataset,Sample 402 By YargerLab Date Thursday, December 04 2025
cm-1,A
4000.00,0.0060
3999.00,0.0060
3998.00,0.0060
3997.00,0.0060
3996.00,0.0060
3995.00,0.0061
3994.00,0.0061
3993.00,0.0061
3992.00,0.0061
3991.00,0.0061
3990.00,0.0061
3989.00,0.0060
3988.00,0.0060
3987.00,0.0061
3986.00,0.0061
3985.00,0.0061
3984.00,0.0061
3983.00,0.0060
3982.00,0.0060
3981.00,0.0060
3980.00,0.0060
3979.00,0.0060
3978.00,0.0060
3977.00,0.0060
3976.00,0.0060
3975.00,0.0060
3974.00,0.0060
3973.00,0.0060
3972.00,0.0060
3971.00,0.0060
3970.00,0.0060
3969.00,0.0060
3968.00,0.0060
3967.00,0.0060
3966.00,0.0060
3965.00,0.0060
3964.00,0.0061
3963.00,0.0061
3962.00,0.0061
3961.00,0.0061
3960.00,0.0060
3959.00,0.0060
3958.00,0.0060
3957.00,0.0060
3956.00,0.0060
3955.00,0.0060
3954.00,0.0060
3953.00,0.0061
3952.00,0.0061
3951.00,0.0061
3950.00,0.0061
3949.00,0.0061
3948.00,0.0061
3947.00,0.0061
3946.00,0.0061
3945.00,0.0061
3944.00,0.0061
3943.00,0.0061
3942.00,0.0061
3941.00,0.0061
3940.00,0.0061
3939.00,0.0061
3938.00,0.0061
3937.00,0.0061
3936.00,0.0061
3935.00,0.0061
3934.00,0.0061
3933.00,0.0061
3932.00,0.0060
3931.00,0.0060
3930.00,0.0060
3929.00,0.0061
3928.00,0.0061
3927.00,0.0061
3926.00,0.0061
3925.00,0.0060
3924.00,0.0061
3923.00,0.0061
3922.00,0.0061
3921.00,0.0061
3920.00,0.0060
3919.00,0.0060
3918.00,0.0061
3917.00,0.0061
3916.00,0.0061
3915.00,0.0061
3914.00,0.0061
3913.00,0.0061
3912.00,0.0061
3911.00,0.0061
3910.00,0.0061
3909.00,0.0061
3908.00,0.0061
3907.00,0.0061
3906.00,0.0061
3905.00,0.0061
3904.00,0.0061
3903.00,0.0061
3902.00,0.0061
3901.00,0.0061
3900.00,0.0062
3899.00,0.0061
3898.00,0.0061
3897.00,0.0061
3896.00,0.0061
3895.00,0.0061
3894.00,0.0061
3893.00,0.0061
3892.00,0.0061
3891.00,0.0061
3890.00,0.0060
3889.00,0.0061
3888.00,0.0061
3887.00,0.0061
3886.00,0.0061
3885.00,0.0061
3884.00,0.0061
3883.00,0.0060
3882.00,0.0060
3881.00,0.0060
3880.00,0.0060
3879.00,0.0060
3878.00,0.0060
3877.00,0.0060
3876.00,0.0060
3875.00,0.0060
3874.00,0.0060
3873.00,0.0060
3872.00,0.0060
3871.00,0.0060
3870.00,0.0061
3869.00,0.0061
3868.00,0.0061
3867.00,0.0061
3866.00,0.0061
3865.00,0.0061
3864.00,0.0061
3863.00,0.0061
3862.00,0.0061
3861.00,0.0061
3860.00,0.0061
3859.00,0.0061
3858.00,0.0061
3857.00,0.0061
3856.00,0.0061
3855.00,0.0061
3854.00,0.0061
3853.00,0.0061
3852.00,0.0061
3851.00,0.0061
3850.00,0.0061
3849.00,0.0061
3848.00,0.0061
3847.00,0.0061
3846.00,0.0061
3845.00,0.0061
3844.00,0.0061
3843.00,0.0061
3842.00,0.0061
3841.00,0.0060
3840.00,0.0060
3839.00,0.0060
3838.00,0.0060
3837.00,0.0061
3836.00,0.0061
3835.00,0.0061
3834.00,0.0061
3833.00,0.0061
3832.00,0.0061
3831.00,0.0061
3830.00,0.0061
3829.00,0.0061
3828.00,0.0061
3827.00,0.0061
3826.00,0.0060
3825.00,0.0060
3824.00,0.0060
3823.00,0.0060
3822.00,0.0061
3821.00,0.0061
3820.00,0.0061
3819.00,0.0061
3818.00,0.0061
3817.00,0.0061
3816.00,0.0061
3815.00,0.0061
3814.00,0.0061
3813.00,0.0061
3812.00,0.0061
3811.00,0.0061
3810.00,0.0061
3809.00,0.0061
3808.00,0.0061
3807.00,0.0061
3806.00,0.0060
3805.00,0.0060
3804.00,0.0060
3803.00,0.0060
3802.00,0.0061
3801.00,0.0061
3800.00,0.0061
3799.00,0.0061
3798.00,0.0061
3797.00,0.0061
3796.00,0.0061
3795.00,0.0061
3794.00,0.0061
3793.00,0.0061
3792.00,0.0061
3791.00,0.0061
3790.00,0.0061
3789.00,0.0061
3788.00,0.0061
3787.00,0.0061
3786.00,0.0061
3785.00,0.0061
3784.00,0.0061
3783.00,0.0061
3782.00,0.0061
3781.00,0.0061
3780.00,0.0061
3779.00,0.0061
3778.00,0.0061
3777.00,0.0061
3776.00,0.0061
3775.00,0.0061
3774.00,0.0061
3773.00,0.0061
3772.00,0.0061
3771.00,0.0061
3770.00,0.0061
3769.00,0.0061
3768.00,0.0061
3767.00,0.0061
3766.00,0.0061
3765.00,0.0061
3764.00,0.0061
3763.00,0.0062
3762.00,0.0062
3761.00,0.0062
3760.00,0.0061
3759.00,0.0061
3758.00,0.0061
3757.00,0.0061
3756.00,0.0061
3755.00,0.0061
3754.00,0.0061
3753.00,0.0061
3752.00,0.0061
3751.00,0.0061
3750.00,0.0061
3749.00,0.0061
3748.00,0.0061
3747.00,0.0061
3746.00,0.0061
3745.00,0.0061
3744.00,0.0061
3743.00,0.0060
3742.00,0.0060
3741.00,0.0060
3740.00,0.0060
3739.00,0.0060
3738.00,0.0060
3737.00,0.0059
3736.00,0.0059
3735.00,0.0059
3734.00,0.0059
3733.00,0.0060
3732.00,0.0060
3731.00,0.0060
3730.00,0.0060
3729.00,0.0060
3728.00,0.0060
3727.00,0.0060
3726.00,0.0060
3725.00,0.0060
3724.00,0.0059
3723.00,0.0059
3722.00,0.0059
3721.00,0.0059
3720.00,0.0059
3719.00,0.0059
3718.00,0.0059
3717.00,0.0059
3716.00,0.0059
3715.00,0.0060
3714.00,0.0060
3713.00,0.0059
3712.00,0.0059
3711.00,0.0059
3710.00,0.0059
3709.00,0.0059
3708.00,0.0059
3707.00,0.0059
3706.00,0.0059
3705.00,0.0059
3704.00,0.0059
3703.00,0.0059
3702.00,0.0059
3701.00,0.0059
3700.00,0.0059
3699.00,0.0059
3698.00,0.0059
3697.00,0.0059
3696.00,0.0059
3695.00,0.0059
3694.00,0.0059
3693.00,0.0059
3692.00,0.0060
3691.00,0.0060
3690.00,0.0060
3689.00,0.0060
3688.00,0.0061
3687.00,0.0061
3686.00,0.0061
3685.00,0.0061
3684.00,0.0061
3683.00,0.0061
3682.00,0.0061
3681.00,0.0062
3680.00,0.0062
3679.00,0.0062
3678.00,0.0063
3677.00,0.0063
3676.00,0.0063
3675.00,0.0063
3674.00,0.0064
3673.00,0.0064
3672.00,0.0064
3671.00,0.0064
3670.00,0.0064
3669.00,0.0065
3668.00,0.0065
3667.00,0.0065
3666.00,0.0065
3665.00,0.0065
3664.00,0.0066
3663.00,0.0066
3662.00,0.0066
3661.00,0.0067
3660.00,0.0067
3659.00,0.0067
3658.00,0.0067
3657.00,0.0067
3656.00,0.0067
3655.00,0.0068
3654.00,0.0068
3653.00,0.0068
3652.00,0.0068
3651.00,0.0068
3650.00,0.0068
3649.00,0.0068
3648.00,0.0068
3647.00,0.0068
3646.00,0.0068
3645.00,0.0068
3644.00,0.0068
3643.00,0.0068
3642.00,0.0068
3641.00,0.0069
3640.00,0.0069
3639.00,0.0069
3638.00,0.0070
3637.00,0.0070
3636.00,0.0070
3635.00,0.0070
3634.00,0.0070
3633.00,0.0070
3632.00,0.0070
3631.00,0.0071
3630.00,0.0071
3629.00,0.0072
3628.00,0.0072
3627.00,0.0072
3626.00,0.0072
3625.00,0.0072
3624.00,0.0072
3623.00,0.0072
3622.00,0.0072
3621.00,0.0073
3620.00,0.0073
3619.00,0.0073
3618.00,0.0074
3617.00,0.0074
3616.00,0.0075
3615.00,0.0075
3614.00,0.0076
3613.00,0.0076
3612.00,0.0077
3611.00,0.0078
3610.00,0.0078
3609.00,0.0078
3608.00,0.0079
3607.00,0.0079
3606.00,0.0079
3605.00,0.0080
3604.00,0.0080
3603.00,0.0080
3602.00,0.0080
3601.00,0.0081
3600.00,0.0081
3599.00,0.0082
3598.00,0.0082
3597.00,0.0082
3596.00,0.0083
3595.00,0.0083
3594.00,0.0084
3593.00,0.0084
3592.00,0.0084
3591.00,0.0084
3590.00,0.0085
3589.00,0.0085
3588.00,0.0085
3587.00,0.0086
3586.00,0.0087
3585.00,0.0087
3584.00,0.0088
3583.00,0.0088
3582.00,0.0088
3581.00,0.0089
3580.00,0.0089
3579.00,0.0090
3578.00,0.0090
3577.00,0.0091
3576.00,0.0091
3575.00,0.0092
3574.00,0.0092
3573.00,0.0092
3572.00,0.0092
3571.00,0.0092
3570.00,0.0093
3569.00,0.0093
3568.00,0.0093
3567.00,0.0094
3566.00,0.0095
3565.00,0.0095
3564.00,0.0096
3563.00,0.0096
3562.00,0.0096
3561.00,0.0096
3560.00,0.0097
3559.00,0.0098
3558.00,0.0098
3557.00,0.0099
3556.00,0.0099
3555.00,0.0099
3554.00,0.0100
3553.00,0.0100
3552.00,0.0100
3551.00,0.0101
3550.00,0.0101
3549.00,0.0101
3548.00,0.0101
3547.00,0.0102
3546.00,0.0102
3545.00,0.0103
3544.00,0.0103
3543.00,0.0104
3542.00,0.0104
3541.00,0.0104
3540.00,0.0105
3539.00,0.0105
3538.00,0.0105
3537.00,0.0105
3536.00,0.0105
3535.00,0.0105
3534.00,0.0105
3533.00,0.0105
3532.00,0.0105
3531.00,0.0106
3530.00,0.0106
3529.00,0.0106
3528.00,0.0106
3527.00,0.0107
3526.00,0.0107
3525.00,0.0107
3524.00,0.0108
3523.00,0.0108
3522.00,0.0108
3521.00,0.0108
3520.00,0.0108
3519.00,0.0109
3518.00,0.0109
3517.00,0.0109
3516.00,0.0109
3515.00,0.0109
3514.00,0.0109
3513.00,0.0109
3512.00,0.0109
3511.00,0.0109
3510.00,0.0110
3509.00,0.0110
3508.00,0.0110
3507.00,0.0111
3506.00,0.0111
3505.00,0.0111
3504.00,0.0111
3503.00,0.0111
3502.00,0.0111
3501.00,0.0112
3500.00,0.0112
3499.00,0.0112
3498.00,0.0112
3497.00,0.0112
3496.00,0.0112
3495.00,0.0113
3494.00,0.0113
3493.00,0.0113
3492.00,0.0113
3491.00,0.0113
3490.00,0.0113
3489.00,0.0113
3488.00,0.0113
3487.00,0.0113
3486.00,0.0114
3485.00,0.0114
3484.00,0.0114
3483.00,0.0114
3482.00,0.0114
3481.00,0.0115
3480.00,0.0115
3479.00,0.0115
3478.00,0.0115
3477.00,0.0115
3476.00,0.0115
3475.00,0.0115
3474.00,0.0116
3473.00,0.0116
3472.00,0.0116
3471.00,0.0116
3470.00,0.0116
3469.00,0.0116
3468.00,0.0116
3467.00,0.0116
3466.00,0.0116
3465.00,0.0116
3464.00,0.0116
3463.00,0.0116
3462.00,0.0116
3461.00,0.0116
3460.00,0.0116
3459.00,0.0116
3458.00,0.0116
3457.00,0.0116
3456.00,0.0116
3455.00,0.0116
3454.00,0.0116
3453.00,0.0116
3452.00,0.0116
3451.00,0.0117
3450.00,0.0117
3449.00,0.0117
3448.00,0.0117
3447.00,0.0117
3446.00,0.0117
3445.00,0.0117
3444.00,0.0117
3443.00,0.0117
3442.00,0.0117
3441.00,0.0117
3440.00,0.0117
3439.00,0.0117
3438.00,0.0117
3437.00,0.0117
3436.00,0.0117
3435.00,0.0117
3434.00,0.0117
3433.00,0.0117
3432.00,0.0117
3431.00,0.0117
3430.00,0.0117
3429.00,0.0118
3428.00,0.0118
3427.00,0.0118
3426.00,0.0118
3425.00,0.0118
3424.00,0.0118
3423.00,0.0118
3422.00,0.0118
3421.00,0.0118
3420.00,0.0118
3419.00,0.0118
3418.00,0.0118
3417.00,0.0118
3416.00,0.0118
3415.00,0.0119
3414.00,0.0119
3413.00,0.0118
3412.00,0.0118
3411.00,0.0119
3410.00,0.0119
3409.00,0.0119
3408.00,0.0119
3407.00,0.0119
3406.00,0.0119
3405.00,0.0119
3404.00,0.0118
3403.00,0.0118
3402.00,0.0118
3401.00,0.0118
3400.00,0.0119
3399.00,0.0119
3398.00,0.0120
3397.00,0.0120
3396.00,0.0120
3395.00,0.0120
3394.00,0.0120
3393.00,0.0119
3392.00,0.0120
3391.00,0.0120
3390.00,0.0120
3389.00,0.0121
3388.00,0.0121
3387.00,0.0122
3386.00,0.0122
3385.00,0.0122
3384.00,0.0123
3383.00,0.0123
3382.00,0.0123
3381.00,0.0123
3380.00,0.0122
3379.00,0.0122
3378.00,0.0122
3377.00,0.0122
3376.00,0.0123
3375.00,0.0123
3374.00,0.0123
3373.00,0.0123
3372.00,0.0122
3371.00,0.0121
3370.00,0.0121
3369.00,0.0121
3368.00,0.0121
3367.00,0.0122
3366.00,0.0123
3365.00,0.0124
3364.00,0.0125
3363.00,0.0125
3362.00,0.0125
3361.00,0.0125
3360.00,0.0126
3359.00,0.0126
3358.00,0.0127
3357.00,0.0127
3356.00,0.0128
3355.00,0.0127
3354.00,0.0127
3353.00,0.0127
3352.00,0.0126
3351.00,0.0127
3350.00,0.0128
3349.00,0.0129
3348.00,0.0130
3347.00,0.0130
3346.00,0.0130
3345.00,0.0131
3344.00,0.0131
3343.00,0.0131
3342.00,0.0131
3341.00,0.0131
3340.00,0.0131
3339.00,0.0131
3338.00,0.0132
3337.00,0.0132
3336.00,0.0133
3335.00,0.0134
3334.00,0.0135
3333.00,0.0135
3332.00,0.0136
3331.00,0.0136
3330.00,0.0136
3329.00,0.0136
3328.00,0.0135
3327.00,0.0135
3326.00,0.0136
3325.00,0.0136
3324.00,0.0137
3323.00,0.0137
3322.00,0.0138
3321.00,0.0138
3320.00,0.0138
3319.00,0.0139
3318.00,0.0139
3317.00,0.0140
3316.00,0.0140
3315.00,0.0140
3314.00,0.0140
3313.00,0.0140
3312.00,0.0140
3311.00,0.0139
3310.00,0.0139
3309.00,0.0138
3308.00,0.0138
3307.00,0.0138
3306.00,0.0139
3305.00,0.0140
3304.00,0.0142
3303.00,0.0143
3302.00,0.0144
3301.00,0.0145
3300.00,0.0146
3299.00,0.0146
3298.00,0.0146
3297.00,0.0145
3296.00,0.0145
3295.00,0.0145
3294.00,0.0145
3293.00,0.0146
3292.00,0.0146
3291.00,0.0147
3290.00,0.0148
3289.00,0.0148
3288.00,0.0148
3287.00,0.0148
3286.00,0.0148
3285.00,0.0148
3284.00,0.0148
3283.00,0.0148
3282.00,0.0147
3281.00,0.0147
3280.00,0.0146
3279.00,0.0145
3278.00,0.0145
3277.00,0.0144
3276.00,0.0143
3275.00,0.0142
3274.00,0.0141
3273.00,0.0140
3272.00,0.0139
3271.00,0.0139
3270.00,0.0139
3269.00,0.0139
3268.00,0.0139
3267.00,0.0139
3266.00,0.0138
3265.00,0.0138
3264.00,0.0137
3263.00,0.0137
3262.00,0.0136
3261.00,0.0135
3260.00,0.0135
3259.00,0.0134
3258.00,0.0133
3257.00,0.0132
3256.00,0.0132
3255.00,0.0132
3254.00,0.0132
3253.00,0.0131
3252.00,0.0131
3251.00,0.0130
3250.00,0.0130
3249.00,0.0129
3248.00,0.0129
3247.00,0.0128
3246.00,0.0128
3245.00,0.0129
3244.00,0.0129
3243.00,0.0130
3242.00,0.0130
3241.00,0.0131
3240.00,0.0132
3239.00,0.0132
3238.00,0.0133
3237.00,0.0133
3236.00,0.0133
3235.00,0.0133
3234.00,0.0133
3233.00,0.0134
3232.00,0.0134
3231.00,0.0135
3230.00,0.0136
3229.00,0.0137
3228.00,0.0137
3227.00,0.0138
3226.00,0.0138
3225.00,0.0138
3224.00,0.0138
3223.00,0.0138
3222.00,0.0138
3221.00,0.0138
3220.00,0.0138
3219.00,0.0138
3218.00,0.0138
3217.00,0.0138
3216.00,0.0138
3215.00,0.0138
3214.00,0.0137
3213.00,0.0137
3212.00,0.0136
3211.00,0.0135
3210.00,0.0135
3209.00,0.0134
3208.00,0.0134
3207.00,0.0133
3206.00,0.0133
3205.00,0.0132
3204.00,0.0132
3203.00,0.0131
3202.00,0.0130
3201.00,0.0130
3200.00,0.0129
3199.00,0.0128
3198.00,0.0128
3197.00,0.0127
3196.00,0.0126
3195.00,0.0125
3194.00,0.0124
3193.00,0.0123
3192.00,0.0123
3191.00,0.0122
3190.00,0.0121
3189.00,0.0120
3188.00,0.0119
3187.00,0.0119
3186.00,0.0118
3185.00,0.0117
3184.00,0.0116
3183.00,0.0115
3182.00,0.0114
3181.00,0.0114
3180.00,0.0113
3179.00,0.0112
3178.00,0.0111
3177.00,0.0110
3176.00,0.0109
3175.00,0.0109
3174.00,0.0108
3173.00,0.0107
3172.00,0.0106
3171.00,0.0105
3170.00,0.0104
3169.00,0.0104
3168.00,0.0103
3167.00,0.0102
3166.00,0.0102
3165.00,0.0101
3164.00,0.0100
3163.00,0.0100
3162.00,0.0099
3161.00,0.0098
3160.00,0.0098
3159.00,0.0097
3158.00,0.0097
3157.00,0.0096
3156.00,0.0095
3155.00,0.0095
3154.00,0.0094
3153.00,0.0094
3152.00,0.0094
3151.00,0.0093
3150.00,0.0093
3149.00,0.0092
3148.00,0.0092
3147.00,0.0091
3146.00,0.0091
3145.00,0.0090
3144.00,0.0090
3143.00,0.0089
3142.00,0.0089
3141.00,0.0089
3140.00,0.0089
3139.00,0.0088
3138.00,0.0088
3137.00,0.0088
3136.00,0.0089
3135.00,0.0089
3134.00,0.0088
3133.00,0.0088
3132.00,0.0088
3131.00,0.0088
3130.00,0.0088
3129.00,0.0088
3128.00,0.0088
3127.00,0.0089
3126.00,0.0089
3125.00,0.0089
3124.00,0.0090
3123.00,0.0090
3122.00,0.0091
3121.00,0.0092
3120.00,0.0093
3119.00,0.0094
3118.00,0.0095
3117.00,0.0096
3116.00,0.0097
3115.00,0.0098
3114.00,0.0099
3113.00,0.0100
3112.00,0.0102
3111.00,0.0103
3110.00,0.0104
3109.00,0.0106
3108.00,0.0107
3107.00,0.0108
3106.00,0.0109
3105.00,0.0110
3104.00,0.0112
3103.00,0.0113
3102.00,0.0114
3101.00,0.0115
3100.00,0.0116
3099.00,0.0117
3098.00,0.0117
3097.00,0.0118
3096.00,0.0118
3095.00,0.0118
3094.00,0.0119
3093.00,0.0119
3092.00,0.0119
3091.00,0.0119
3090.00,0.0119
3089.00,0.0119
3088.00,0.0118
3087.00,0.0118
3086.00,0.0118
3085.00,0.0118
3084.00,0.0117
3083.00,0.0117
3082.00,0.0117
3081.00,0.0116
3080.00,0.0116
3079.00,0.0115
3078.00,0.0115
3077.00,0.0115
3076.00,0.0115
3075.00,0.0114
3074.00,0.0114
3073.00,0.0114
3072.00,0.0113
3071.00,0.0113
3070.00,0.0112
3069.00,0.0112
3068.00,0.0111
3067.00,0.0111
3066.00,0.0110
3065.00,0.0109
3064.00,0.0109
3063.00,0.0108
3062.00,0.0108
3061.00,0.0107
3060.00,0.0106
3059.00,0.0105
3058.00,0.0104
3057.00,0.0103
3056.00,0.0102
3055.00,0.0101
3054.00,0.0100
3053.00,0.0099
3052.00,0.0098
3051.00,0.0098
3050.00,0.0097
3049.00,0.0097
3048.00,0.0097
3047.00,0.0096
3046.00,0.0096
3045.00,0.0095
3044.00,0.0094
3043.00,0.0094
3042.00,0.0094
3041.00,0.0094
3040.00,0.0094
3039.00,0.0094
3038.00,0.0094
3037.00,0.0094
3036.00,0.0094
3035.00,0.0095
3034.00,0.0095
3033.00,0.0095
3032.00,0.0096
3031.00,0.0096
3030.00,0.0097
3029.00,0.0097
3028.00,0.0098
3027.00,0.0098
3026.00,0.0098
3025.00,0.0099
3024.00,0.0099
3023.00,0.0099
3022.00,0.0100
3021.00,0.0101
3020.00,0.0101
3019.00,0.0102
3018.00,0.0103
3017.00,0.0104
3016.00,0.0105
3015.00,0.0106
3014.00,0.0108
3013.00,0.0110
3012.00,0.0111
3011.00,0.0114
3010.00,0.0116
3009.00,0.0119
3008.00,0.0122
3007.00,0.0124
3006.00,0.0127
3005.00,0.0130
3004.00,0.0134
3003.00,0.0137
3002.00,0.0140
3001.00,0.0144
3000.00,0.0147
2999.00,0.0150
2998.00,0.0153
2997.00,0.0157
2996.00,0.0160
2995.00,0.0164
2994.00,0.0167
2993.00,0.0171
2992.00,0.0174
2991.00,0.0177
2990.00,0.0180
2989.00,0.0183
2988.00,0.0186
2987.00,0.0189
2986.00,0.0192
2985.00,0.0195
2984.00,0.0198
2983.00,0.0200
2982.00,0.0203
2981.00,0.0204
2980.00,0.0205
2979.00,0.0205
2978.00,0.0204
2977.00,0.0204
2976.00,0.0204
2975.00,0.0204
2974.00,0.0204
2973.00,0.0205
2972.00,0.0206
2971.00,0.0206
2970.00,0.0207
2969.00,0.0207
2968.00,0.0207
2967.00,0.0207
2966.00,0.0208
2965.00,0.0210
2964.00,0.0211
2963.00,0.0213
2962.00,0.0216
2961.00,0.0219
2960.00,0.0221
2959.00,0.0224
2958.00,0.0227
2957.00,0.0231
2956.00,0.0234
2955.00,0.0237
2954.00,0.0239
2953.00,0.0242
2952.00,0.0245
2951.00,0.0246
2950.00,0.0247
2949.00,0.0248
2948.00,0.0247
2947.00,0.0245
2946.00,0.0242
2945.00,0.0238
2944.00,0.0234
2943.00,0.0229
2942.00,0.0225
2941.00,0.0220
2940.00,0.0215
2939.00,0.0210
2938.00,0.0205
2937.00,0.0201
2936.00,0.0197
2935.00,0.0193
2934.00,0.0190
2933.00,0.0186
2932.00,0.0183
2931.00,0.0181
2930.00,0.0178
2929.00,0.0176
2928.00,0.0174
2927.00,0.0173
2926.00,0.0171
2925.00,0.0170
2924.00,0.0169
2923.00,0.0168
2922.00,0.0168
2921.00,0.0167
2920.00,0.0167
2919.00,0.0167
2918.00,0.0167
2917.00,0.0168
2916.00,0.0168
2915.00,0.0169
2914.00,0.0169
2913.00,0.0170
2912.00,0.0170
2911.00,0.0170
2910.00,0.0170
2909.00,0.0170
2908.00,0.0169
2907.00,0.0169
2906.00,0.0168
2905.00,0.0168
2904.00,0.0168
2903.00,0.0168
2902.00,0.0168
2901.00,0.0169
2900.00,0.0169
2899.00,0.0170
2898.00,0.0171
2897.00,0.0172
2896.00,0.0173
2895.00,0.0174
2894.00,0.0175
2893.00,0.0176
2892.00,0.0177
2891.00,0.0178
2890.00,0.0179
2889.00,0.0180
2888.00,0.0181
2887.00,0.0182
2886.00,0.0182
2885.00,0.0183
2884.00,0.0183
2883.00,0.0183
2882.00,0.0183
2881.00,0.0182
2880.00,0.0182
2879.00,0.0181
2878.00,0.0180
2877.00,0.0179
2876.00,0.0178
2875.00,0.0176
2874.00,0.0174
2873.00,0.0173
2872.00,0.0172
2871.00,0.0170
2870.00,0.0169
2869.00,0.0167
2868.00,0.0165
2867.00,0.0163
2866.00,0.0161
2865.00,0.0159
2864.00,0.0156
2863.00,0.0154
2862.00,0.0151
2861.00,0.0147
2860.00,0.0144
2859.00,0.0140
2858.00,0.0137
2857.00,0.0133
2856.00,0.0130
2855.00,0.0127
2854.00,0.0124
2853.00,0.0121
2852.00,0.0120
2851.00,0.0118
2850.00,0.0118
2849.00,0.0118
2848.00,0.0119
2847.00,0.0121
2846.00,0.0123
2845.00,0.0124
2844.00,0.0126
2843.00,0.0127
2842.00,0.0127
2841.00,0.0127
2840.00,0.0127
2839.00,0.0127
2838.00,0.0126
2837.00,0.0126
2836.00,0.0126
2835.00,0.0125
2834.00,0.0124
2833.00,0.0123
2832.00,0.0121
2831.00,0.0120
2830.00,0.0118
2829.00,0.0117
2828.00,0.0116
2827.00,0.0114
2826.00,0.0113
2825.00,0.0112
2824.00,0.0111
2823.00,0.0110
2822.00,0.0109
2821.00,0.0108
2820.00,0.0107
2819.00,0.0107
2818.00,0.0106
2817.00,0.0105
2816.00,0.0104
2815.00,0.0103
2814.00,0.0102
2813.00,0.0101
2812.00,0.0100
2811.00,0.0099
2810.00,0.0098
2809.00,0.0098
2808.00,0.0097
2807.00,0.0096
2806.00,0.0096
2805.00,0.0095
2804.00,0.0095
2803.00,0.0094
2802.00,0.0093
2801.00,0.0093
2800.00,0.0092
2799.00,0.0092
2798.00,0.0091
2797.00,0.0091
2796.00,0.0090
2795.00,0.0090
2794.00,0.0089
2793.00,0.0089
2792.00,0.0088
2791.00,0.0088
2790.00,0.0088
2789.00,0.0087
2788.00,0.0087
2787.00,0.0087
2786.00,0.0086
2785.00,0.0086
2784.00,0.0085
2783.00,0.0085
2782.00,0.0085
2781.00,0.0084
2780.00,0.0084
2779.00,0.0083
2778.00,0.0083
2777.00,0.0083
2776.00,0.0083
2775.00,0.0082
2774.00,0.0082
2773.00,0.0082
2772.00,0.0082
2771.00,0.0082
2770.00,0.0081
2769.00,0.0081
2768.00,0.0081
2767.00,0.0081
2766.00,0.0081
2765.00,0.0080
2764.00,0.0080
2763.00,0.0080
2762.00,0.0080
2761.00,0.0079
2760.00,0.0079
2759.00,0.0079
2758.00,0.0079
2757.00,0.0079
