Created as New Dataset,Sample 374 By YargerLab Date Wednesday, October 23 2024
cm-1,A
4000.00,0.0011
3999.00,0.0011
3998.00,0.0011
3997.00,0.0011
3996.00,0.0011
3995.00,0.0011
3994.00,0.0011
3993.00,0.0011
3992.00,0.0011
3991.00,0.0011
3990.00,0.0011
3989.00,0.0011
3988.00,0.0011
3987.00,0.0011
3986.00,0.0011
3985.00,0.0011
3984.00,0.0011
3983.00,0.0011
3982.00,0.0011
3981.00,0.0011
3980.00,0.0011
3979.00,0.0011
3978.00,0.0011
3977.00,0.0011
3976.00,0.0011
3975.00,0.0011
3974.00,0.0011
3973.00,0.0010
3972.00,0.0010
3971.00,0.0010
3970.00,0.0010
3969.00,0.0010
3968.00,0.0010
3967.00,0.0010
3966.00,0.0010
3965.00,0.0010
3964.00,0.0010
3963.00,0.0010
3962.00,0.0010
3961.00,0.0010
3960.00,0.0010
3959.00,0.0010
3958.00,0.0010
3957.00,0.0010
3956.00,0.0010
3955.00,0.0010
3954.00,0.0010
3953.00,0.0010
3952.00,0.0010
3951.00,0.0011
3950.00,0.0011
3949.00,0.0011
3948.00,0.0011
3947.00,0.0011
3946.00,0.0011
3945.00,0.0011
3944.00,0.0011
3943.00,0.0011
3942.00,0.0010
3941.00,0.0010
3940.00,0.0010
3939.00,0.0010
3938.00,0.0010
3937.00,0.0010
3936.00,0.0010
3935.00,0.0010
3934.00,0.0010
3933.00,0.0010
3932.00,0.0010
3931.00,0.0010
3930.00,0.0010
3929.00,0.0010
3928.00,0.0010
3927.00,0.0010
3926.00,0.0010
3925.00,0.0010
3924.00,0.0011
3923.00,0.0011
3922.00,0.0011
3921.00,0.0011
3920.00,0.0011
3919.00,0.0010
3918.00,0.0010
3917.00,0.0010
3916.00,0.0010
3915.00,0.0010
3914.00,0.0010
3913.00,0.0010
3912.00,0.0009
3911.00,0.0009
3910.00,0.0009
3909.00,0.0009
3908.00,0.0010
3907.00,0.0010
3906.00,0.0010
3905.00,0.0011
3904.00,0.0011
3903.00,0.0011
3902.00,0.0011
3901.00,0.0011
3900.00,0.0011
3899.00,0.0010
3898.00,0.0010
3897.00,0.0010
3896.00,0.0010
3895.00,0.0010
3894.00,0.0010
3893.00,0.0009
3892.00,0.0009
3891.00,0.0009
3890.00,0.0009
3889.00,0.0010
3888.00,0.0010
3887.00,0.0010
3886.00,0.0010
3885.00,0.0010
3884.00,0.0010
3883.00,0.0010
3882.00,0.0010
3881.00,0.0010
3880.00,0.0009
3879.00,0.0009
3878.00,0.0010
3877.00,0.0010
3876.00,0.0010
3875.00,0.0009
3874.00,0.0010
3873.00,0.0010
3872.00,0.0010
3871.00,0.0010
3870.00,0.0009
3869.00,0.0009
3868.00,0.0010
3867.00,0.0010
3866.00,0.0010
3865.00,0.0009
3864.00,0.0009
3863.00,0.0009
3862.00,0.0009
3861.00,0.0009
3860.00,0.0009
3859.00,0.0009
3858.00,0.0009
3857.00,0.0009
3856.00,0.0010
3855.00,0.0010
3854.00,0.0009
3853.00,0.0010
3852.00,0.0010
3851.00,0.0010
3850.00,0.0009
3849.00,0.0009
3848.00,0.0009
3847.00,0.0009
3846.00,0.0009
3845.00,0.0009
3844.00,0.0009
3843.00,0.0009
3842.00,0.0010
3841.00,0.0010
3840.00,0.0010
3839.00,0.0009
3838.00,0.0009
3837.00,0.0009
3836.00,0.0009
3835.00,0.0009
3834.00,0.0009
3833.00,0.0009
3832.00,0.0008
3831.00,0.0008
3830.00,0.0008
3829.00,0.0009
3828.00,0.0008
3827.00,0.0008
3826.00,0.0009
3825.00,0.0009
3824.00,0.0009
3823.00,0.0009
3822.00,0.0009
3821.00,0.0009
3820.00,0.0009
3819.00,0.0009
3818.00,0.0009
3817.00,0.0008
3816.00,0.0008
3815.00,0.0008
3814.00,0.0008
3813.00,0.0008
3812.00,0.0008
3811.00,0.0008
3810.00,0.0008
3809.00,0.0008
3808.00,0.0008
3807.00,0.0008
3806.00,0.0008
3805.00,0.0009
3804.00,0.0009
3803.00,0.0009
3802.00,0.0009
3801.00,0.0009
3800.00,0.0009
3799.00,0.0009
3798.00,0.0009
3797.00,0.0008
3796.00,0.0008
3795.00,0.0008
3794.00,0.0008
3793.00,0.0008
3792.00,0.0008
3791.00,0.0008
3790.00,0.0008
3789.00,0.0008
3788.00,0.0008
3787.00,0.0008
3786.00,0.0008
3785.00,0.0008
3784.00,0.0008
3783.00,0.0008
3782.00,0.0008
3781.00,0.0009
3780.00,0.0009
3779.00,0.0009
3778.00,0.0009
3777.00,0.0009
3776.00,0.0009
3775.00,0.0008
3774.00,0.0008
3773.00,0.0008
3772.00,0.0008
3771.00,0.0008
3770.00,0.0008
3769.00,0.0009
3768.00,0.0009
3767.00,0.0009
3766.00,0.0009
3765.00,0.0008
3764.00,0.0008
3763.00,0.0008
3762.00,0.0009
3761.00,0.0009
3760.00,0.0009
3759.00,0.0009
3758.00,0.0009
3757.00,0.0009
3756.00,0.0009
3755.00,0.0009
3754.00,0.0009
3753.00,0.0009
3752.00,0.0009
3751.00,0.0010
3750.00,0.0010
3749.00,0.0010
3748.00,0.0010
3747.00,0.0011
3746.00,0.0010
3745.00,0.0010
3744.00,0.0010
3743.00,0.0010
3742.00,0.0010
3741.00,0.0010
3740.00,0.0010
3739.00,0.0010
3738.00,0.0010
3737.00,0.0010
3736.00,0.0010
3735.00,0.0011
3734.00,0.0011
3733.00,0.0010
3732.00,0.0010
3731.00,0.0010
3730.00,0.0009
3729.00,0.0009
3728.00,0.0009
3727.00,0.0009
3726.00,0.0009
3725.00,0.0010
3724.00,0.0010
3723.00,0.0010
3722.00,0.0009
3721.00,0.0009
3720.00,0.0009
3719.00,0.0009
3718.00,0.0009
3717.00,0.0009
3716.00,0.0009
3715.00,0.0009
3714.00,0.0009
3713.00,0.0009
3712.00,0.0009
3711.00,0.0009
3710.00,0.0010
3709.00,0.0009
3708.00,0.0009
3707.00,0.0009
3706.00,0.0009
3705.00,0.0009
3704.00,0.0009
3703.00,0.0009
3702.00,0.0010
3701.00,0.0010
3700.00,0.0010
3699.00,0.0010
3698.00,0.0010
3697.00,0.0009
3696.00,0.0009
3695.00,0.0009
3694.00,0.0009
3693.00,0.0010
3692.00,0.0010
3691.00,0.0010
3690.00,0.0010
3689.00,0.0011
3688.00,0.0011
3687.00,0.0011
3686.00,0.0011
3685.00,0.0011
3684.00,0.0011
3683.00,0.0011
3682.00,0.0011
3681.00,0.0012
3680.00,0.0012
3679.00,0.0012
3678.00,0.0013
3677.00,0.0013
3676.00,0.0013
3675.00,0.0014
3674.00,0.0015
3673.00,0.0015
3672.00,0.0015
3671.00,0.0015
3670.00,0.0015
3669.00,0.0015
3668.00,0.0016
3667.00,0.0016
3666.00,0.0016
3665.00,0.0016
3664.00,0.0016
3663.00,0.0016
3662.00,0.0016
3661.00,0.0016
3660.00,0.0017
3659.00,0.0017
3658.00,0.0017
3657.00,0.0017
3656.00,0.0018
3655.00,0.0019
3654.00,0.0020
3653.00,0.0020
3652.00,0.0021
3651.00,0.0021
3650.00,0.0022
3649.00,0.0023
3648.00,0.0023
3647.00,0.0024
3646.00,0.0024
3645.00,0.0023
3644.00,0.0023
3643.00,0.0023
3642.00,0.0024
3641.00,0.0024
3640.00,0.0025
3639.00,0.0025
3638.00,0.0025
3637.00,0.0026
3636.00,0.0026
3635.00,0.0027
3634.00,0.0027
3633.00,0.0028
3632.00,0.0029
3631.00,0.0030
3630.00,0.0031
3629.00,0.0032
3628.00,0.0033
3627.00,0.0033
3626.00,0.0033
3625.00,0.0033
3624.00,0.0033
3623.00,0.0034
3622.00,0.0034
3621.00,0.0035
3620.00,0.0036
3619.00,0.0036
3618.00,0.0037
3617.00,0.0038
3616.00,0.0039
3615.00,0.0039
3614.00,0.0039
3613.00,0.0040
3612.00,0.0041
3611.00,0.0041
3610.00,0.0042
3609.00,0.0042
3608.00,0.0043
3607.00,0.0044
3606.00,0.0044
3605.00,0.0045
3604.00,0.0045
3603.00,0.0046
3602.00,0.0046
3601.00,0.0047
3600.00,0.0047
3599.00,0.0048
3598.00,0.0049
3597.00,0.0049
3596.00,0.0050
3595.00,0.0050
3594.00,0.0051
3593.00,0.0052
3592.00,0.0052
3591.00,0.0053
3590.00,0.0054
3589.00,0.0055
3588.00,0.0056
3587.00,0.0057
3586.00,0.0058
3585.00,0.0058
3584.00,0.0059
3583.00,0.0059
3582.00,0.0060
3581.00,0.0060
3580.00,0.0061
3579.00,0.0062
3578.00,0.0063
3577.00,0.0063
3576.00,0.0064
3575.00,0.0065
3574.00,0.0065
3573.00,0.0066
3572.00,0.0067
3571.00,0.0068
3570.00,0.0069
3569.00,0.0070
3568.00,0.0071
3567.00,0.0072
3566.00,0.0073
3565.00,0.0074
3564.00,0.0075
3563.00,0.0075
3562.00,0.0075
3561.00,0.0076
3560.00,0.0077
3559.00,0.0077
3558.00,0.0078
3557.00,0.0079
3556.00,0.0079
3555.00,0.0080
3554.00,0.0081
3553.00,0.0082
3552.00,0.0083
3551.00,0.0084
3550.00,0.0085
3549.00,0.0086
3548.00,0.0086
3547.00,0.0087
3546.00,0.0088
3545.00,0.0089
3544.00,0.0090
3543.00,0.0091
3542.00,0.0091
3541.00,0.0092
3540.00,0.0092
3539.00,0.0093
3538.00,0.0094
3537.00,0.0095
3536.00,0.0096
3535.00,0.0096
3534.00,0.0097
3533.00,0.0098
3532.00,0.0099
3531.00,0.0100
3530.00,0.0101
3529.00,0.0102
3528.00,0.0103
3527.00,0.0104
3526.00,0.0105
3525.00,0.0106
3524.00,0.0106
3523.00,0.0107
3522.00,0.0108
3521.00,0.0108
3520.00,0.0109
3519.00,0.0110
3518.00,0.0111
3517.00,0.0111
3516.00,0.0112
3515.00,0.0113
3514.00,0.0114
3513.00,0.0115
3512.00,0.0116
3511.00,0.0117
3510.00,0.0118
3509.00,0.0119
3508.00,0.0120
3507.00,0.0121
3506.00,0.0122
3505.00,0.0122
3504.00,0.0123
3503.00,0.0124
3502.00,0.0126
3501.00,0.0127
3500.00,0.0127
3499.00,0.0128
3498.00,0.0129
3497.00,0.0130
3496.00,0.0131
3495.00,0.0132
3494.00,0.0133
3493.00,0.0133
3492.00,0.0134
3491.00,0.0135
3490.00,0.0136
3489.00,0.0137
3488.00,0.0138
3487.00,0.0139
3486.00,0.0140
3485.00,0.0141
3484.00,0.0143
3483.00,0.0144
3482.00,0.0145
3481.00,0.0146
3480.00,0.0147
3479.00,0.0148
3478.00,0.0149
3477.00,0.0149
3476.00,0.0150
3475.00,0.0151
3474.00,0.0153
3473.00,0.0154
3472.00,0.0155
3471.00,0.0155
3470.00,0.0156
3469.00,0.0157
3468.00,0.0158
3467.00,0.0159
3466.00,0.0160
3465.00,0.0161
3464.00,0.0162
3463.00,0.0163
3462.00,0.0164
3461.00,0.0165
3460.00,0.0166
3459.00,0.0167
3458.00,0.0168
3457.00,0.0169
3456.00,0.0170
3455.00,0.0171
3454.00,0.0172
3453.00,0.0173
3452.00,0.0174
3451.00,0.0175
3450.00,0.0176
3449.00,0.0177
3448.00,0.0178
3447.00,0.0180
3446.00,0.0181
3445.00,0.0182
3444.00,0.0183
3443.00,0.0184
3442.00,0.0185
3441.00,0.0186
3440.00,0.0188
3439.00,0.0189
3438.00,0.0190
3437.00,0.0191
3436.00,0.0192
3435.00,0.0194
3434.00,0.0195
3433.00,0.0197
3432.00,0.0198
3431.00,0.0199
3430.00,0.0200
3429.00,0.0202
3428.00,0.0203
3427.00,0.0205
3426.00,0.0206
3425.00,0.0207
3424.00,0.0208
3423.00,0.0209
3422.00,0.0211
3421.00,0.0212
3420.00,0.0213
3419.00,0.0215
3418.00,0.0216
3417.00,0.0217
3416.00,0.0218
3415.00,0.0219
3414.00,0.0220
3413.00,0.0222
3412.00,0.0223
3411.00,0.0224
3410.00,0.0225
3409.00,0.0227
3408.00,0.0228
3407.00,0.0229
3406.00,0.0230
3405.00,0.0231
3404.00,0.0232
3403.00,0.0233
3402.00,0.0234
3401.00,0.0235
3400.00,0.0237
3399.00,0.0238
3398.00,0.0240
3397.00,0.0241
3396.00,0.0242
3395.00,0.0243
3394.00,0.0244
3393.00,0.0245
3392.00,0.0246
3391.00,0.0248
3390.00,0.0249
3389.00,0.0251
3388.00,0.0252
3387.00,0.0254
3386.00,0.0255
3385.00,0.0256
3384.00,0.0257
3383.00,0.0259
3382.00,0.0260
3381.00,0.0261
3380.00,0.0262
3379.00,0.0264
3378.00,0.0265
3377.00,0.0267
3376.00,0.0268
3375.00,0.0270
3374.00,0.0271
3373.00,0.0273
3372.00,0.0274
3371.00,0.0275
3370.00,0.0276
3369.00,0.0278
3368.00,0.0280
3367.00,0.0282
3366.00,0.0284
3365.00,0.0286
3364.00,0.0288
3363.00,0.0289
3362.00,0.0291
3361.00,0.0292
3360.00,0.0294
3359.00,0.0296
3358.00,0.0298
3357.00,0.0300
3356.00,0.0302
3355.00,0.0304
3354.00,0.0305
3353.00,0.0307
3352.00,0.0308
3351.00,0.0310
3350.00,0.0312
3349.00,0.0314
3348.00,0.0317
3347.00,0.0319
3346.00,0.0320
3345.00,0.0322
3344.00,0.0324
3343.00,0.0326
3342.00,0.0327
3341.00,0.0329
3340.00,0.0331
3339.00,0.0333
3338.00,0.0336
3337.00,0.0338
3336.00,0.0341
3335.00,0.0344
3334.00,0.0346
3333.00,0.0348
3332.00,0.0350
3331.00,0.0352
3330.00,0.0354
3329.00,0.0356
3328.00,0.0358
3327.00,0.0360
3326.00,0.0362
3325.00,0.0365
3324.00,0.0368
3323.00,0.0371
3322.00,0.0374
3321.00,0.0376
3320.00,0.0379
3319.00,0.0381
3318.00,0.0384
3317.00,0.0386
3316.00,0.0388
3315.00,0.0391
3314.00,0.0393
3313.00,0.0395
3312.00,0.0397
3311.00,0.0399
3310.00,0.0401
3309.00,0.0402
3308.00,0.0404
3307.00,0.0407
3306.00,0.0409
3305.00,0.0413
3304.00,0.0416
3303.00,0.0419
3302.00,0.0422
3301.00,0.0424
3300.00,0.0427
3299.00,0.0429
3298.00,0.0431
3297.00,0.0432
3296.00,0.0434
3295.00,0.0435
3294.00,0.0437
3293.00,0.0439
3292.00,0.0441
3291.00,0.0444
3290.00,0.0446
3289.00,0.0448
3288.00,0.0450
3287.00,0.0451
3286.00,0.0452
3285.00,0.0453
3284.00,0.0454
3283.00,0.0455
3282.00,0.0455
3281.00,0.0456
3280.00,0.0456
3279.00,0.0456
3278.00,0.0456
3277.00,0.0455
3276.00,0.0455
3275.00,0.0454
3274.00,0.0453
3273.00,0.0451
3272.00,0.0450
3271.00,0.0449
3270.00,0.0448
3269.00,0.0448
3268.00,0.0447
3267.00,0.0445
3266.00,0.0444
3265.00,0.0442
3264.00,0.0440
3263.00,0.0438
3262.00,0.0436
3261.00,0.0434
3260.00,0.0431
3259.00,0.0429
3258.00,0.0426
3257.00,0.0423
3256.00,0.0421
3255.00,0.0418
3254.00,0.0416
3253.00,0.0414
3252.00,0.0412
3251.00,0.0409
3250.00,0.0406
3249.00,0.0403
3248.00,0.0400
3247.00,0.0398
3246.00,0.0396
3245.00,0.0395
3244.00,0.0393
3243.00,0.0391
3242.00,0.0390
3241.00,0.0388
3240.00,0.0386
3239.00,0.0384
3238.00,0.0382
3237.00,0.0379
3236.00,0.0377
3235.00,0.0374
3234.00,0.0372
3233.00,0.0371
3232.00,0.0370
3231.00,0.0369
3230.00,0.0368
3229.00,0.0367
3228.00,0.0366
3227.00,0.0364
3226.00,0.0363
3225.00,0.0362
3224.00,0.0360
3223.00,0.0359
3222.00,0.0358
3221.00,0.0356
3220.00,0.0355
3219.00,0.0354
3218.00,0.0353
3217.00,0.0352
3216.00,0.0350
3215.00,0.0349
3214.00,0.0348
3213.00,0.0347
3212.00,0.0346
3211.00,0.0345
3210.00,0.0344
3209.00,0.0342
3208.00,0.0341
3207.00,0.0340
3206.00,0.0339
3205.00,0.0338
3204.00,0.0336
3203.00,0.0335
3202.00,0.0334
3201.00,0.0333
3200.00,0.0332
3199.00,0.0331
3198.00,0.0330
3197.00,0.0329
3196.00,0.0327
3195.00,0.0326
3194.00,0.0325
3193.00,0.0324
3192.00,0.0322
3191.00,0.0321
3190.00,0.0320
3189.00,0.0318
3188.00,0.0317
3187.00,0.0315
3186.00,0.0314
3185.00,0.0313
3184.00,0.0311
3183.00,0.0310
3182.00,0.0309
3181.00,0.0308
3180.00,0.0306
3179.00,0.0305
3178.00,0.0304
3177.00,0.0302
3176.00,0.0301
3175.00,0.0300
3174.00,0.0298
3173.00,0.0297
3172.00,0.0295
3171.00,0.0294
3170.00,0.0292
3169.00,0.0291
3168.00,0.0290
3167.00,0.0289
3166.00,0.0287
3165.00,0.0286
3164.00,0.0285
3163.00,0.0283
3162.00,0.0282
3161.00,0.0281
3160.00,0.0279
3159.00,0.0278
3158.00,0.0277
3157.00,0.0275
3156.00,0.0274
3155.00,0.0272
3154.00,0.0271
3153.00,0.0270
3152.00,0.0269
3151.00,0.0268
3150.00,0.0267
3149.00,0.0267
3148.00,0.0266
3147.00,0.0265
3146.00,0.0264
3145.00,0.0263
3144.00,0.0262
3143.00,0.0261
3142.00,0.0259
3141.00,0.0258
3140.00,0.0257
3139.00,0.0256
3138.00,0.0255
3137.00,0.0255
3136.00,0.0254
3135.00,0.0253
3134.00,0.0253
3133.00,0.0252
3132.00,0.0251
3131.00,0.0251
3130.00,0.0250
3129.00,0.0249
3128.00,0.0249
3127.00,0.0248
3126.00,0.0248
3125.00,0.0247
3124.00,0.0246
3123.00,0.0245
3122.00,0.0244
3121.00,0.0244
3120.00,0.0243
3119.00,0.0242
3118.00,0.0242
3117.00,0.0242
3116.00,0.0242
3115.00,0.0243
3114.00,0.0244
3113.00,0.0244
3112.00,0.0244
3111.00,0.0243
3110.00,0.0243
3109.00,0.0243
3108.00,0.0243
3107.00,0.0244
3106.00,0.0244
3105.00,0.0245
3104.00,0.0245
3103.00,0.0245
3102.00,0.0245
3101.00,0.0245
3100.00,0.0245
3099.00,0.0246
3098.00,0.0246
3097.00,0.0247
3096.00,0.0248
3095.00,0.0248
3094.00,0.0248
3093.00,0.0248
3092.00,0.0248
3091.00,0.0248
3090.00,0.0248
3089.00,0.0248
3088.00,0.0248
3087.00,0.0248
3086.00,0.0248
3085.00,0.0248
3084.00,0.0249
3083.00,0.0249
3082.00,0.0248
3081.00,0.0248
3080.00,0.0248
3079.00,0.0249
3078.00,0.0250
3077.00,0.0250
3076.00,0.0251
3075.00,0.0252
3074.00,0.0252
3073.00,0.0252
3072.00,0.0252
3071.00,0.0251
3070.00,0.0250
3069.00,0.0250
3068.00,0.0250
3067.00,0.0250
3066.00,0.0250
3065.00,0.0250
3064.00,0.0250
3063.00,0.0250
3062.00,0.0249
3061.00,0.0249
3060.00,0.0248
3059.00,0.0247
3058.00,0.0246
3057.00,0.0245
3056.00,0.0243
3055.00,0.0242
3054.00,0.0241
3053.00,0.0240
3052.00,0.0239
3051.00,0.0238
3050.00,0.0237
3049.00,0.0236
3048.00,0.0235
3047.00,0.0234
3046.00,0.0233
3045.00,0.0231
3044.00,0.0230
3043.00,0.0229
3042.00,0.0228
3041.00,0.0228
3040.00,0.0227
3039.00,0.0227
3038.00,0.0226
3037.00,0.0225
3036.00,0.0223
3035.00,0.0222
3034.00,0.0221
3033.00,0.0220
3032.00,0.0220
3031.00,0.0219
3030.00,0.0218
3029.00,0.0218
3028.00,0.0217
3027.00,0.0216
3026.00,0.0214
3025.00,0.0213
3024.00,0.0212
3023.00,0.0211
3022.00,0.0210
3021.00,0.0209
3020.00,0.0208
3019.00,0.0206
3018.00,0.0205
3017.00,0.0203
3016.00,0.0202
3015.00,0.0201
3014.00,0.0200
3013.00,0.0200
3012.00,0.0200
3011.00,0.0200
3010.00,0.0201
3009.00,0.0201
3008.00,0.0201
3007.00,0.0201
3006.00,0.0200
3005.00,0.0200
3004.00,0.0199
3003.00,0.0199
3002.00,0.0199
3001.00,0.0199
3000.00,0.0199
2999.00,0.0199
2998.00,0.0200
2997.00,0.0201
2996.00,0.0201
2995.00,0.0202
2994.00,0.0203
2993.00,0.0205
2992.00,0.0206
2991.00,0.0208
2990.00,0.0211
2989.00,0.0213
2988.00,0.0215
2987.00,0.0218
2986.00,0.0220
2985.00,0.0223
2984.00,0.0226
2983.00,0.0229
2982.00,0.0232
2981.00,0.0236
2980.00,0.0239
2979.00,0.0244
2978.00,0.0248
2977.00,0.0252
2976.00,0.0256
2975.00,0.0261
2974.00,0.0265
2973.00,0.0270
2972.00,0.0274
2971.00,0.0278
2970.00,0.0282
2969.00,0.0285
2968.00,0.0289
2967.00,0.0292
2966.00,0.0295
2965.00,0.0297
2964.00,0.0299
2963.00,0.0300
2962.00,0.0302
2961.00,0.0302
2960.00,0.0303
2959.00,0.0302
2958.00,0.0302
2957.00,0.0300
2956.00,0.0299
2955.00,0.0297
2954.00,0.0294
2953.00,0.0292
2952.00,0.0290
2951.00,0.0288
2950.00,0.0287
2949.00,0.0286
2948.00,0.0285
2947.00,0.0285
2946.00,0.0286
2945.00,0.0287
2944.00,0.0289
2943.00,0.0292
2942.00,0.0294
2941.00,0.0297
2940.00,0.0301
2939.00,0.0304
2938.00,0.0308
2937.00,0.0311
2936.00,0.0314
2935.00,0.0317
2934.00,0.0320
2933.00,0.0322
2932.00,0.0324
2931.00,0.0326
2930.00,0.0328
2929.00,0.0329
2928.00,0.0330
2927.00,0.0331
2926.00,0.0331
2925.00,0.0330
2924.00,0.0329
2923.00,0.0328
2922.00,0.0325
2921.00,0.0323
2920.00,0.0319
2919.00,0.0316
2918.00,0.0311
2917.00,0.0307
2916.00,0.0302
2915.00,0.0297
2914.00,0.0293
2913.00,0.0288
2912.00,0.0284
2911.00,0.0280
2910.00,0.0276
2909.00,0.0272
2908.00,0.0269
2907.00,0.0266
2906.00,0.0263
2905.00,0.0261
2904.00,0.0258
2903.00,0.0256
2902.00,0.0253
2901.00,0.0251
2900.00,0.0249
2899.00,0.0247
2898.00,0.0245
2897.00,0.0243
2896.00,0.0242
2895.00,0.0240
2894.00,0.0239
2893.00,0.0237
2892.00,0.0236
2891.00,0.0235
2890.00,0.0234
2889.00,0.0233
2888.00,0.0233
2887.00,0.0232
2886.00,0.0232
2885.00,0.0232
2884.00,0.0233
2883.00,0.0233
2882.00,0.0234
2881.00,0.0236
2880.00,0.0237
2879.00,0.0238
2878.00,0.0239
2877.00,0.0240
2876.00,0.0240
2875.00,0.0240
2874.00,0.0240
2873.00,0.0240
2872.00,0.0239
2871.00,0.0238
2870.00,0.0237
2869.00,0.0235
2868.00,0.0233
2867.00,0.0231
2866.00,0.0229
2865.00,0.0227
2864.00,0.0226
2863.00,0.0225
2862.00,0.0224
2861.00,0.0224
2860.00,0.0224
2859.00,0.0224
2858.00,0.0224
2857.00,0.0225
2856.00,0.0225
2855.00,0.0225
2854.00,0.0224
2853.00,0.0223
2852.00,0.0221
2851.00,0.0218
2850.00,0.0214
2849.00,0.0210
2848.00,0.0205
2847.00,0.0201
2846.00,0.0197
2845.00,0.0193
2844.00,0.0189
2843.00,0.0185
2842.00,0.0181
2841.00,0.0178
2840.00,0.0175
2839.00,0.0173
2838.00,0.0171
2837.00,0.0169
2836.00,0.0168
2835.00,0.0166
2834.00,0.0165
2833.00,0.0164
2832.00,0.0163
2831.00,0.0162
2830.00,0.0161
2829.00,0.0160
2828.00,0.0159
2827.00,0.0158
2826.00,0.0157
2825.00,0.0156
2824.00,0.0156
2823.00,0.0155
2822.00,0.0154
2821.00,0.0153
2820.00,0.0152
2819.00,0.0152
2818.00,0.0151
2817.00,0.0151
2816.00,0.0150
2815.00,0.0149
2814.00,0.0149
2813.00,0.0148
2812.00,0.0147
2811.00,0.0146
2810.00,0.0146
2809.00,0.0145
2808.00,0.0145
2807.00,0.0144
2806.00,0.0144
2805.00,0.0143
2804.00,0.0142
2803.00,0.0142
2802.00,0.0141
2801.00,0.0141
2800.00,0.0140
2799.00,0.0140
2798.00,0.0139
2797.00,0.0139
2796.00,0.0138
2795.00,0.0138
2794.00,0.0137
2793.00,0.0136
2792.00,0.0136
2791.00,0.0135
2790.00,0.0135
2789.00,0.0135
2788.00,0.0134
2787.00,0.0134
2786.00,0.0134
2785.00,0.0133
2784.00,0.0133
2783.00,0.0132
2782.00,0.0132
2781.00,0.0131
2780.00,0.0131
2779.00,0.0130
2778.00,0.0129
2777.00,0.0129
2776.00,0.0128
2775.00,0.0127
2774.00,0.0127
2773.00,0.0127
2772.00,0.0126
2771.00,0.0126
2770.00,0.0126
2769.00,0.0125
2768.00,0.0125
2767.00,0.0124
2766.00,0.0124
2765.00,0.0124
2764.00,0.0123
2763.00,0.0123
2762.00,0.0122
2761.00,0.0122
2760.00,0.0121
2759.00,0.0121
2758.00,0.0120
2757.00,0.0120
