Created as New Dataset,Sample 011 By YargerLab Date Wednesday, October 23 2024
cm-1,A
4000.00,0.0028
3999.00,0.0028
3998.00,0.0028
3997.00,0.0028
3996.00,0.0028
3995.00,0.0028
3994.00,0.0028
3993.00,0.0028
3992.00,0.0028
3991.00,0.0028
3990.00,0.0028
3989.00,0.0028
3988.00,0.0027
3987.00,0.0027
3986.00,0.0027
3985.00,0.0027
3984.00,0.0027
3983.00,0.0027
3982.00,0.0027
3981.00,0.0027
3980.00,0.0027
3979.00,0.0028
3978.00,0.0028
3977.00,0.0028
3976.00,0.0028
3975.00,0.0028
3974.00,0.0028
3973.00,0.0028
3972.00,0.0028
3971.00,0.0027
3970.00,0.0027
3969.00,0.0027
3968.00,0.0027
3967.00,0.0027
3966.00,0.0027
3965.00,0.0027
3964.00,0.0027
3963.00,0.0027
3962.00,0.0027
3961.00,0.0027
3960.00,0.0027
3959.00,0.0027
3958.00,0.0027
3957.00,0.0027
3956.00,0.0027
3955.00,0.0027
3954.00,0.0027
3953.00,0.0027
3952.00,0.0027
3951.00,0.0027
3950.00,0.0027
3949.00,0.0027
3948.00,0.0027
3947.00,0.0027
3946.00,0.0027
3945.00,0.0027
3944.00,0.0027
3943.00,0.0027
3942.00,0.0027
3941.00,0.0027
3940.00,0.0027
3939.00,0.0027
3938.00,0.0027
3937.00,0.0027
3936.00,0.0027
3935.00,0.0027
3934.00,0.0027
3933.00,0.0027
3932.00,0.0027
3931.00,0.0027
3930.00,0.0027
3929.00,0.0027
3928.00,0.0027
3927.00,0.0027
3926.00,0.0027
3925.00,0.0027
3924.00,0.0027
3923.00,0.0027
3922.00,0.0027
3921.00,0.0027
3920.00,0.0027
3919.00,0.0027
3918.00,0.0027
3917.00,0.0027
3916.00,0.0026
3915.00,0.0026
3914.00,0.0026
3913.00,0.0026
3912.00,0.0026
3911.00,0.0026
3910.00,0.0026
3909.00,0.0026
3908.00,0.0026
3907.00,0.0026
3906.00,0.0026
3905.00,0.0026
3904.00,0.0026
3903.00,0.0026
3902.00,0.0026
3901.00,0.0026
3900.00,0.0027
3899.00,0.0026
3898.00,0.0026
3897.00,0.0026
3896.00,0.0026
3895.00,0.0026
3894.00,0.0026
3893.00,0.0026
3892.00,0.0026
3891.00,0.0026
3890.00,0.0026
3889.00,0.0026
3888.00,0.0026
3887.00,0.0026
3886.00,0.0026
3885.00,0.0026
3884.00,0.0026
3883.00,0.0026
3882.00,0.0026
3881.00,0.0026
3880.00,0.0026
3879.00,0.0026
3878.00,0.0026
3877.00,0.0026
3876.00,0.0026
3875.00,0.0026
3874.00,0.0026
3873.00,0.0026
3872.00,0.0026
3871.00,0.0026
3870.00,0.0026
3869.00,0.0026
3868.00,0.0026
3867.00,0.0026
3866.00,0.0026
3865.00,0.0026
3864.00,0.0026
3863.00,0.0026
3862.00,0.0026
3861.00,0.0026
3860.00,0.0026
3859.00,0.0026
3858.00,0.0026
3857.00,0.0026
3856.00,0.0026
3855.00,0.0026
3854.00,0.0026
3853.00,0.0026
3852.00,0.0026
3851.00,0.0026
3850.00,0.0026
3849.00,0.0026
3848.00,0.0026
3847.00,0.0025
3846.00,0.0025
3845.00,0.0025
3844.00,0.0025
3843.00,0.0025
3842.00,0.0025
3841.00,0.0026
3840.00,0.0026
3839.00,0.0026
3838.00,0.0026
3837.00,0.0026
3836.00,0.0026
3835.00,0.0026
3834.00,0.0026
3833.00,0.0026
3832.00,0.0026
3831.00,0.0025
3830.00,0.0025
3829.00,0.0025
3828.00,0.0025
3827.00,0.0025
3826.00,0.0025
3825.00,0.0025
3824.00,0.0026
3823.00,0.0026
3822.00,0.0026
3821.00,0.0025
3820.00,0.0025
3819.00,0.0025
3818.00,0.0025
3817.00,0.0025
3816.00,0.0025
3815.00,0.0025
3814.00,0.0025
3813.00,0.0025
3812.00,0.0025
3811.00,0.0025
3810.00,0.0025
3809.00,0.0025
3808.00,0.0025
3807.00,0.0025
3806.00,0.0025
3805.00,0.0025
3804.00,0.0025
3803.00,0.0025
3802.00,0.0025
3801.00,0.0025
3800.00,0.0025
3799.00,0.0025
3798.00,0.0025
3797.00,0.0025
3796.00,0.0025
3795.00,0.0025
3794.00,0.0025
3793.00,0.0025
3792.00,0.0025
3791.00,0.0025
3790.00,0.0025
3789.00,0.0025
3788.00,0.0025
3787.00,0.0025
3786.00,0.0025
3785.00,0.0025
3784.00,0.0025
3783.00,0.0025
3782.00,0.0025
3781.00,0.0025
3780.00,0.0025
3779.00,0.0025
3778.00,0.0025
3777.00,0.0025
3776.00,0.0025
3775.00,0.0025
3774.00,0.0025
3773.00,0.0025
3772.00,0.0025
3771.00,0.0025
3770.00,0.0025
3769.00,0.0025
3768.00,0.0025
3767.00,0.0025
3766.00,0.0025
3765.00,0.0025
3764.00,0.0025
3763.00,0.0025
3762.00,0.0025
3761.00,0.0025
3760.00,0.0025
3759.00,0.0025
3758.00,0.0025
3757.00,0.0025
3756.00,0.0026
3755.00,0.0026
3754.00,0.0026
3753.00,0.0026
3752.00,0.0026
3751.00,0.0026
3750.00,0.0025
3749.00,0.0025
3748.00,0.0025
3747.00,0.0026
3746.00,0.0026
3745.00,0.0026
3744.00,0.0026
3743.00,0.0026
3742.00,0.0026
3741.00,0.0026
3740.00,0.0026
3739.00,0.0026
3738.00,0.0026
3737.00,0.0026
3736.00,0.0026
3735.00,0.0026
3734.00,0.0026
3733.00,0.0025
3732.00,0.0025
3731.00,0.0025
3730.00,0.0025
3729.00,0.0026
3728.00,0.0026
3727.00,0.0026
3726.00,0.0026
3725.00,0.0026
3724.00,0.0026
3723.00,0.0026
3722.00,0.0026
3721.00,0.0026
3720.00,0.0026
3719.00,0.0026
3718.00,0.0026
3717.00,0.0026
3716.00,0.0026
3715.00,0.0026
3714.00,0.0026
3713.00,0.0025
3712.00,0.0025
3711.00,0.0025
3710.00,0.0026
3709.00,0.0026
3708.00,0.0026
3707.00,0.0026
3706.00,0.0025
3705.00,0.0025
3704.00,0.0025
3703.00,0.0025
3702.00,0.0025
3701.00,0.0026
3700.00,0.0026
3699.00,0.0026
3698.00,0.0026
3697.00,0.0026
3696.00,0.0026
3695.00,0.0026
3694.00,0.0026
3693.00,0.0026
3692.00,0.0026
3691.00,0.0026
3690.00,0.0026
3689.00,0.0026
3688.00,0.0027
3687.00,0.0027
3686.00,0.0027
3685.00,0.0026
3684.00,0.0026
3683.00,0.0026
3682.00,0.0026
3681.00,0.0027
3680.00,0.0027
3679.00,0.0027
3678.00,0.0027
3677.00,0.0027
3676.00,0.0027
3675.00,0.0027
3674.00,0.0027
3673.00,0.0027
3672.00,0.0027
3671.00,0.0027
3670.00,0.0027
3669.00,0.0028
3668.00,0.0028
3667.00,0.0028
3666.00,0.0028
3665.00,0.0028
3664.00,0.0028
3663.00,0.0028
3662.00,0.0028
3661.00,0.0029
3660.00,0.0029
3659.00,0.0029
3658.00,0.0029
3657.00,0.0030
3656.00,0.0030
3655.00,0.0030
3654.00,0.0031
3653.00,0.0031
3652.00,0.0031
3651.00,0.0032
3650.00,0.0032
3649.00,0.0032
3648.00,0.0033
3647.00,0.0033
3646.00,0.0033
3645.00,0.0034
3644.00,0.0034
3643.00,0.0035
3642.00,0.0035
3641.00,0.0035
3640.00,0.0036
3639.00,0.0036
3638.00,0.0036
3637.00,0.0037
3636.00,0.0037
3635.00,0.0038
3634.00,0.0038
3633.00,0.0039
3632.00,0.0039
3631.00,0.0040
3630.00,0.0041
3629.00,0.0041
3628.00,0.0042
3627.00,0.0042
3626.00,0.0043
3625.00,0.0043
3624.00,0.0043
3623.00,0.0044
3622.00,0.0044
3621.00,0.0045
3620.00,0.0045
3619.00,0.0046
3618.00,0.0047
3617.00,0.0047
3616.00,0.0048
3615.00,0.0048
3614.00,0.0048
3613.00,0.0049
3612.00,0.0049
3611.00,0.0050
3610.00,0.0050
3609.00,0.0050
3608.00,0.0051
3607.00,0.0051
3606.00,0.0052
3605.00,0.0052
3604.00,0.0053
3603.00,0.0053
3602.00,0.0054
3601.00,0.0054
3600.00,0.0055
3599.00,0.0055
3598.00,0.0056
3597.00,0.0056
3596.00,0.0057
3595.00,0.0057
3594.00,0.0058
3593.00,0.0058
3592.00,0.0059
3591.00,0.0059
3590.00,0.0060
3589.00,0.0060
3588.00,0.0061
3587.00,0.0062
3586.00,0.0062
3585.00,0.0063
3584.00,0.0063
3583.00,0.0064
3582.00,0.0064
3581.00,0.0065
3580.00,0.0065
3579.00,0.0066
3578.00,0.0067
3577.00,0.0067
3576.00,0.0068
3575.00,0.0068
3574.00,0.0069
3573.00,0.0069
3572.00,0.0070
3571.00,0.0071
3570.00,0.0071
3569.00,0.0072
3568.00,0.0073
3567.00,0.0074
3566.00,0.0075
3565.00,0.0075
3564.00,0.0076
3563.00,0.0076
3562.00,0.0076
3561.00,0.0077
3560.00,0.0078
3559.00,0.0078
3558.00,0.0079
3557.00,0.0080
3556.00,0.0080
3555.00,0.0081
3554.00,0.0082
3553.00,0.0082
3552.00,0.0083
3551.00,0.0083
3550.00,0.0084
3549.00,0.0084
3548.00,0.0085
3547.00,0.0086
3546.00,0.0087
3545.00,0.0087
3544.00,0.0088
3543.00,0.0089
3542.00,0.0089
3541.00,0.0090
3540.00,0.0091
3539.00,0.0091
3538.00,0.0092
3537.00,0.0092
3536.00,0.0093
3535.00,0.0093
3534.00,0.0094
3533.00,0.0095
3532.00,0.0095
3531.00,0.0096
3530.00,0.0097
3529.00,0.0097
3528.00,0.0098
3527.00,0.0099
3526.00,0.0100
3525.00,0.0100
3524.00,0.0101
3523.00,0.0101
3522.00,0.0102
3521.00,0.0103
3520.00,0.0104
3519.00,0.0104
3518.00,0.0105
3517.00,0.0105
3516.00,0.0106
3515.00,0.0107
3514.00,0.0108
3513.00,0.0108
3512.00,0.0109
3511.00,0.0110
3510.00,0.0110
3509.00,0.0111
3508.00,0.0112
3507.00,0.0112
3506.00,0.0113
3505.00,0.0114
3504.00,0.0114
3503.00,0.0115
3502.00,0.0116
3501.00,0.0117
3500.00,0.0118
3499.00,0.0118
3498.00,0.0119
3497.00,0.0120
3496.00,0.0121
3495.00,0.0121
3494.00,0.0122
3493.00,0.0123
3492.00,0.0124
3491.00,0.0124
3490.00,0.0125
3489.00,0.0126
3488.00,0.0127
3487.00,0.0128
3486.00,0.0129
3485.00,0.0129
3484.00,0.0130
3483.00,0.0131
3482.00,0.0132
3481.00,0.0133
3480.00,0.0133
3479.00,0.0134
3478.00,0.0135
3477.00,0.0136
3476.00,0.0136
3475.00,0.0137
3474.00,0.0138
3473.00,0.0139
3472.00,0.0140
3471.00,0.0140
3470.00,0.0141
3469.00,0.0142
3468.00,0.0143
3467.00,0.0144
3466.00,0.0144
3465.00,0.0145
3464.00,0.0146
3463.00,0.0146
3462.00,0.0147
3461.00,0.0148
3460.00,0.0149
3459.00,0.0149
3458.00,0.0150
3457.00,0.0151
3456.00,0.0152
3455.00,0.0153
3454.00,0.0154
3453.00,0.0155
3452.00,0.0156
3451.00,0.0156
3450.00,0.0157
3449.00,0.0158
3448.00,0.0159
3447.00,0.0160
3446.00,0.0161
3445.00,0.0162
3444.00,0.0163
3443.00,0.0164
3442.00,0.0164
3441.00,0.0165
3440.00,0.0166
3439.00,0.0167
3438.00,0.0168
3437.00,0.0170
3436.00,0.0171
3435.00,0.0172
3434.00,0.0173
3433.00,0.0174
3432.00,0.0175
3431.00,0.0176
3430.00,0.0177
3429.00,0.0178
3428.00,0.0179
3427.00,0.0180
3426.00,0.0181
3425.00,0.0182
3424.00,0.0183
3423.00,0.0184
3422.00,0.0185
3421.00,0.0187
3420.00,0.0188
3419.00,0.0188
3418.00,0.0189
3417.00,0.0191
3416.00,0.0192
3415.00,0.0193
3414.00,0.0194
3413.00,0.0195
3412.00,0.0196
3411.00,0.0197
3410.00,0.0198
3409.00,0.0199
3408.00,0.0200
3407.00,0.0201
3406.00,0.0202
3405.00,0.0203
3404.00,0.0204
3403.00,0.0205
3402.00,0.0205
3401.00,0.0207
3400.00,0.0208
3399.00,0.0209
3398.00,0.0210
3397.00,0.0211
3396.00,0.0212
3395.00,0.0213
3394.00,0.0213
3393.00,0.0214
3392.00,0.0215
3391.00,0.0216
3390.00,0.0218
3389.00,0.0219
3388.00,0.0220
3387.00,0.0221
3386.00,0.0222
3385.00,0.0223
3384.00,0.0224
3383.00,0.0225
3382.00,0.0226
3381.00,0.0227
3380.00,0.0228
3379.00,0.0229
3378.00,0.0231
3377.00,0.0232
3376.00,0.0233
3375.00,0.0234
3374.00,0.0236
3373.00,0.0236
3372.00,0.0237
3371.00,0.0238
3370.00,0.0239
3369.00,0.0241
3368.00,0.0242
3367.00,0.0244
3366.00,0.0246
3365.00,0.0247
3364.00,0.0249
3363.00,0.0250
3362.00,0.0251
3361.00,0.0253
3360.00,0.0254
3359.00,0.0256
3358.00,0.0257
3357.00,0.0259
3356.00,0.0261
3355.00,0.0262
3354.00,0.0263
3353.00,0.0265
3352.00,0.0266
3351.00,0.0267
3350.00,0.0269
3349.00,0.0271
3348.00,0.0273
3347.00,0.0275
3346.00,0.0276
3345.00,0.0278
3344.00,0.0279
3343.00,0.0281
3342.00,0.0283
3341.00,0.0284
3340.00,0.0286
3339.00,0.0288
3338.00,0.0290
3337.00,0.0292
3336.00,0.0294
3335.00,0.0296
3334.00,0.0299
3333.00,0.0301
3332.00,0.0303
3331.00,0.0305
3330.00,0.0306
3329.00,0.0308
3328.00,0.0310
3327.00,0.0312
3326.00,0.0313
3325.00,0.0316
3324.00,0.0318
3323.00,0.0320
3322.00,0.0323
3321.00,0.0325
3320.00,0.0327
3319.00,0.0330
3318.00,0.0332
3317.00,0.0334
3316.00,0.0337
3315.00,0.0339
3314.00,0.0341
3313.00,0.0343
3312.00,0.0345
3311.00,0.0347
3310.00,0.0348
3309.00,0.0350
3308.00,0.0352
3307.00,0.0354
3306.00,0.0356
3305.00,0.0359
3304.00,0.0362
3303.00,0.0365
3302.00,0.0368
3301.00,0.0371
3300.00,0.0373
3299.00,0.0374
3298.00,0.0376
3297.00,0.0378
3296.00,0.0379
3295.00,0.0381
3294.00,0.0383
3293.00,0.0385
3292.00,0.0387
3291.00,0.0389
3290.00,0.0391
3289.00,0.0393
3288.00,0.0395
3287.00,0.0397
3286.00,0.0398
3285.00,0.0399
3284.00,0.0400
3283.00,0.0401
3282.00,0.0401
3281.00,0.0402
3280.00,0.0403
3279.00,0.0403
3278.00,0.0403
3277.00,0.0403
3276.00,0.0402
3275.00,0.0402
3274.00,0.0401
3273.00,0.0400
3272.00,0.0399
3271.00,0.0398
3270.00,0.0397
3269.00,0.0397
3268.00,0.0397
3267.00,0.0396
3266.00,0.0395
3265.00,0.0393
3264.00,0.0392
3263.00,0.0390
3262.00,0.0388
3261.00,0.0386
3260.00,0.0384
3259.00,0.0381
3258.00,0.0379
3257.00,0.0377
3256.00,0.0374
3255.00,0.0372
3254.00,0.0371
3253.00,0.0369
3252.00,0.0367
3251.00,0.0365
3250.00,0.0362
3249.00,0.0360
3248.00,0.0357
3247.00,0.0355
3246.00,0.0353
3245.00,0.0352
3244.00,0.0351
3243.00,0.0349
3242.00,0.0347
3241.00,0.0345
3240.00,0.0344
3239.00,0.0342
3238.00,0.0340
3237.00,0.0338
3236.00,0.0335
3235.00,0.0333
3234.00,0.0331
3233.00,0.0330
3232.00,0.0329
3231.00,0.0329
3230.00,0.0328
3229.00,0.0326
3228.00,0.0325
3227.00,0.0324
3226.00,0.0323
3225.00,0.0321
3224.00,0.0320
3223.00,0.0319
3222.00,0.0318
3221.00,0.0316
3220.00,0.0315
3219.00,0.0314
3218.00,0.0313
3217.00,0.0312
3216.00,0.0311
3215.00,0.0309
3214.00,0.0308
3213.00,0.0307
3212.00,0.0306
3211.00,0.0305
3210.00,0.0304
3209.00,0.0303
3208.00,0.0302
3207.00,0.0301
3206.00,0.0300
3205.00,0.0299
3204.00,0.0298
3203.00,0.0297
3202.00,0.0296
3201.00,0.0295
3200.00,0.0294
3199.00,0.0293
3198.00,0.0292
3197.00,0.0291
3196.00,0.0289
3195.00,0.0288
3194.00,0.0287
3193.00,0.0286
3192.00,0.0285
3191.00,0.0284
3190.00,0.0283
3189.00,0.0282
3188.00,0.0281
3187.00,0.0279
3186.00,0.0278
3185.00,0.0277
3184.00,0.0276
3183.00,0.0274
3182.00,0.0273
3181.00,0.0272
3180.00,0.0271
3179.00,0.0270
3178.00,0.0269
3177.00,0.0268
3176.00,0.0266
3175.00,0.0265
3174.00,0.0264
3173.00,0.0263
3172.00,0.0262
3171.00,0.0261
3170.00,0.0260
3169.00,0.0258
3168.00,0.0257
3167.00,0.0256
3166.00,0.0255
3165.00,0.0254
3164.00,0.0253
3163.00,0.0251
3162.00,0.0250
3161.00,0.0249
3160.00,0.0248
3159.00,0.0247
3158.00,0.0246
3157.00,0.0245
3156.00,0.0244
3155.00,0.0242
3154.00,0.0241
3153.00,0.0240
3152.00,0.0239
3151.00,0.0239
3150.00,0.0238
3149.00,0.0237
3148.00,0.0237
3147.00,0.0236
3146.00,0.0235
3145.00,0.0234
3144.00,0.0233
3143.00,0.0232
3142.00,0.0231
3141.00,0.0230
3140.00,0.0229
3139.00,0.0229
3138.00,0.0228
3137.00,0.0228
3136.00,0.0227
3135.00,0.0227
3134.00,0.0226
3133.00,0.0226
3132.00,0.0225
3131.00,0.0224
3130.00,0.0224
3129.00,0.0223
3128.00,0.0223
3127.00,0.0223
3126.00,0.0222
3125.00,0.0222
3124.00,0.0221
3123.00,0.0220
3122.00,0.0219
3121.00,0.0219
3120.00,0.0218
3119.00,0.0218
3118.00,0.0217
3117.00,0.0217
3116.00,0.0218
3115.00,0.0218
3114.00,0.0219
3113.00,0.0219
3112.00,0.0219
3111.00,0.0219
3110.00,0.0218
3109.00,0.0218
3108.00,0.0219
3107.00,0.0219
3106.00,0.0220
3105.00,0.0220
3104.00,0.0220
3103.00,0.0220
3102.00,0.0220
3101.00,0.0220
3100.00,0.0221
3099.00,0.0221
3098.00,0.0222
3097.00,0.0223
3096.00,0.0223
3095.00,0.0223
3094.00,0.0223
3093.00,0.0223
3092.00,0.0223
3091.00,0.0223
3090.00,0.0223
3089.00,0.0224
3088.00,0.0224
3087.00,0.0224
3086.00,0.0224
3085.00,0.0224
3084.00,0.0224
3083.00,0.0224
3082.00,0.0224
3081.00,0.0224
3080.00,0.0224
3079.00,0.0224
3078.00,0.0225
3077.00,0.0226
3076.00,0.0226
3075.00,0.0227
3074.00,0.0228
3073.00,0.0228
3072.00,0.0227
3071.00,0.0227
3070.00,0.0226
3069.00,0.0226
3068.00,0.0225
3067.00,0.0225
3066.00,0.0225
3065.00,0.0225
3064.00,0.0225
3063.00,0.0225
3062.00,0.0225
3061.00,0.0224
3060.00,0.0223
3059.00,0.0222
3058.00,0.0221
3057.00,0.0220
3056.00,0.0220
3055.00,0.0219
3054.00,0.0218
3053.00,0.0216
3052.00,0.0215
3051.00,0.0215
3050.00,0.0214
3049.00,0.0213
3048.00,0.0212
3047.00,0.0211
3046.00,0.0210
3045.00,0.0209
3044.00,0.0208
3043.00,0.0207
3042.00,0.0206
3041.00,0.0205
3040.00,0.0205
3039.00,0.0205
3038.00,0.0204
3037.00,0.0203
3036.00,0.0202
3035.00,0.0201
3034.00,0.0200
3033.00,0.0199
3032.00,0.0199
3031.00,0.0199
3030.00,0.0198
3029.00,0.0198
3028.00,0.0197
3027.00,0.0196
3026.00,0.0194
3025.00,0.0193
3024.00,0.0192
3023.00,0.0191
3022.00,0.0190
3021.00,0.0189
3020.00,0.0188
3019.00,0.0187
3018.00,0.0186
3017.00,0.0184
3016.00,0.0183
3015.00,0.0182
3014.00,0.0181
3013.00,0.0180
3012.00,0.0179
3011.00,0.0179
3010.00,0.0179
3009.00,0.0178
3008.00,0.0177
3007.00,0.0176
3006.00,0.0175
3005.00,0.0174
3004.00,0.0174
3003.00,0.0173
3002.00,0.0172
3001.00,0.0171
3000.00,0.0170
2999.00,0.0169
2998.00,0.0169
2997.00,0.0169
2996.00,0.0169
2995.00,0.0170
2994.00,0.0170
2993.00,0.0171
2992.00,0.0172
2991.00,0.0173
2990.00,0.0175
2989.00,0.0177
2988.00,0.0178
2987.00,0.0180
2986.00,0.0181
2985.00,0.0181
2984.00,0.0182
2983.00,0.0182
2982.00,0.0183
2981.00,0.0186
2980.00,0.0190
2979.00,0.0195
2978.00,0.0200
2977.00,0.0205
2976.00,0.0210
2975.00,0.0214
2974.00,0.0218
2973.00,0.0221
2972.00,0.0225
2971.00,0.0228
2970.00,0.0232
2969.00,0.0236
2968.00,0.0240
2967.00,0.0243
2966.00,0.0246
2965.00,0.0248
2964.00,0.0249
2963.00,0.0250
2962.00,0.0251
2961.00,0.0251
2960.00,0.0251
2959.00,0.0251
2958.00,0.0250
2957.00,0.0249
2956.00,0.0247
2955.00,0.0245
2954.00,0.0244
2953.00,0.0242
2952.00,0.0241
2951.00,0.0239
2950.00,0.0238
2949.00,0.0238
2948.00,0.0237
2947.00,0.0237
2946.00,0.0238
2945.00,0.0239
2944.00,0.0241
2943.00,0.0243
2942.00,0.0245
2941.00,0.0248
2940.00,0.0250
2939.00,0.0253
2938.00,0.0256
2937.00,0.0258
2936.00,0.0261
2935.00,0.0263
2934.00,0.0265
2933.00,0.0266
2932.00,0.0267
2931.00,0.0268
2930.00,0.0269
2929.00,0.0270
2928.00,0.0271
2927.00,0.0271
2926.00,0.0271
2925.00,0.0271
2924.00,0.0270
2923.00,0.0269
2922.00,0.0268
2921.00,0.0266
2920.00,0.0263
2919.00,0.0260
2918.00,0.0257
2917.00,0.0254
2916.00,0.0250
2915.00,0.0246
2914.00,0.0243
2913.00,0.0240
2912.00,0.0237
2911.00,0.0234
2910.00,0.0231
2909.00,0.0228
2908.00,0.0226
2907.00,0.0223
2906.00,0.0221
2905.00,0.0219
2904.00,0.0217
2903.00,0.0215
2902.00,0.0213
2901.00,0.0212
2900.00,0.0210
2899.00,0.0209
2898.00,0.0207
2897.00,0.0206
2896.00,0.0204
2895.00,0.0203
2894.00,0.0202
2893.00,0.0201
2892.00,0.0200
2891.00,0.0199
2890.00,0.0198
2889.00,0.0197
2888.00,0.0197
2887.00,0.0197
2886.00,0.0197
2885.00,0.0197
2884.00,0.0198
2883.00,0.0199
2882.00,0.0200
2881.00,0.0201
2880.00,0.0203
2879.00,0.0204
2878.00,0.0205
2877.00,0.0206
2876.00,0.0207
2875.00,0.0207
2874.00,0.0207
2873.00,0.0207
2872.00,0.0206
2871.00,0.0205
2870.00,0.0204
2869.00,0.0203
2868.00,0.0201
2867.00,0.0200
2866.00,0.0198
2865.00,0.0197
2864.00,0.0196
2863.00,0.0195
2862.00,0.0194
2861.00,0.0194
2860.00,0.0193
2859.00,0.0194
2858.00,0.0194
2857.00,0.0194
2856.00,0.0194
2855.00,0.0193
2854.00,0.0193
2853.00,0.0192
2852.00,0.0191
2851.00,0.0189
2850.00,0.0186
2849.00,0.0184
2848.00,0.0181
2847.00,0.0178
2846.00,0.0175
2845.00,0.0172
2844.00,0.0169
2843.00,0.0166
2842.00,0.0164
2841.00,0.0161
2840.00,0.0159
2839.00,0.0158
2838.00,0.0156
2837.00,0.0155
2836.00,0.0154
2835.00,0.0153
2834.00,0.0152
2833.00,0.0151
2832.00,0.0151
2831.00,0.0150
2830.00,0.0149
2829.00,0.0148
2828.00,0.0148
2827.00,0.0147
2826.00,0.0146
2825.00,0.0146
2824.00,0.0145
2823.00,0.0145
2822.00,0.0144
2821.00,0.0144
2820.00,0.0143
2819.00,0.0143
2818.00,0.0142
2817.00,0.0142
2816.00,0.0141
2815.00,0.0141
2814.00,0.0140
2813.00,0.0140
2812.00,0.0139
2811.00,0.0139
2810.00,0.0138
2809.00,0.0138
2808.00,0.0138
2807.00,0.0137
2806.00,0.0137
2805.00,0.0137
2804.00,0.0136
2803.00,0.0136
2802.00,0.0135
2801.00,0.0135
2800.00,0.0134
2799.00,0.0134
2798.00,0.0133
2797.00,0.0133
2796.00,0.0133
2795.00,0.0132
2794.00,0.0132
2793.00,0.0131
2792.00,0.0131
2791.00,0.0130
2790.00,0.0130
2789.00,0.0130
2788.00,0.0129
2787.00,0.0129
2786.00,0.0129
2785.00,0.0128
2784.00,0.0128
2783.00,0.0127
2782.00,0.0127
2781.00,0.0127
2780.00,0.0126
2779.00,0.0126
2778.00,0.0126
2777.00,0.0125
2776.00,0.0125
2775.00,0.0125
2774.00,0.0124
2773.00,0.0124
2772.00,0.0124
2771.00,0.0123
2770.00,0.0123
2769.00,0.0122
2768.00,0.0122
2767.00,0.0122
2766.00,0.0121
2765.00,0.0121
2764.00,0.0121
2763.00,0.0121
2762.00,0.0120
2761.00,0.0120
2760.00,0.0120
2759.00,0.0119
2758.00,0.0119
2757.00,0.0119
