Created as New Dataset,Sample 266 By YargerLab Date Wednesday, July 24 2024
cm-1,A
4000.00,0.0047
3999.00,0.0047
3998.00,0.0047
3997.00,0.0047
3996.00,0.0047
3995.00,0.0047
3994.00,0.0047
3993.00,0.0047
3992.00,0.0047
3991.00,0.0047
3990.00,0.0047
3989.00,0.0047
3988.00,0.0047
3987.00,0.0047
3986.00,0.0047
3985.00,0.0047
3984.00,0.0047
3983.00,0.0046
3982.00,0.0046
3981.00,0.0046
3980.00,0.0046
3979.00,0.0046
3978.00,0.0046
3977.00,0.0046
3976.00,0.0046
3975.00,0.0046
3974.00,0.0046
3973.00,0.0046
3972.00,0.0046
3971.00,0.0046
3970.00,0.0046
3969.00,0.0046
3968.00,0.0046
3967.00,0.0046
3966.00,0.0046
3965.00,0.0046
3964.00,0.0046
3963.00,0.0046
3962.00,0.0046
3961.00,0.0046
3960.00,0.0046
3959.00,0.0046
3958.00,0.0046
3957.00,0.0046
3956.00,0.0046
3955.00,0.0046
3954.00,0.0046
3953.00,0.0046
3952.00,0.0046
3951.00,0.0046
3950.00,0.0046
3949.00,0.0046
3948.00,0.0046
3947.00,0.0046
3946.00,0.0046
3945.00,0.0045
3944.00,0.0045
3943.00,0.0045
3942.00,0.0045
3941.00,0.0045
3940.00,0.0045
3939.00,0.0045
3938.00,0.0045
3937.00,0.0045
3936.00,0.0046
3935.00,0.0046
3934.00,0.0046
3933.00,0.0045
3932.00,0.0045
3931.00,0.0045
3930.00,0.0045
3929.00,0.0045
3928.00,0.0045
3927.00,0.0045
3926.00,0.0045
3925.00,0.0044
3924.00,0.0044
3923.00,0.0044
3922.00,0.0045
3921.00,0.0045
3920.00,0.0045
3919.00,0.0045
3918.00,0.0045
3917.00,0.0045
3916.00,0.0045
3915.00,0.0044
3914.00,0.0044
3913.00,0.0044
3912.00,0.0044
3911.00,0.0044
3910.00,0.0044
3909.00,0.0044
3908.00,0.0044
3907.00,0.0044
3906.00,0.0044
3905.00,0.0044
3904.00,0.0044
3903.00,0.0044
3902.00,0.0044
3901.00,0.0044
3900.00,0.0044
3899.00,0.0044
3898.00,0.0044
3897.00,0.0044
3896.00,0.0044
3895.00,0.0044
3894.00,0.0044
3893.00,0.0044
3892.00,0.0044
3891.00,0.0043
3890.00,0.0043
3889.00,0.0044
3888.00,0.0044
3887.00,0.0044
3886.00,0.0043
3885.00,0.0043
3884.00,0.0043
3883.00,0.0043
3882.00,0.0043
3881.00,0.0043
3880.00,0.0043
3879.00,0.0043
3878.00,0.0043
3877.00,0.0043
3876.00,0.0043
3875.00,0.0043
3874.00,0.0043
3873.00,0.0043
3872.00,0.0043
3871.00,0.0043
3870.00,0.0043
3869.00,0.0043
3868.00,0.0043
3867.00,0.0043
3866.00,0.0043
3865.00,0.0043
3864.00,0.0043
3863.00,0.0043
3862.00,0.0043
3861.00,0.0043
3860.00,0.0043
3859.00,0.0043
3858.00,0.0043
3857.00,0.0042
3856.00,0.0042
3855.00,0.0042
3854.00,0.0042
3853.00,0.0042
3852.00,0.0042
3851.00,0.0042
3850.00,0.0042
3849.00,0.0042
3848.00,0.0042
3847.00,0.0042
3846.00,0.0042
3845.00,0.0042
3844.00,0.0042
3843.00,0.0042
3842.00,0.0042
3841.00,0.0042
3840.00,0.0042
3839.00,0.0042
3838.00,0.0042
3837.00,0.0042
3836.00,0.0042
3835.00,0.0042
3834.00,0.0042
3833.00,0.0042
3832.00,0.0042
3831.00,0.0042
3830.00,0.0042
3829.00,0.0042
3828.00,0.0042
3827.00,0.0042
3826.00,0.0042
3825.00,0.0042
3824.00,0.0042
3823.00,0.0042
3822.00,0.0042
3821.00,0.0041
3820.00,0.0042
3819.00,0.0042
3818.00,0.0042
3817.00,0.0041
3816.00,0.0041
3815.00,0.0041
3814.00,0.0041
3813.00,0.0041
3812.00,0.0041
3811.00,0.0041
3810.00,0.0041
3809.00,0.0042
3808.00,0.0042
3807.00,0.0042
3806.00,0.0042
3805.00,0.0042
3804.00,0.0042
3803.00,0.0041
3802.00,0.0041
3801.00,0.0041
3800.00,0.0041
3799.00,0.0041
3798.00,0.0041
3797.00,0.0041
3796.00,0.0041
3795.00,0.0041
3794.00,0.0041
3793.00,0.0041
3792.00,0.0041
3791.00,0.0041
3790.00,0.0041
3789.00,0.0041
3788.00,0.0041
3787.00,0.0041
3786.00,0.0041
3785.00,0.0041
3784.00,0.0041
3783.00,0.0041
3782.00,0.0041
3781.00,0.0041
3780.00,0.0041
3779.00,0.0041
3778.00,0.0041
3777.00,0.0041
3776.00,0.0041
3775.00,0.0041
3774.00,0.0041
3773.00,0.0041
3772.00,0.0041
3771.00,0.0041
3770.00,0.0041
3769.00,0.0041
3768.00,0.0041
3767.00,0.0041
3766.00,0.0041
3765.00,0.0041
3764.00,0.0041
3763.00,0.0041
3762.00,0.0041
3761.00,0.0041
3760.00,0.0041
3759.00,0.0041
3758.00,0.0041
3757.00,0.0041
3756.00,0.0041
3755.00,0.0041
3754.00,0.0041
3753.00,0.0041
3752.00,0.0041
3751.00,0.0041
3750.00,0.0041
3749.00,0.0041
3748.00,0.0041
3747.00,0.0041
3746.00,0.0041
3745.00,0.0041
3744.00,0.0041
3743.00,0.0041
3742.00,0.0041
3741.00,0.0041
3740.00,0.0041
3739.00,0.0041
3738.00,0.0041
3737.00,0.0041
3736.00,0.0041
3735.00,0.0041
3734.00,0.0041
3733.00,0.0040
3732.00,0.0040
3731.00,0.0041
3730.00,0.0041
3729.00,0.0041
3728.00,0.0041
3727.00,0.0041
3726.00,0.0041
3725.00,0.0040
3724.00,0.0040
3723.00,0.0040
3722.00,0.0040
3721.00,0.0040
3720.00,0.0040
3719.00,0.0040
3718.00,0.0040
3717.00,0.0040
3716.00,0.0040
3715.00,0.0041
3714.00,0.0041
3713.00,0.0041
3712.00,0.0041
3711.00,0.0041
3710.00,0.0041
3709.00,0.0041
3708.00,0.0040
3707.00,0.0040
3706.00,0.0040
3705.00,0.0041
3704.00,0.0041
3703.00,0.0041
3702.00,0.0041
3701.00,0.0041
3700.00,0.0041
3699.00,0.0041
3698.00,0.0041
3697.00,0.0041
3696.00,0.0041
3695.00,0.0041
3694.00,0.0041
3693.00,0.0041
3692.00,0.0041
3691.00,0.0041
3690.00,0.0041
3689.00,0.0041
3688.00,0.0041
3687.00,0.0041
3686.00,0.0041
3685.00,0.0041
3684.00,0.0041
3683.00,0.0041
3682.00,0.0041
3681.00,0.0041
3680.00,0.0041
3679.00,0.0041
3678.00,0.0041
3677.00,0.0041
3676.00,0.0041
3675.00,0.0041
3674.00,0.0041
3673.00,0.0041
3672.00,0.0041
3671.00,0.0041
3670.00,0.0041
3669.00,0.0042
3668.00,0.0042
3667.00,0.0043
3666.00,0.0043
3665.00,0.0043
3664.00,0.0043
3663.00,0.0043
3662.00,0.0044
3661.00,0.0044
3660.00,0.0044
3659.00,0.0045
3658.00,0.0046
3657.00,0.0046
3656.00,0.0047
3655.00,0.0047
3654.00,0.0047
3653.00,0.0048
3652.00,0.0048
3651.00,0.0049
3650.00,0.0050
3649.00,0.0051
3648.00,0.0052
3647.00,0.0053
3646.00,0.0053
3645.00,0.0054
3644.00,0.0055
3643.00,0.0055
3642.00,0.0056
3641.00,0.0057
3640.00,0.0057
3639.00,0.0058
3638.00,0.0059
3637.00,0.0060
3636.00,0.0061
3635.00,0.0062
3634.00,0.0063
3633.00,0.0063
3632.00,0.0064
3631.00,0.0065
3630.00,0.0067
3629.00,0.0068
3628.00,0.0070
3627.00,0.0071
3626.00,0.0071
3625.00,0.0071
3624.00,0.0072
3623.00,0.0072
3622.00,0.0073
3621.00,0.0074
3620.00,0.0075
3619.00,0.0076
3618.00,0.0077
3617.00,0.0078
3616.00,0.0078
3615.00,0.0079
3614.00,0.0080
3613.00,0.0081
3612.00,0.0081
3611.00,0.0082
3610.00,0.0083
3609.00,0.0085
3608.00,0.0086
3607.00,0.0086
3606.00,0.0087
3605.00,0.0088
3604.00,0.0088
3603.00,0.0089
3602.00,0.0090
3601.00,0.0090
3600.00,0.0091
3599.00,0.0092
3598.00,0.0093
3597.00,0.0093
3596.00,0.0094
3595.00,0.0095
3594.00,0.0096
3593.00,0.0097
3592.00,0.0098
3591.00,0.0098
3590.00,0.0099
3589.00,0.0100
3588.00,0.0102
3587.00,0.0103
3586.00,0.0104
3585.00,0.0105
3584.00,0.0105
3583.00,0.0106
3582.00,0.0107
3581.00,0.0108
3580.00,0.0108
3579.00,0.0109
3578.00,0.0110
3577.00,0.0111
3576.00,0.0112
3575.00,0.0113
3574.00,0.0114
3573.00,0.0115
3572.00,0.0115
3571.00,0.0116
3570.00,0.0116
3569.00,0.0117
3568.00,0.0119
3567.00,0.0121
3566.00,0.0122
3565.00,0.0124
3564.00,0.0125
3563.00,0.0125
3562.00,0.0126
3561.00,0.0127
3560.00,0.0128
3559.00,0.0129
3558.00,0.0129
3557.00,0.0130
3556.00,0.0131
3555.00,0.0131
3554.00,0.0132
3553.00,0.0134
3552.00,0.0135
3551.00,0.0136
3550.00,0.0137
3549.00,0.0137
3548.00,0.0138
3547.00,0.0139
3546.00,0.0141
3545.00,0.0142
3544.00,0.0143
3543.00,0.0144
3542.00,0.0145
3541.00,0.0145
3540.00,0.0146
3539.00,0.0147
3538.00,0.0148
3537.00,0.0148
3536.00,0.0149
3535.00,0.0150
3534.00,0.0151
3533.00,0.0151
3532.00,0.0152
3531.00,0.0153
3530.00,0.0154
3529.00,0.0155
3528.00,0.0156
3527.00,0.0157
3526.00,0.0158
3525.00,0.0159
3524.00,0.0160
3523.00,0.0161
3522.00,0.0162
3521.00,0.0162
3520.00,0.0163
3519.00,0.0164
3518.00,0.0165
3517.00,0.0165
3516.00,0.0166
3515.00,0.0167
3514.00,0.0167
3513.00,0.0168
3512.00,0.0169
3511.00,0.0170
3510.00,0.0171
3509.00,0.0172
3508.00,0.0172
3507.00,0.0173
3506.00,0.0173
3505.00,0.0174
3504.00,0.0175
3503.00,0.0176
3502.00,0.0177
3501.00,0.0178
3500.00,0.0179
3499.00,0.0179
3498.00,0.0180
3497.00,0.0181
3496.00,0.0182
3495.00,0.0182
3494.00,0.0183
3493.00,0.0183
3492.00,0.0184
3491.00,0.0185
3490.00,0.0185
3489.00,0.0186
3488.00,0.0187
3487.00,0.0188
3486.00,0.0188
3485.00,0.0189
3484.00,0.0190
3483.00,0.0190
3482.00,0.0191
3481.00,0.0192
3480.00,0.0192
3479.00,0.0193
3478.00,0.0193
3477.00,0.0194
3476.00,0.0195
3475.00,0.0195
3474.00,0.0196
3473.00,0.0197
3472.00,0.0198
3471.00,0.0198
3470.00,0.0199
3469.00,0.0200
3468.00,0.0200
3467.00,0.0201
3466.00,0.0201
3465.00,0.0202
3464.00,0.0203
3463.00,0.0203
3462.00,0.0204
3461.00,0.0205
3460.00,0.0205
3459.00,0.0206
3458.00,0.0206
3457.00,0.0207
3456.00,0.0207
3455.00,0.0208
3454.00,0.0209
3453.00,0.0209
3452.00,0.0210
3451.00,0.0210
3450.00,0.0211
3449.00,0.0212
3448.00,0.0212
3447.00,0.0213
3446.00,0.0214
3445.00,0.0215
3444.00,0.0216
3443.00,0.0217
3442.00,0.0217
3441.00,0.0218
3440.00,0.0219
3439.00,0.0220
3438.00,0.0221
3437.00,0.0221
3436.00,0.0222
3435.00,0.0223
3434.00,0.0224
3433.00,0.0225
3432.00,0.0226
3431.00,0.0227
3430.00,0.0228
3429.00,0.0229
3428.00,0.0230
3427.00,0.0231
3426.00,0.0231
3425.00,0.0232
3424.00,0.0233
3423.00,0.0234
3422.00,0.0235
3421.00,0.0237
3420.00,0.0238
3419.00,0.0239
3418.00,0.0240
3417.00,0.0241
3416.00,0.0242
3415.00,0.0243
3414.00,0.0244
3413.00,0.0245
3412.00,0.0246
3411.00,0.0247
3410.00,0.0248
3409.00,0.0250
3408.00,0.0251
3407.00,0.0252
3406.00,0.0253
3405.00,0.0254
3404.00,0.0255
3403.00,0.0256
3402.00,0.0257
3401.00,0.0258
3400.00,0.0259
3399.00,0.0260
3398.00,0.0261
3397.00,0.0263
3396.00,0.0264
3395.00,0.0264
3394.00,0.0265
3393.00,0.0266
3392.00,0.0267
3391.00,0.0268
3390.00,0.0270
3389.00,0.0271
3388.00,0.0272
3387.00,0.0273
3386.00,0.0274
3385.00,0.0276
3384.00,0.0277
3383.00,0.0278
3382.00,0.0279
3381.00,0.0280
3380.00,0.0281
3379.00,0.0282
3378.00,0.0283
3377.00,0.0284
3376.00,0.0286
3375.00,0.0287
3374.00,0.0289
3373.00,0.0290
3372.00,0.0291
3371.00,0.0292
3370.00,0.0293
3369.00,0.0295
3368.00,0.0296
3367.00,0.0298
3366.00,0.0300
3365.00,0.0302
3364.00,0.0304
3363.00,0.0306
3362.00,0.0308
3361.00,0.0310
3360.00,0.0312
3359.00,0.0314
3358.00,0.0317
3357.00,0.0319
3356.00,0.0321
3355.00,0.0323
3354.00,0.0325
3353.00,0.0327
3352.00,0.0329
3351.00,0.0331
3350.00,0.0334
3349.00,0.0337
3348.00,0.0340
3347.00,0.0343
3346.00,0.0346
3345.00,0.0348
3344.00,0.0351
3343.00,0.0354
3342.00,0.0357
3341.00,0.0360
3340.00,0.0363
3339.00,0.0366
3338.00,0.0370
3337.00,0.0374
3336.00,0.0378
3335.00,0.0382
3334.00,0.0387
3333.00,0.0391
3332.00,0.0395
3331.00,0.0399
3330.00,0.0402
3329.00,0.0406
3328.00,0.0410
3327.00,0.0414
3326.00,0.0419
3325.00,0.0423
3324.00,0.0428
3323.00,0.0434
3322.00,0.0439
3321.00,0.0444
3320.00,0.0449
3319.00,0.0454
3318.00,0.0459
3317.00,0.0464
3316.00,0.0469
3315.00,0.0474
3314.00,0.0479
3313.00,0.0484
3312.00,0.0489
3311.00,0.0493
3310.00,0.0498
3309.00,0.0502
3308.00,0.0507
3307.00,0.0512
3306.00,0.0518
3305.00,0.0524
3304.00,0.0530
3303.00,0.0536
3302.00,0.0541
3301.00,0.0546
3300.00,0.0551
3299.00,0.0555
3298.00,0.0558
3297.00,0.0561
3296.00,0.0565
3295.00,0.0568
3294.00,0.0571
3293.00,0.0574
3292.00,0.0578
3291.00,0.0581
3290.00,0.0584
3289.00,0.0586
3288.00,0.0587
3287.00,0.0588
3286.00,0.0588
3285.00,0.0588
3284.00,0.0587
3283.00,0.0587
3282.00,0.0586
3281.00,0.0584
3280.00,0.0582
3279.00,0.0579
3278.00,0.0576
3277.00,0.0572
3276.00,0.0568
3275.00,0.0564
3274.00,0.0559
3273.00,0.0555
3272.00,0.0550
3271.00,0.0546
3270.00,0.0542
3269.00,0.0538
3268.00,0.0535
3267.00,0.0530
3266.00,0.0526
3265.00,0.0521
3264.00,0.0516
3263.00,0.0511
3262.00,0.0506
3261.00,0.0502
3260.00,0.0497
3259.00,0.0491
3258.00,0.0486
3257.00,0.0481
3256.00,0.0477
3255.00,0.0473
3254.00,0.0470
3253.00,0.0466
3252.00,0.0462
3251.00,0.0458
3250.00,0.0453
3249.00,0.0449
3248.00,0.0444
3247.00,0.0441
3246.00,0.0438
3245.00,0.0435
3244.00,0.0433
3243.00,0.0430
3242.00,0.0427
3241.00,0.0424
3240.00,0.0421
3239.00,0.0418
3238.00,0.0414
3237.00,0.0411
3236.00,0.0407
3235.00,0.0403
3234.00,0.0400
3233.00,0.0398
3232.00,0.0396
3231.00,0.0395
3230.00,0.0393
3229.00,0.0391
3228.00,0.0389
3227.00,0.0386
3226.00,0.0384
3225.00,0.0381
3224.00,0.0379
3223.00,0.0376
3222.00,0.0374
3221.00,0.0371
3220.00,0.0369
3219.00,0.0367
3218.00,0.0364
3217.00,0.0362
3216.00,0.0360
3215.00,0.0358
3214.00,0.0356
3213.00,0.0354
3212.00,0.0352
3211.00,0.0349
3210.00,0.0347
3209.00,0.0345
3208.00,0.0343
3207.00,0.0340
3206.00,0.0338
3205.00,0.0336
3204.00,0.0334
3203.00,0.0332
3202.00,0.0329
3201.00,0.0327
3200.00,0.0325
3199.00,0.0323
3198.00,0.0321
3197.00,0.0319
3196.00,0.0316
3195.00,0.0314
3194.00,0.0311
3193.00,0.0309
3192.00,0.0307
3191.00,0.0304
3190.00,0.0302
3189.00,0.0300
3188.00,0.0298
3187.00,0.0295
3186.00,0.0293
3185.00,0.0291
3184.00,0.0289
3183.00,0.0287
3182.00,0.0285
3181.00,0.0282
3180.00,0.0280
3179.00,0.0278
3178.00,0.0276
3177.00,0.0274
3176.00,0.0272
3175.00,0.0270
3174.00,0.0267
3173.00,0.0265
3172.00,0.0263
3171.00,0.0261
3170.00,0.0259
3169.00,0.0257
3168.00,0.0255
3167.00,0.0253
3166.00,0.0252
3165.00,0.0250
3164.00,0.0248
3163.00,0.0246
3162.00,0.0244
3161.00,0.0243
3160.00,0.0241
3159.00,0.0239
3158.00,0.0237
3157.00,0.0235
3156.00,0.0233
3155.00,0.0231
3154.00,0.0229
3153.00,0.0227
3152.00,0.0226
3151.00,0.0225
3150.00,0.0224
3149.00,0.0223
3148.00,0.0222
3147.00,0.0221
3146.00,0.0220
3145.00,0.0219
3144.00,0.0217
3143.00,0.0216
3142.00,0.0214
3141.00,0.0213
3140.00,0.0212
3139.00,0.0211
3138.00,0.0210
3137.00,0.0210
3136.00,0.0210
3135.00,0.0209
3134.00,0.0208
3133.00,0.0208
3132.00,0.0207
3131.00,0.0206
3130.00,0.0205
3129.00,0.0205
3128.00,0.0205
3127.00,0.0205
3126.00,0.0204
3125.00,0.0204
3124.00,0.0203
3123.00,0.0202
3122.00,0.0201
3121.00,0.0200
3120.00,0.0199
3119.00,0.0199
3118.00,0.0199
3117.00,0.0199
3116.00,0.0200
3115.00,0.0201
3114.00,0.0202
3113.00,0.0203
3112.00,0.0203
3111.00,0.0203
3110.00,0.0203
3109.00,0.0203
3108.00,0.0204
3107.00,0.0205
3106.00,0.0206
3105.00,0.0207
3104.00,0.0207
3103.00,0.0207
3102.00,0.0207
3101.00,0.0207
3100.00,0.0208
3099.00,0.0209
3098.00,0.0210
3097.00,0.0211
3096.00,0.0212
3095.00,0.0213
3094.00,0.0213
3093.00,0.0213
3092.00,0.0213
3091.00,0.0213
3090.00,0.0213
3089.00,0.0213
3088.00,0.0214
3087.00,0.0214
3086.00,0.0214
3085.00,0.0215
3084.00,0.0215
3083.00,0.0215
3082.00,0.0215
3081.00,0.0215
3080.00,0.0216
3079.00,0.0216
3078.00,0.0217
3077.00,0.0218
3076.00,0.0219
3075.00,0.0220
3074.00,0.0221
3073.00,0.0221
3072.00,0.0220
3071.00,0.0220
3070.00,0.0218
3069.00,0.0217
3068.00,0.0216
3067.00,0.0216
3066.00,0.0216
3065.00,0.0216
3064.00,0.0215
3063.00,0.0215
3062.00,0.0215
3061.00,0.0214
3060.00,0.0213
3059.00,0.0211
3058.00,0.0209
3057.00,0.0208
3056.00,0.0206
3055.00,0.0205
3054.00,0.0203
3053.00,0.0202
3052.00,0.0200
3051.00,0.0199
3050.00,0.0198
3049.00,0.0196
3048.00,0.0195
3047.00,0.0193
3046.00,0.0191
3045.00,0.0189
3044.00,0.0187
3043.00,0.0185
3042.00,0.0184
3041.00,0.0184
3040.00,0.0183
3039.00,0.0183
3038.00,0.0181
3037.00,0.0180
3036.00,0.0177
3035.00,0.0175
3034.00,0.0174
3033.00,0.0173
3032.00,0.0172
3031.00,0.0172
3030.00,0.0172
3029.00,0.0171
3028.00,0.0170
3027.00,0.0168
3026.00,0.0167
3025.00,0.0165
3024.00,0.0164
3023.00,0.0163
3022.00,0.0162
3021.00,0.0160
3020.00,0.0158
3019.00,0.0157
3018.00,0.0155
3017.00,0.0153
3016.00,0.0151
3015.00,0.0149
3014.00,0.0148
3013.00,0.0147
3012.00,0.0146
3011.00,0.0146
3010.00,0.0146
3009.00,0.0145
3008.00,0.0144
3007.00,0.0143
3006.00,0.0141
3005.00,0.0140
3004.00,0.0138
3003.00,0.0137
3002.00,0.0135
3001.00,0.0134
3000.00,0.0132
2999.00,0.0131
2998.00,0.0131
2997.00,0.0131
2996.00,0.0131
2995.00,0.0131
2994.00,0.0131
2993.00,0.0131
2992.00,0.0132
2991.00,0.0133
2990.00,0.0134
2989.00,0.0135
2988.00,0.0136
2987.00,0.0136
2986.00,0.0135
2985.00,0.0132
2984.00,0.0128
2983.00,0.0124
2982.00,0.0121
2981.00,0.0121
2980.00,0.0123
2979.00,0.0127
2978.00,0.0131
2977.00,0.0134
2976.00,0.0137
2975.00,0.0139
2974.00,0.0140
2973.00,0.0140
2972.00,0.0141
2971.00,0.0143
2970.00,0.0145
2969.00,0.0149
2968.00,0.0151
2967.00,0.0154
2966.00,0.0156
2965.00,0.0157
2964.00,0.0159
2963.00,0.0160
2962.00,0.0161
2961.00,0.0162
2960.00,0.0163
2959.00,0.0164
2958.00,0.0165
2957.00,0.0165
2956.00,0.0165
2955.00,0.0165
2954.00,0.0165
2953.00,0.0165
2952.00,0.0165
2951.00,0.0166
2950.00,0.0167
2949.00,0.0168
2948.00,0.0169
2947.00,0.0171
2946.00,0.0173
2945.00,0.0176
2944.00,0.0180
2943.00,0.0183
2942.00,0.0187
2941.00,0.0190
2940.00,0.0193
2939.00,0.0197
2938.00,0.0200
2937.00,0.0204
2936.00,0.0207
2935.00,0.0210
2934.00,0.0213
2933.00,0.0216
2932.00,0.0218
2931.00,0.0221
2930.00,0.0224
2929.00,0.0228
2928.00,0.0231
2927.00,0.0235
2926.00,0.0239
2925.00,0.0244
2924.00,0.0248
2923.00,0.0252
2922.00,0.0256
2921.00,0.0260
2920.00,0.0262
2919.00,0.0263
2918.00,0.0262
2917.00,0.0258
2916.00,0.0252
2915.00,0.0243
2914.00,0.0233
2913.00,0.0222
2912.00,0.0212
2911.00,0.0203
2910.00,0.0195
2909.00,0.0188
2908.00,0.0183
2907.00,0.0178
2906.00,0.0173
2905.00,0.0170
2904.00,0.0167
2903.00,0.0164
2902.00,0.0162
2901.00,0.0159
2900.00,0.0157
2899.00,0.0154
2898.00,0.0152
2897.00,0.0149
2896.00,0.0147
2895.00,0.0145
2894.00,0.0144
2893.00,0.0142
2892.00,0.0140
2891.00,0.0138
2890.00,0.0137
2889.00,0.0136
2888.00,0.0135
2887.00,0.0134
2886.00,0.0133
2885.00,0.0133
2884.00,0.0133
2883.00,0.0133
2882.00,0.0134
2881.00,0.0135
2880.00,0.0136
2879.00,0.0137
2878.00,0.0137
2877.00,0.0138
2876.00,0.0138
2875.00,0.0138
2874.00,0.0138
2873.00,0.0138
2872.00,0.0138
2871.00,0.0137
2870.00,0.0137
2869.00,0.0136
2868.00,0.0135
2867.00,0.0134
2866.00,0.0134
2865.00,0.0134
2864.00,0.0134
2863.00,0.0135
2862.00,0.0136
2861.00,0.0138
2860.00,0.0140
2859.00,0.0142
2858.00,0.0145
2857.00,0.0149
2856.00,0.0154
2855.00,0.0159
2854.00,0.0165
2853.00,0.0171
2852.00,0.0177
2851.00,0.0180
2850.00,0.0180
2849.00,0.0176
2848.00,0.0170
2847.00,0.0161
2846.00,0.0152
2845.00,0.0144
2844.00,0.0136
2843.00,0.0129
2842.00,0.0124
2841.00,0.0120
2840.00,0.0116
2839.00,0.0113
2838.00,0.0111
2837.00,0.0109
2836.00,0.0108
2835.00,0.0107
2834.00,0.0105
2833.00,0.0105
2832.00,0.0104
2831.00,0.0103
2830.00,0.0103
2829.00,0.0102
2828.00,0.0102
2827.00,0.0101
2826.00,0.0101
2825.00,0.0100
2824.00,0.0099
2823.00,0.0099
2822.00,0.0099
2821.00,0.0098
2820.00,0.0098
2819.00,0.0098
2818.00,0.0097
2817.00,0.0097
2816.00,0.0097
2815.00,0.0096
2814.00,0.0096
2813.00,0.0095
2812.00,0.0095
2811.00,0.0094
2810.00,0.0094
2809.00,0.0094
2808.00,0.0093
2807.00,0.0093
2806.00,0.0093
2805.00,0.0093
2804.00,0.0092
2803.00,0.0092
2802.00,0.0091
2801.00,0.0091
2800.00,0.0090
2799.00,0.0090
2798.00,0.0089
2797.00,0.0089
2796.00,0.0089
2795.00,0.0088
2794.00,0.0088
2793.00,0.0087
2792.00,0.0087
2791.00,0.0086
2790.00,0.0086
2789.00,0.0086
2788.00,0.0086
2787.00,0.0086
2786.00,0.0085
2785.00,0.0085
2784.00,0.0085
2783.00,0.0084
2782.00,0.0084
2781.00,0.0084
2780.00,0.0083
2779.00,0.0083
2778.00,0.0083
2777.00,0.0082
2776.00,0.0082
2775.00,0.0081
2774.00,0.0081
2773.00,0.0081
2772.00,0.0081
2771.00,0.0080
2770.00,0.0080
2769.00,0.0080
2768.00,0.0079
2767.00,0.0079
2766.00,0.0079
2765.00,0.0078
2764.00,0.0078
2763.00,0.0078
2762.00,0.0077
2761.00,0.0077
2760.00,0.0077
2759.00,0.0077
2758.00,0.0076
2757.00,0.0076
