Created as New Dataset,Sample 376 By YargerLab Date Wednesday, October 23 2024
cm-1,A
4000.00,0.0015
3999.00,0.0015
3998.00,0.0015
3997.00,0.0015
3996.00,0.0015
3995.00,0.0015
3994.00,0.0015
3993.00,0.0015
3992.00,0.0015
3991.00,0.0015
3990.00,0.0015
3989.00,0.0015
3988.00,0.0015
3987.00,0.0015
3986.00,0.0015
3985.00,0.0015
3984.00,0.0015
3983.00,0.0015
3982.00,0.0015
3981.00,0.0015
3980.00,0.0015
3979.00,0.0015
3978.00,0.0015
3977.00,0.0015
3976.00,0.0015
3975.00,0.0015
3974.00,0.0015
3973.00,0.0015
3972.00,0.0015
3971.00,0.0015
3970.00,0.0015
3969.00,0.0015
3968.00,0.0015
3967.00,0.0015
3966.00,0.0015
3965.00,0.0015
3964.00,0.0015
3963.00,0.0015
3962.00,0.0015
3961.00,0.0015
3960.00,0.0015
3959.00,0.0015
3958.00,0.0015
3957.00,0.0015
3956.00,0.0015
3955.00,0.0015
3954.00,0.0015
3953.00,0.0015
3952.00,0.0015
3951.00,0.0015
3950.00,0.0015
3949.00,0.0015
3948.00,0.0015
3947.00,0.0015
3946.00,0.0015
3945.00,0.0015
3944.00,0.0015
3943.00,0.0015
3942.00,0.0015
3941.00,0.0015
3940.00,0.0015
3939.00,0.0015
3938.00,0.0014
3937.00,0.0014
3936.00,0.0015
3935.00,0.0015
3934.00,0.0015
3933.00,0.0015
3932.00,0.0015
3931.00,0.0015
3930.00,0.0015
3929.00,0.0015
3928.00,0.0015
3927.00,0.0015
3926.00,0.0014
3925.00,0.0014
3924.00,0.0014
3923.00,0.0014
3922.00,0.0014
3921.00,0.0014
3920.00,0.0014
3919.00,0.0014
3918.00,0.0014
3917.00,0.0014
3916.00,0.0014
3915.00,0.0014
3914.00,0.0014
3913.00,0.0014
3912.00,0.0014
3911.00,0.0014
3910.00,0.0014
3909.00,0.0014
3908.00,0.0014
3907.00,0.0014
3906.00,0.0014
3905.00,0.0014
3904.00,0.0014
3903.00,0.0014
3902.00,0.0014
3901.00,0.0014
3900.00,0.0014
3899.00,0.0014
3898.00,0.0014
3897.00,0.0013
3896.00,0.0014
3895.00,0.0014
3894.00,0.0014
3893.00,0.0014
3892.00,0.0014
3891.00,0.0013
3890.00,0.0013
3889.00,0.0013
3888.00,0.0014
3887.00,0.0014
3886.00,0.0014
3885.00,0.0014
3884.00,0.0014
3883.00,0.0014
3882.00,0.0014
3881.00,0.0014
3880.00,0.0014
3879.00,0.0014
3878.00,0.0014
3877.00,0.0014
3876.00,0.0014
3875.00,0.0014
3874.00,0.0013
3873.00,0.0014
3872.00,0.0014
3871.00,0.0014
3870.00,0.0013
3869.00,0.0013
3868.00,0.0013
3867.00,0.0014
3866.00,0.0014
3865.00,0.0013
3864.00,0.0013
3863.00,0.0013
3862.00,0.0013
3861.00,0.0013
3860.00,0.0013
3859.00,0.0013
3858.00,0.0013
3857.00,0.0013
3856.00,0.0013
3855.00,0.0013
3854.00,0.0013
3853.00,0.0013
3852.00,0.0013
3851.00,0.0013
3850.00,0.0013
3849.00,0.0013
3848.00,0.0013
3847.00,0.0013
3846.00,0.0013
3845.00,0.0014
3844.00,0.0013
3843.00,0.0013
3842.00,0.0013
3841.00,0.0013
3840.00,0.0013
3839.00,0.0013
3838.00,0.0013
3837.00,0.0013
3836.00,0.0013
3835.00,0.0013
3834.00,0.0013
3833.00,0.0013
3832.00,0.0013
3831.00,0.0013
3830.00,0.0013
3829.00,0.0013
3828.00,0.0013
3827.00,0.0013
3826.00,0.0013
3825.00,0.0013
3824.00,0.0013
3823.00,0.0013
3822.00,0.0013
3821.00,0.0012
3820.00,0.0012
3819.00,0.0012
3818.00,0.0012
3817.00,0.0012
3816.00,0.0012
3815.00,0.0012
3814.00,0.0013
3813.00,0.0013
3812.00,0.0013
3811.00,0.0013
3810.00,0.0013
3809.00,0.0013
3808.00,0.0013
3807.00,0.0012
3806.00,0.0012
3805.00,0.0012
3804.00,0.0013
3803.00,0.0012
3802.00,0.0012
3801.00,0.0012
3800.00,0.0012
3799.00,0.0013
3798.00,0.0013
3797.00,0.0013
3796.00,0.0013
3795.00,0.0012
3794.00,0.0012
3793.00,0.0012
3792.00,0.0012
3791.00,0.0012
3790.00,0.0012
3789.00,0.0013
3788.00,0.0013
3787.00,0.0013
3786.00,0.0013
3785.00,0.0012
3784.00,0.0012
3783.00,0.0012
3782.00,0.0012
3781.00,0.0012
3780.00,0.0012
3779.00,0.0012
3778.00,0.0012
3777.00,0.0013
3776.00,0.0013
3775.00,0.0013
3774.00,0.0013
3773.00,0.0013
3772.00,0.0013
3771.00,0.0013
3770.00,0.0013
3769.00,0.0013
3768.00,0.0013
3767.00,0.0013
3766.00,0.0013
3765.00,0.0013
3764.00,0.0013
3763.00,0.0013
3762.00,0.0013
3761.00,0.0013
3760.00,0.0012
3759.00,0.0012
3758.00,0.0013
3757.00,0.0013
3756.00,0.0013
3755.00,0.0013
3754.00,0.0013
3753.00,0.0013
3752.00,0.0013
3751.00,0.0013
3750.00,0.0013
3749.00,0.0013
3748.00,0.0013
3747.00,0.0013
3746.00,0.0013
3745.00,0.0013
3744.00,0.0013
3743.00,0.0013
3742.00,0.0013
3741.00,0.0013
3740.00,0.0013
3739.00,0.0013
3738.00,0.0013
3737.00,0.0013
3736.00,0.0013
3735.00,0.0013
3734.00,0.0013
3733.00,0.0013
3732.00,0.0013
3731.00,0.0013
3730.00,0.0013
3729.00,0.0013
3728.00,0.0013
3727.00,0.0013
3726.00,0.0013
3725.00,0.0013
3724.00,0.0013
3723.00,0.0013
3722.00,0.0013
3721.00,0.0013
3720.00,0.0013
3719.00,0.0013
3718.00,0.0013
3717.00,0.0013
3716.00,0.0013
3715.00,0.0013
3714.00,0.0013
3713.00,0.0013
3712.00,0.0013
3711.00,0.0013
3710.00,0.0013
3709.00,0.0013
3708.00,0.0013
3707.00,0.0013
3706.00,0.0013
3705.00,0.0013
3704.00,0.0013
3703.00,0.0013
3702.00,0.0013
3701.00,0.0013
3700.00,0.0014
3699.00,0.0014
3698.00,0.0014
3697.00,0.0014
3696.00,0.0014
3695.00,0.0014
3694.00,0.0014
3693.00,0.0014
3692.00,0.0014
3691.00,0.0014
3690.00,0.0014
3689.00,0.0014
3688.00,0.0014
3687.00,0.0014
3686.00,0.0015
3685.00,0.0015
3684.00,0.0015
3683.00,0.0015
3682.00,0.0016
3681.00,0.0016
3680.00,0.0016
3679.00,0.0016
3678.00,0.0016
3677.00,0.0017
3676.00,0.0017
3675.00,0.0017
3674.00,0.0017
3673.00,0.0018
3672.00,0.0018
3671.00,0.0018
3670.00,0.0018
3669.00,0.0018
3668.00,0.0019
3667.00,0.0019
3666.00,0.0019
3665.00,0.0019
3664.00,0.0019
3663.00,0.0020
3662.00,0.0020
3661.00,0.0020
3660.00,0.0020
3659.00,0.0021
3658.00,0.0021
3657.00,0.0021
3656.00,0.0022
3655.00,0.0022
3654.00,0.0022
3653.00,0.0023
3652.00,0.0023
3651.00,0.0023
3650.00,0.0024
3649.00,0.0024
3648.00,0.0025
3647.00,0.0025
3646.00,0.0026
3645.00,0.0026
3644.00,0.0026
3643.00,0.0026
3642.00,0.0027
3641.00,0.0027
3640.00,0.0028
3639.00,0.0028
3638.00,0.0028
3637.00,0.0029
3636.00,0.0029
3635.00,0.0030
3634.00,0.0030
3633.00,0.0031
3632.00,0.0031
3631.00,0.0032
3630.00,0.0032
3629.00,0.0033
3628.00,0.0034
3627.00,0.0034
3626.00,0.0035
3625.00,0.0035
3624.00,0.0035
3623.00,0.0036
3622.00,0.0036
3621.00,0.0037
3620.00,0.0037
3619.00,0.0038
3618.00,0.0039
3617.00,0.0039
3616.00,0.0040
3615.00,0.0040
3614.00,0.0041
3613.00,0.0041
3612.00,0.0042
3611.00,0.0042
3610.00,0.0043
3609.00,0.0044
3608.00,0.0044
3607.00,0.0045
3606.00,0.0046
3605.00,0.0046
3604.00,0.0047
3603.00,0.0047
3602.00,0.0048
3601.00,0.0048
3600.00,0.0049
3599.00,0.0049
3598.00,0.0050
3597.00,0.0051
3596.00,0.0051
3595.00,0.0052
3594.00,0.0052
3593.00,0.0053
3592.00,0.0054
3591.00,0.0054
3590.00,0.0055
3589.00,0.0056
3588.00,0.0057
3587.00,0.0057
3586.00,0.0058
3585.00,0.0059
3584.00,0.0059
3583.00,0.0060
3582.00,0.0061
3581.00,0.0061
3580.00,0.0062
3579.00,0.0063
3578.00,0.0063
3577.00,0.0064
3576.00,0.0065
3575.00,0.0065
3574.00,0.0066
3573.00,0.0067
3572.00,0.0067
3571.00,0.0068
3570.00,0.0069
3569.00,0.0070
3568.00,0.0071
3567.00,0.0072
3566.00,0.0073
3565.00,0.0074
3564.00,0.0074
3563.00,0.0075
3562.00,0.0075
3561.00,0.0076
3560.00,0.0077
3559.00,0.0077
3558.00,0.0078
3557.00,0.0079
3556.00,0.0080
3555.00,0.0080
3554.00,0.0081
3553.00,0.0082
3552.00,0.0083
3551.00,0.0084
3550.00,0.0084
3549.00,0.0085
3548.00,0.0086
3547.00,0.0087
3546.00,0.0088
3545.00,0.0089
3544.00,0.0090
3543.00,0.0090
3542.00,0.0091
3541.00,0.0092
3540.00,0.0092
3539.00,0.0093
3538.00,0.0094
3537.00,0.0094
3536.00,0.0095
3535.00,0.0096
3534.00,0.0097
3533.00,0.0097
3532.00,0.0098
3531.00,0.0099
3530.00,0.0100
3529.00,0.0101
3528.00,0.0102
3527.00,0.0102
3526.00,0.0103
3525.00,0.0104
3524.00,0.0105
3523.00,0.0106
3522.00,0.0106
3521.00,0.0107
3520.00,0.0108
3519.00,0.0109
3518.00,0.0110
3517.00,0.0111
3516.00,0.0111
3515.00,0.0112
3514.00,0.0113
3513.00,0.0114
3512.00,0.0115
3511.00,0.0116
3510.00,0.0116
3509.00,0.0117
3508.00,0.0118
3507.00,0.0119
3506.00,0.0120
3505.00,0.0121
3504.00,0.0122
3503.00,0.0123
3502.00,0.0124
3501.00,0.0125
3500.00,0.0126
3499.00,0.0127
3498.00,0.0128
3497.00,0.0129
3496.00,0.0129
3495.00,0.0130
3494.00,0.0131
3493.00,0.0132
3492.00,0.0133
3491.00,0.0134
3490.00,0.0135
3489.00,0.0136
3488.00,0.0137
3487.00,0.0138
3486.00,0.0139
3485.00,0.0140
3484.00,0.0141
3483.00,0.0142
3482.00,0.0143
3481.00,0.0144
3480.00,0.0145
3479.00,0.0146
3478.00,0.0147
3477.00,0.0148
3476.00,0.0149
3475.00,0.0150
3474.00,0.0151
3473.00,0.0152
3472.00,0.0153
3471.00,0.0154
3470.00,0.0154
3469.00,0.0155
3468.00,0.0156
3467.00,0.0157
3466.00,0.0158
3465.00,0.0159
3464.00,0.0160
3463.00,0.0161
3462.00,0.0162
3461.00,0.0163
3460.00,0.0164
3459.00,0.0165
3458.00,0.0166
3457.00,0.0167
3456.00,0.0168
3455.00,0.0169
3454.00,0.0170
3453.00,0.0171
3452.00,0.0172
3451.00,0.0173
3450.00,0.0174
3449.00,0.0175
3448.00,0.0176
3447.00,0.0178
3446.00,0.0179
3445.00,0.0180
3444.00,0.0181
3443.00,0.0182
3442.00,0.0183
3441.00,0.0185
3440.00,0.0186
3439.00,0.0187
3438.00,0.0188
3437.00,0.0190
3436.00,0.0191
3435.00,0.0192
3434.00,0.0194
3433.00,0.0195
3432.00,0.0196
3431.00,0.0198
3430.00,0.0199
3429.00,0.0200
3428.00,0.0201
3427.00,0.0203
3426.00,0.0204
3425.00,0.0205
3424.00,0.0207
3423.00,0.0208
3422.00,0.0209
3421.00,0.0211
3420.00,0.0212
3419.00,0.0213
3418.00,0.0215
3417.00,0.0216
3416.00,0.0217
3415.00,0.0218
3414.00,0.0219
3413.00,0.0221
3412.00,0.0222
3411.00,0.0223
3410.00,0.0224
3409.00,0.0226
3408.00,0.0227
3407.00,0.0228
3406.00,0.0230
3405.00,0.0231
3404.00,0.0232
3403.00,0.0233
3402.00,0.0234
3401.00,0.0235
3400.00,0.0236
3399.00,0.0237
3398.00,0.0239
3397.00,0.0240
3396.00,0.0241
3395.00,0.0242
3394.00,0.0243
3393.00,0.0244
3392.00,0.0246
3391.00,0.0247
3390.00,0.0249
3389.00,0.0250
3388.00,0.0251
3387.00,0.0253
3386.00,0.0254
3385.00,0.0255
3384.00,0.0257
3383.00,0.0258
3382.00,0.0259
3381.00,0.0261
3380.00,0.0262
3379.00,0.0263
3378.00,0.0265
3377.00,0.0266
3376.00,0.0268
3375.00,0.0269
3374.00,0.0271
3373.00,0.0272
3372.00,0.0273
3371.00,0.0274
3370.00,0.0276
3369.00,0.0277
3368.00,0.0279
3367.00,0.0281
3366.00,0.0283
3365.00,0.0285
3364.00,0.0287
3363.00,0.0289
3362.00,0.0291
3361.00,0.0292
3360.00,0.0294
3359.00,0.0296
3358.00,0.0298
3357.00,0.0300
3356.00,0.0302
3355.00,0.0304
3354.00,0.0305
3353.00,0.0307
3352.00,0.0308
3351.00,0.0310
3350.00,0.0312
3349.00,0.0314
3348.00,0.0317
3347.00,0.0319
3346.00,0.0321
3345.00,0.0323
3344.00,0.0324
3343.00,0.0326
3342.00,0.0328
3341.00,0.0330
3340.00,0.0332
3339.00,0.0334
3338.00,0.0336
3337.00,0.0339
3336.00,0.0342
3335.00,0.0344
3334.00,0.0347
3333.00,0.0349
3332.00,0.0351
3331.00,0.0353
3330.00,0.0355
3329.00,0.0357
3328.00,0.0359
3327.00,0.0361
3326.00,0.0364
3325.00,0.0366
3324.00,0.0369
3323.00,0.0372
3322.00,0.0375
3321.00,0.0377
3320.00,0.0380
3319.00,0.0382
3318.00,0.0385
3317.00,0.0387
3316.00,0.0390
3315.00,0.0392
3314.00,0.0395
3313.00,0.0397
3312.00,0.0399
3311.00,0.0401
3310.00,0.0403
3309.00,0.0404
3308.00,0.0406
3307.00,0.0409
3306.00,0.0411
3305.00,0.0414
3304.00,0.0418
3303.00,0.0421
3302.00,0.0424
3301.00,0.0427
3300.00,0.0429
3299.00,0.0431
3298.00,0.0432
3297.00,0.0434
3296.00,0.0435
3295.00,0.0437
3294.00,0.0439
3293.00,0.0441
3292.00,0.0443
3291.00,0.0445
3290.00,0.0448
3289.00,0.0449
3288.00,0.0451
3287.00,0.0452
3286.00,0.0454
3285.00,0.0455
3284.00,0.0456
3283.00,0.0456
3282.00,0.0457
3281.00,0.0457
3280.00,0.0457
3279.00,0.0457
3278.00,0.0457
3277.00,0.0456
3276.00,0.0456
3275.00,0.0455
3274.00,0.0454
3273.00,0.0452
3272.00,0.0451
3271.00,0.0450
3270.00,0.0449
3269.00,0.0448
3268.00,0.0447
3267.00,0.0446
3266.00,0.0444
3265.00,0.0442
3264.00,0.0440
3263.00,0.0438
3262.00,0.0436
3261.00,0.0434
3260.00,0.0432
3259.00,0.0429
3258.00,0.0426
3257.00,0.0423
3256.00,0.0421
3255.00,0.0419
3254.00,0.0416
3253.00,0.0414
3252.00,0.0412
3251.00,0.0409
3250.00,0.0406
3249.00,0.0403
3248.00,0.0401
3247.00,0.0399
3246.00,0.0397
3245.00,0.0395
3244.00,0.0394
3243.00,0.0392
3242.00,0.0390
3241.00,0.0388
3240.00,0.0386
3239.00,0.0384
3238.00,0.0382
3237.00,0.0379
3236.00,0.0377
3235.00,0.0374
3234.00,0.0372
3233.00,0.0371
3232.00,0.0370
3231.00,0.0369
3230.00,0.0368
3229.00,0.0367
3228.00,0.0366
3227.00,0.0364
3226.00,0.0363
3225.00,0.0361
3224.00,0.0360
3223.00,0.0359
3222.00,0.0357
3221.00,0.0356
3220.00,0.0355
3219.00,0.0354
3218.00,0.0353
3217.00,0.0352
3216.00,0.0351
3215.00,0.0349
3214.00,0.0348
3213.00,0.0347
3212.00,0.0346
3211.00,0.0345
3210.00,0.0344
3209.00,0.0343
3208.00,0.0342
3207.00,0.0340
3206.00,0.0339
3205.00,0.0338
3204.00,0.0337
3203.00,0.0336
3202.00,0.0335
3201.00,0.0334
3200.00,0.0332
3199.00,0.0331
3198.00,0.0330
3197.00,0.0329
3196.00,0.0328
3195.00,0.0327
3194.00,0.0325
3193.00,0.0324
3192.00,0.0323
3191.00,0.0321
3190.00,0.0320
3189.00,0.0319
3188.00,0.0318
3187.00,0.0316
3186.00,0.0315
3185.00,0.0314
3184.00,0.0313
3183.00,0.0311
3182.00,0.0310
3181.00,0.0308
3180.00,0.0307
3179.00,0.0306
3178.00,0.0304
3177.00,0.0303
3176.00,0.0302
3175.00,0.0300
3174.00,0.0299
3173.00,0.0297
3172.00,0.0296
3171.00,0.0295
3170.00,0.0293
3169.00,0.0292
3168.00,0.0291
3167.00,0.0289
3166.00,0.0288
3165.00,0.0287
3164.00,0.0286
3163.00,0.0284
3162.00,0.0283
3161.00,0.0282
3160.00,0.0281
3159.00,0.0279
3158.00,0.0278
3157.00,0.0276
3156.00,0.0275
3155.00,0.0273
3154.00,0.0272
3153.00,0.0271
3152.00,0.0270
3151.00,0.0269
3150.00,0.0269
3149.00,0.0268
3148.00,0.0267
3147.00,0.0266
3146.00,0.0265
3145.00,0.0264
3144.00,0.0263
3143.00,0.0261
3142.00,0.0260
3141.00,0.0259
3140.00,0.0258
3139.00,0.0257
3138.00,0.0257
3137.00,0.0256
3136.00,0.0256
3135.00,0.0255
3134.00,0.0254
3133.00,0.0254
3132.00,0.0253
3131.00,0.0252
3130.00,0.0251
3129.00,0.0251
3128.00,0.0251
3127.00,0.0250
3126.00,0.0249
3125.00,0.0249
3124.00,0.0248
3123.00,0.0247
3122.00,0.0246
3121.00,0.0245
3120.00,0.0245
3119.00,0.0244
3118.00,0.0244
3117.00,0.0244
3116.00,0.0244
3115.00,0.0245
3114.00,0.0245
3113.00,0.0245
3112.00,0.0245
3111.00,0.0245
3110.00,0.0245
3109.00,0.0245
3108.00,0.0245
3107.00,0.0246
3106.00,0.0246
3105.00,0.0247
3104.00,0.0247
3103.00,0.0247
3102.00,0.0247
3101.00,0.0247
3100.00,0.0247
3099.00,0.0247
3098.00,0.0248
3097.00,0.0249
3096.00,0.0249
3095.00,0.0250
3094.00,0.0250
3093.00,0.0250
3092.00,0.0250
3091.00,0.0250
3090.00,0.0250
3089.00,0.0250
3088.00,0.0251
3087.00,0.0251
3086.00,0.0251
3085.00,0.0251
3084.00,0.0251
3083.00,0.0251
3082.00,0.0251
3081.00,0.0251
3080.00,0.0251
3079.00,0.0251
3078.00,0.0252
3077.00,0.0253
3076.00,0.0254
3075.00,0.0255
3074.00,0.0255
3073.00,0.0255
3072.00,0.0255
3071.00,0.0254
3070.00,0.0253
3069.00,0.0253
3068.00,0.0252
3067.00,0.0252
3066.00,0.0252
3065.00,0.0253
3064.00,0.0253
3063.00,0.0253
3062.00,0.0252
3061.00,0.0252
3060.00,0.0251
3059.00,0.0250
3058.00,0.0249
3057.00,0.0248
3056.00,0.0247
3055.00,0.0246
3054.00,0.0244
3053.00,0.0243
3052.00,0.0242
3051.00,0.0241
3050.00,0.0240
3049.00,0.0240
3048.00,0.0239
3047.00,0.0237
3046.00,0.0236
3045.00,0.0234
3044.00,0.0233
3043.00,0.0232
3042.00,0.0231
3041.00,0.0231
3040.00,0.0231
3039.00,0.0230
3038.00,0.0229
3037.00,0.0228
3036.00,0.0227
3035.00,0.0225
3034.00,0.0224
3033.00,0.0224
3032.00,0.0223
3031.00,0.0223
3030.00,0.0222
3029.00,0.0222
3028.00,0.0221
3027.00,0.0220
3026.00,0.0218
3025.00,0.0217
3024.00,0.0216
3023.00,0.0215
3022.00,0.0214
3021.00,0.0213
3020.00,0.0211
3019.00,0.0210
3018.00,0.0209
3017.00,0.0208
3016.00,0.0206
3015.00,0.0205
3014.00,0.0205
3013.00,0.0204
3012.00,0.0204
3011.00,0.0204
3010.00,0.0204
3009.00,0.0205
3008.00,0.0205
3007.00,0.0204
3006.00,0.0204
3005.00,0.0204
3004.00,0.0203
3003.00,0.0203
3002.00,0.0203
3001.00,0.0203
3000.00,0.0203
2999.00,0.0203
2998.00,0.0203
2997.00,0.0204
2996.00,0.0204
2995.00,0.0205
2994.00,0.0206
2993.00,0.0207
2992.00,0.0209
2991.00,0.0211
2990.00,0.0213
2989.00,0.0215
2988.00,0.0218
2987.00,0.0221
2986.00,0.0223
2985.00,0.0226
2984.00,0.0228
2983.00,0.0231
2982.00,0.0234
2981.00,0.0238
2980.00,0.0242
2979.00,0.0246
2978.00,0.0250
2977.00,0.0255
2976.00,0.0259
2975.00,0.0263
2974.00,0.0267
2973.00,0.0272
2972.00,0.0276
2971.00,0.0280
2970.00,0.0284
2969.00,0.0288
2968.00,0.0291
2967.00,0.0294
2966.00,0.0297
2965.00,0.0300
2964.00,0.0302
2963.00,0.0304
2962.00,0.0305
2961.00,0.0306
2960.00,0.0306
2959.00,0.0306
2958.00,0.0305
2957.00,0.0304
2956.00,0.0302
2955.00,0.0300
2954.00,0.0298
2953.00,0.0296
2952.00,0.0294
2951.00,0.0293
2950.00,0.0291
2949.00,0.0290
2948.00,0.0289
2947.00,0.0289
2946.00,0.0290
2945.00,0.0291
2944.00,0.0293
2943.00,0.0295
2942.00,0.0298
2941.00,0.0301
2940.00,0.0305
2939.00,0.0308
2938.00,0.0312
2937.00,0.0315
2936.00,0.0319
2935.00,0.0322
2934.00,0.0325
2933.00,0.0327
2932.00,0.0329
2931.00,0.0331
2930.00,0.0333
2929.00,0.0334
2928.00,0.0335
2927.00,0.0335
2926.00,0.0335
2925.00,0.0335
2924.00,0.0334
2923.00,0.0333
2922.00,0.0331
2921.00,0.0328
2920.00,0.0324
2919.00,0.0321
2918.00,0.0316
2917.00,0.0312
2916.00,0.0307
2915.00,0.0302
2914.00,0.0298
2913.00,0.0293
2912.00,0.0289
2911.00,0.0285
2910.00,0.0281
2909.00,0.0278
2908.00,0.0274
2907.00,0.0271
2906.00,0.0268
2905.00,0.0265
2904.00,0.0263
2903.00,0.0260
2902.00,0.0258
2901.00,0.0256
2900.00,0.0254
2899.00,0.0251
2898.00,0.0249
2897.00,0.0247
2896.00,0.0246
2895.00,0.0244
2894.00,0.0243
2893.00,0.0241
2892.00,0.0240
2891.00,0.0239
2890.00,0.0238
2889.00,0.0237
2888.00,0.0237
2887.00,0.0237
2886.00,0.0236
2885.00,0.0237
2884.00,0.0237
2883.00,0.0238
2882.00,0.0238
2881.00,0.0240
2880.00,0.0241
2879.00,0.0242
2878.00,0.0243
2877.00,0.0244
2876.00,0.0244
2875.00,0.0244
2874.00,0.0244
2873.00,0.0244
2872.00,0.0244
2871.00,0.0243
2870.00,0.0241
2869.00,0.0240
2868.00,0.0238
2867.00,0.0236
2866.00,0.0234
2865.00,0.0232
2864.00,0.0231
2863.00,0.0230
2862.00,0.0229
2861.00,0.0229
2860.00,0.0229
2859.00,0.0229
2858.00,0.0230
2857.00,0.0230
2856.00,0.0230
2855.00,0.0230
2854.00,0.0229
2853.00,0.0228
2852.00,0.0226
2851.00,0.0223
2850.00,0.0219
2849.00,0.0215
2848.00,0.0211
2847.00,0.0206
2846.00,0.0202
2845.00,0.0198
2844.00,0.0194
2843.00,0.0190
2842.00,0.0186
2841.00,0.0183
2840.00,0.0181
2839.00,0.0178
2838.00,0.0176
2837.00,0.0175
2836.00,0.0173
2835.00,0.0172
2834.00,0.0171
2833.00,0.0169
2832.00,0.0168
2831.00,0.0167
2830.00,0.0166
2829.00,0.0165
2828.00,0.0164
2827.00,0.0163
2826.00,0.0162
2825.00,0.0162
2824.00,0.0161
2823.00,0.0160
2822.00,0.0159
2821.00,0.0159
2820.00,0.0158
2819.00,0.0157
2818.00,0.0157
2817.00,0.0156
2816.00,0.0155
2815.00,0.0155
2814.00,0.0154
2813.00,0.0153
2812.00,0.0153
2811.00,0.0152
2810.00,0.0151
2809.00,0.0151
2808.00,0.0150
2807.00,0.0150
2806.00,0.0149
2805.00,0.0149
2804.00,0.0148
2803.00,0.0148
2802.00,0.0147
2801.00,0.0146
2800.00,0.0146
2799.00,0.0145
2798.00,0.0145
2797.00,0.0144
2796.00,0.0144
2795.00,0.0143
2794.00,0.0143
2793.00,0.0142
2792.00,0.0142
2791.00,0.0141
2790.00,0.0140
2789.00,0.0140
2788.00,0.0140
2787.00,0.0139
2786.00,0.0139
2785.00,0.0138
2784.00,0.0138
2783.00,0.0138
2782.00,0.0137
2781.00,0.0137
2780.00,0.0136
2779.00,0.0136
2778.00,0.0135
2777.00,0.0134
2776.00,0.0134
2775.00,0.0133
2774.00,0.0133
2773.00,0.0133
2772.00,0.0132
2771.00,0.0132
2770.00,0.0132
2769.00,0.0131
2768.00,0.0131
2767.00,0.0130
2766.00,0.0130
2765.00,0.0129
2764.00,0.0129
2763.00,0.0128
2762.00,0.0128
2761.00,0.0127
2760.00,0.0127
2759.00,0.0126
2758.00,0.0126
2757.00,0.0126
