Created as New Dataset,Sample 024 By YargerLab Date Friday, November 01 2024
cm-1,A
4000.00,0.0075
3999.00,0.0075
3998.00,0.0075
3997.00,0.0075
3996.00,0.0075
3995.00,0.0075
3994.00,0.0075
3993.00,0.0075
3992.00,0.0075
3991.00,0.0075
3990.00,0.0075
3989.00,0.0075
3988.00,0.0075
3987.00,0.0075
3986.00,0.0075
3985.00,0.0075
3984.00,0.0075
3983.00,0.0075
3982.00,0.0075
3981.00,0.0075
3980.00,0.0075
3979.00,0.0075
3978.00,0.0075
3977.00,0.0075
3976.00,0.0075
3975.00,0.0075
3974.00,0.0075
3973.00,0.0075
3972.00,0.0075
3971.00,0.0075
3970.00,0.0075
3969.00,0.0075
3968.00,0.0075
3967.00,0.0075
3966.00,0.0075
3965.00,0.0075
3964.00,0.0075
3963.00,0.0075
3962.00,0.0075
3961.00,0.0075
3960.00,0.0075
3959.00,0.0075
3958.00,0.0075
3957.00,0.0075
3956.00,0.0074
3955.00,0.0074
3954.00,0.0074
3953.00,0.0074
3952.00,0.0074
3951.00,0.0074
3950.00,0.0074
3949.00,0.0074
3948.00,0.0074
3947.00,0.0074
3946.00,0.0074
3945.00,0.0074
3944.00,0.0074
3943.00,0.0074
3942.00,0.0074
3941.00,0.0074
3940.00,0.0074
3939.00,0.0074
3938.00,0.0074
3937.00,0.0074
3936.00,0.0074
3935.00,0.0074
3934.00,0.0074
3933.00,0.0074
3932.00,0.0074
3931.00,0.0074
3930.00,0.0074
3929.00,0.0074
3928.00,0.0074
3927.00,0.0074
3926.00,0.0074
3925.00,0.0074
3924.00,0.0074
3923.00,0.0074
3922.00,0.0074
3921.00,0.0074
3920.00,0.0074
3919.00,0.0074
3918.00,0.0074
3917.00,0.0074
3916.00,0.0074
3915.00,0.0074
3914.00,0.0074
3913.00,0.0074
3912.00,0.0074
3911.00,0.0074
3910.00,0.0074
3909.00,0.0074
3908.00,0.0073
3907.00,0.0073
3906.00,0.0074
3905.00,0.0074
3904.00,0.0074
3903.00,0.0074
3902.00,0.0074
3901.00,0.0074
3900.00,0.0074
3899.00,0.0074
3898.00,0.0074
3897.00,0.0074
3896.00,0.0073
3895.00,0.0073
3894.00,0.0073
3893.00,0.0074
3892.00,0.0074
3891.00,0.0074
3890.00,0.0073
3889.00,0.0073
3888.00,0.0073
3887.00,0.0073
3886.00,0.0073
3885.00,0.0073
3884.00,0.0073
3883.00,0.0073
3882.00,0.0073
3881.00,0.0074
3880.00,0.0073
3879.00,0.0073
3878.00,0.0073
3877.00,0.0073
3876.00,0.0073
3875.00,0.0073
3874.00,0.0072
3873.00,0.0072
3872.00,0.0072
3871.00,0.0073
3870.00,0.0073
3869.00,0.0073
3868.00,0.0072
3867.00,0.0073
3866.00,0.0073
3865.00,0.0073
3864.00,0.0073
3863.00,0.0073
3862.00,0.0073
3861.00,0.0073
3860.00,0.0073
3859.00,0.0073
3858.00,0.0072
3857.00,0.0072
3856.00,0.0071
3855.00,0.0071
3854.00,0.0072
3853.00,0.0072
3852.00,0.0072
3851.00,0.0072
3850.00,0.0072
3849.00,0.0073
3848.00,0.0073
3847.00,0.0073
3846.00,0.0073
3845.00,0.0073
3844.00,0.0072
3843.00,0.0072
3842.00,0.0072
3841.00,0.0072
3840.00,0.0072
3839.00,0.0072
3838.00,0.0072
3837.00,0.0072
3836.00,0.0072
3835.00,0.0072
3834.00,0.0072
3833.00,0.0072
3832.00,0.0072
3831.00,0.0072
3830.00,0.0072
3829.00,0.0072
3828.00,0.0072
3827.00,0.0072
3826.00,0.0072
3825.00,0.0071
3824.00,0.0071
3823.00,0.0072
3822.00,0.0072
3821.00,0.0071
3820.00,0.0071
3819.00,0.0071
3818.00,0.0071
3817.00,0.0072
3816.00,0.0072
3815.00,0.0072
3814.00,0.0071
3813.00,0.0072
3812.00,0.0072
3811.00,0.0071
3810.00,0.0071
3809.00,0.0071
3808.00,0.0071
3807.00,0.0071
3806.00,0.0071
3805.00,0.0070
3804.00,0.0071
3803.00,0.0071
3802.00,0.0071
3801.00,0.0071
3800.00,0.0070
3799.00,0.0071
3798.00,0.0071
3797.00,0.0071
3796.00,0.0071
3795.00,0.0071
3794.00,0.0071
3793.00,0.0071
3792.00,0.0071
3791.00,0.0071
3790.00,0.0071
3789.00,0.0071
3788.00,0.0071
3787.00,0.0071
3786.00,0.0071
3785.00,0.0071
3784.00,0.0071
3783.00,0.0071
3782.00,0.0071
3781.00,0.0071
3780.00,0.0071
3779.00,0.0071
3778.00,0.0071
3777.00,0.0071
3776.00,0.0071
3775.00,0.0071
3774.00,0.0071
3773.00,0.0070
3772.00,0.0070
3771.00,0.0070
3770.00,0.0070
3769.00,0.0070
3768.00,0.0070
3767.00,0.0070
3766.00,0.0070
3765.00,0.0070
3764.00,0.0070
3763.00,0.0070
3762.00,0.0070
3761.00,0.0070
3760.00,0.0070
3759.00,0.0070
3758.00,0.0070
3757.00,0.0070
3756.00,0.0069
3755.00,0.0069
3754.00,0.0069
3753.00,0.0069
3752.00,0.0069
3751.00,0.0069
3750.00,0.0069
3749.00,0.0069
3748.00,0.0069
3747.00,0.0069
3746.00,0.0069
3745.00,0.0070
3744.00,0.0070
3743.00,0.0070
3742.00,0.0070
3741.00,0.0070
3740.00,0.0070
3739.00,0.0070
3738.00,0.0070
3737.00,0.0070
3736.00,0.0070
3735.00,0.0070
3734.00,0.0071
3733.00,0.0071
3732.00,0.0071
3731.00,0.0071
3730.00,0.0071
3729.00,0.0071
3728.00,0.0071
3727.00,0.0071
3726.00,0.0071
3725.00,0.0071
3724.00,0.0072
3723.00,0.0072
3722.00,0.0072
3721.00,0.0071
3720.00,0.0071
3719.00,0.0071
3718.00,0.0071
3717.00,0.0070
3716.00,0.0070
3715.00,0.0070
3714.00,0.0070
3713.00,0.0070
3712.00,0.0070
3711.00,0.0070
3710.00,0.0070
3709.00,0.0070
3708.00,0.0070
3707.00,0.0070
3706.00,0.0070
3705.00,0.0070
3704.00,0.0070
3703.00,0.0070
3702.00,0.0070
3701.00,0.0070
3700.00,0.0070
3699.00,0.0070
3698.00,0.0070
3697.00,0.0070
3696.00,0.0070
3695.00,0.0070
3694.00,0.0069
3693.00,0.0069
3692.00,0.0068
3691.00,0.0068
3690.00,0.0068
3689.00,0.0068
3688.00,0.0068
3687.00,0.0068
3686.00,0.0069
3685.00,0.0069
3684.00,0.0069
3683.00,0.0068
3682.00,0.0068
3681.00,0.0068
3680.00,0.0067
3679.00,0.0066
3678.00,0.0066
3677.00,0.0066
3676.00,0.0066
3675.00,0.0066
3674.00,0.0065
3673.00,0.0065
3672.00,0.0066
3671.00,0.0066
3670.00,0.0066
3669.00,0.0066
3668.00,0.0065
3667.00,0.0066
3666.00,0.0066
3665.00,0.0066
3664.00,0.0065
3663.00,0.0065
3662.00,0.0065
3661.00,0.0065
3660.00,0.0064
3659.00,0.0064
3658.00,0.0064
3657.00,0.0064
3656.00,0.0064
3655.00,0.0064
3654.00,0.0064
3653.00,0.0064
3652.00,0.0064
3651.00,0.0064
3650.00,0.0064
3649.00,0.0065
3648.00,0.0065
3647.00,0.0065
3646.00,0.0065
3645.00,0.0066
3644.00,0.0066
3643.00,0.0066
3642.00,0.0066
3641.00,0.0066
3640.00,0.0066
3639.00,0.0066
3638.00,0.0066
3637.00,0.0066
3636.00,0.0066
3635.00,0.0067
3634.00,0.0067
3633.00,0.0067
3632.00,0.0067
3631.00,0.0068
3630.00,0.0068
3629.00,0.0068
3628.00,0.0068
3627.00,0.0068
3626.00,0.0069
3625.00,0.0069
3624.00,0.0069
3623.00,0.0069
3622.00,0.0069
3621.00,0.0069
3620.00,0.0069
3619.00,0.0069
3618.00,0.0069
3617.00,0.0069
3616.00,0.0069
3615.00,0.0069
3614.00,0.0069
3613.00,0.0069
3612.00,0.0069
3611.00,0.0069
3610.00,0.0069
3609.00,0.0069
3608.00,0.0069
3607.00,0.0069
3606.00,0.0069
3605.00,0.0069
3604.00,0.0069
3603.00,0.0070
3602.00,0.0069
3601.00,0.0069
3600.00,0.0069
3599.00,0.0069
3598.00,0.0069
3597.00,0.0069
3596.00,0.0069
3595.00,0.0069
3594.00,0.0069
3593.00,0.0069
3592.00,0.0069
3591.00,0.0069
3590.00,0.0069
3589.00,0.0069
3588.00,0.0069
3587.00,0.0069
3586.00,0.0069
3585.00,0.0069
3584.00,0.0069
3583.00,0.0069
3582.00,0.0069
3581.00,0.0069
3580.00,0.0069
3579.00,0.0069
3578.00,0.0069
3577.00,0.0069
3576.00,0.0069
3575.00,0.0068
3574.00,0.0068
3573.00,0.0068
3572.00,0.0068
3571.00,0.0068
3570.00,0.0068
3569.00,0.0068
3568.00,0.0069
3567.00,0.0069
3566.00,0.0069
3565.00,0.0069
3564.00,0.0069
3563.00,0.0069
3562.00,0.0069
3561.00,0.0069
3560.00,0.0069
3559.00,0.0069
3558.00,0.0069
3557.00,0.0068
3556.00,0.0069
3555.00,0.0069
3554.00,0.0069
3553.00,0.0069
3552.00,0.0069
3551.00,0.0069
3550.00,0.0069
3549.00,0.0069
3548.00,0.0069
3547.00,0.0069
3546.00,0.0069
3545.00,0.0069
3544.00,0.0070
3543.00,0.0070
3542.00,0.0070
3541.00,0.0070
3540.00,0.0070
3539.00,0.0070
3538.00,0.0070
3537.00,0.0070
3536.00,0.0070
3535.00,0.0070
3534.00,0.0070
3533.00,0.0071
3532.00,0.0071
3531.00,0.0071
3530.00,0.0071
3529.00,0.0071
3528.00,0.0071
3527.00,0.0072
3526.00,0.0072
3525.00,0.0072
3524.00,0.0072
3523.00,0.0071
3522.00,0.0071
3521.00,0.0070
3520.00,0.0069
3519.00,0.0068
3518.00,0.0067
3517.00,0.0066
3516.00,0.0065
3515.00,0.0064
3514.00,0.0064
3513.00,0.0063
3512.00,0.0063
3511.00,0.0063
3510.00,0.0063
3509.00,0.0063
3508.00,0.0063
3507.00,0.0064
3506.00,0.0064
3505.00,0.0064
3504.00,0.0065
3503.00,0.0065
3502.00,0.0066
3501.00,0.0067
3500.00,0.0067
3499.00,0.0068
3498.00,0.0068
3497.00,0.0068
3496.00,0.0069
3495.00,0.0069
3494.00,0.0069
3493.00,0.0069
3492.00,0.0070
3491.00,0.0070
3490.00,0.0070
3489.00,0.0070
3488.00,0.0070
3487.00,0.0070
3486.00,0.0070
3485.00,0.0071
3484.00,0.0071
3483.00,0.0071
3482.00,0.0071
3481.00,0.0071
3480.00,0.0071
3479.00,0.0071
3478.00,0.0071
3477.00,0.0071
3476.00,0.0072
3475.00,0.0072
3474.00,0.0072
3473.00,0.0072
3472.00,0.0072
3471.00,0.0072
3470.00,0.0072
3469.00,0.0072
3468.00,0.0072
3467.00,0.0072
3466.00,0.0072
3465.00,0.0072
3464.00,0.0072
3463.00,0.0072
3462.00,0.0072
3461.00,0.0072
3460.00,0.0073
3459.00,0.0073
3458.00,0.0073
3457.00,0.0073
3456.00,0.0073
3455.00,0.0073
3454.00,0.0073
3453.00,0.0073
3452.00,0.0073
3451.00,0.0073
3450.00,0.0073
3449.00,0.0073
3448.00,0.0074
3447.00,0.0074
3446.00,0.0074
3445.00,0.0074
3444.00,0.0074
3443.00,0.0074
3442.00,0.0074
3441.00,0.0074
3440.00,0.0074
3439.00,0.0074
3438.00,0.0074
3437.00,0.0074
3436.00,0.0074
3435.00,0.0074
3434.00,0.0074
3433.00,0.0074
3432.00,0.0074
3431.00,0.0074
3430.00,0.0074
3429.00,0.0074
3428.00,0.0075
3427.00,0.0075
3426.00,0.0075
3425.00,0.0075
3424.00,0.0075
3423.00,0.0074
3422.00,0.0074
3421.00,0.0074
3420.00,0.0074
3419.00,0.0075
3418.00,0.0075
3417.00,0.0075
3416.00,0.0075
3415.00,0.0075
3414.00,0.0075
3413.00,0.0075
3412.00,0.0075
3411.00,0.0074
3410.00,0.0074
3409.00,0.0074
3408.00,0.0074
3407.00,0.0074
3406.00,0.0074
3405.00,0.0073
3404.00,0.0073
3403.00,0.0073
3402.00,0.0072
3401.00,0.0072
3400.00,0.0072
3399.00,0.0072
3398.00,0.0072
3397.00,0.0072
3396.00,0.0072
3395.00,0.0072
3394.00,0.0072
3393.00,0.0073
3392.00,0.0073
3391.00,0.0074
3390.00,0.0074
3389.00,0.0075
3388.00,0.0075
3387.00,0.0076
3386.00,0.0077
3385.00,0.0077
3384.00,0.0078
3383.00,0.0079
3382.00,0.0079
3381.00,0.0080
3380.00,0.0081
3379.00,0.0081
3378.00,0.0082
3377.00,0.0082
3376.00,0.0083
3375.00,0.0083
3374.00,0.0084
3373.00,0.0084
3372.00,0.0084
3371.00,0.0085
3370.00,0.0085
3369.00,0.0085
3368.00,0.0086
3367.00,0.0086
3366.00,0.0087
3365.00,0.0087
3364.00,0.0088
3363.00,0.0088
3362.00,0.0089
3361.00,0.0089
3360.00,0.0090
3359.00,0.0090
3358.00,0.0090
3357.00,0.0091
3356.00,0.0091
3355.00,0.0092
3354.00,0.0092
3353.00,0.0092
3352.00,0.0092
3351.00,0.0092
3350.00,0.0093
3349.00,0.0093
3348.00,0.0094
3347.00,0.0094
3346.00,0.0094
3345.00,0.0095
3344.00,0.0095
3343.00,0.0096
3342.00,0.0096
3341.00,0.0097
3340.00,0.0097
3339.00,0.0097
3338.00,0.0098
3337.00,0.0098
3336.00,0.0098
3335.00,0.0099
3334.00,0.0100
3333.00,0.0100
3332.00,0.0101
3331.00,0.0101
3330.00,0.0101
3329.00,0.0102
3328.00,0.0102
3327.00,0.0102
3326.00,0.0103
3325.00,0.0103
3324.00,0.0104
3323.00,0.0104
3322.00,0.0105
3321.00,0.0105
3320.00,0.0106
3319.00,0.0106
3318.00,0.0107
3317.00,0.0107
3316.00,0.0107
3315.00,0.0108
3314.00,0.0108
3313.00,0.0109
3312.00,0.0109
3311.00,0.0110
3310.00,0.0110
3309.00,0.0111
3308.00,0.0111
3307.00,0.0111
3306.00,0.0112
3305.00,0.0112
3304.00,0.0113
3303.00,0.0113
3302.00,0.0114
3301.00,0.0115
3300.00,0.0115
3299.00,0.0116
3298.00,0.0116
3297.00,0.0116
3296.00,0.0117
3295.00,0.0117
3294.00,0.0118
3293.00,0.0118
3292.00,0.0119
3291.00,0.0120
3290.00,0.0121
3289.00,0.0121
3288.00,0.0122
3287.00,0.0123
3286.00,0.0123
3285.00,0.0124
3284.00,0.0125
3283.00,0.0125
3282.00,0.0126
3281.00,0.0126
3280.00,0.0127
3279.00,0.0128
3278.00,0.0128
3277.00,0.0129
3276.00,0.0129
3275.00,0.0130
3274.00,0.0130
3273.00,0.0131
3272.00,0.0131
3271.00,0.0132
3270.00,0.0133
3269.00,0.0135
3268.00,0.0136
3267.00,0.0138
3266.00,0.0139
3265.00,0.0140
3264.00,0.0141
3263.00,0.0141
3262.00,0.0142
3261.00,0.0143
3260.00,0.0144
3259.00,0.0145
3258.00,0.0146
3257.00,0.0147
3256.00,0.0148
3255.00,0.0149
3254.00,0.0150
3253.00,0.0152
3252.00,0.0153
3251.00,0.0154
3250.00,0.0154
3249.00,0.0154
3248.00,0.0155
3247.00,0.0156
3246.00,0.0157
3245.00,0.0159
3244.00,0.0161
3243.00,0.0163
3242.00,0.0164
3241.00,0.0166
3240.00,0.0167
3239.00,0.0168
3238.00,0.0168
3237.00,0.0168
3236.00,0.0168
3235.00,0.0168
3234.00,0.0169
3233.00,0.0171
3232.00,0.0174
3231.00,0.0176
3230.00,0.0179
3229.00,0.0181
3228.00,0.0182
3227.00,0.0184
3226.00,0.0185
3225.00,0.0186
3224.00,0.0187
3223.00,0.0188
3222.00,0.0189
3221.00,0.0190
3220.00,0.0191
3219.00,0.0192
3218.00,0.0193
3217.00,0.0194
3216.00,0.0195
3215.00,0.0196
3214.00,0.0196
3213.00,0.0197
3212.00,0.0198
3211.00,0.0199
3210.00,0.0199
3209.00,0.0200
3208.00,0.0200
3207.00,0.0201
3206.00,0.0201
3205.00,0.0201
3204.00,0.0202
3203.00,0.0202
3202.00,0.0203
3201.00,0.0203
3200.00,0.0204
3199.00,0.0204
3198.00,0.0205
3197.00,0.0205
3196.00,0.0206
3195.00,0.0206
3194.00,0.0206
3193.00,0.0207
3192.00,0.0207
3191.00,0.0207
3190.00,0.0208
3189.00,0.0209
3188.00,0.0209
3187.00,0.0210
3186.00,0.0211
3185.00,0.0212
3184.00,0.0212
3183.00,0.0213
3182.00,0.0213
3181.00,0.0214
3180.00,0.0214
3179.00,0.0215
3178.00,0.0215
3177.00,0.0216
3176.00,0.0217
3175.00,0.0217
3174.00,0.0217
3173.00,0.0218
3172.00,0.0219
3171.00,0.0219
3170.00,0.0220
3169.00,0.0221
3168.00,0.0221
3167.00,0.0222
3166.00,0.0223
3165.00,0.0224
3164.00,0.0224
3163.00,0.0225
3162.00,0.0226
3161.00,0.0227
3160.00,0.0228
3159.00,0.0229
3158.00,0.0230
3157.00,0.0231
3156.00,0.0231
3155.00,0.0232
3154.00,0.0232
3153.00,0.0233
3152.00,0.0235
3151.00,0.0236
3150.00,0.0238
3149.00,0.0240
3148.00,0.0242
3147.00,0.0243
3146.00,0.0244
3145.00,0.0246
3144.00,0.0247
3143.00,0.0248
3142.00,0.0248
3141.00,0.0249
3140.00,0.0250
3139.00,0.0252
3138.00,0.0254
3137.00,0.0256
3136.00,0.0258
3135.00,0.0259
3134.00,0.0261
3133.00,0.0262
3132.00,0.0263
3131.00,0.0263
3130.00,0.0264
3129.00,0.0266
3128.00,0.0267
3127.00,0.0268
3126.00,0.0269
3125.00,0.0270
3124.00,0.0270
3123.00,0.0270
3122.00,0.0270
3121.00,0.0270
3120.00,0.0271
3119.00,0.0271
3118.00,0.0273
3117.00,0.0274
3116.00,0.0275
3115.00,0.0277
3114.00,0.0279
3113.00,0.0280
3112.00,0.0282
3111.00,0.0283
3110.00,0.0284
3109.00,0.0285
3108.00,0.0287
3107.00,0.0288
3106.00,0.0290
3105.00,0.0292
3104.00,0.0293
3103.00,0.0294
3102.00,0.0296
3101.00,0.0297
3100.00,0.0299
3099.00,0.0300
3098.00,0.0302
3097.00,0.0304
3096.00,0.0305
3095.00,0.0307
3094.00,0.0309
3093.00,0.0310
3092.00,0.0312
3091.00,0.0314
3090.00,0.0315
3089.00,0.0317
3088.00,0.0320
3087.00,0.0322
3086.00,0.0324
3085.00,0.0327
3084.00,0.0329
3083.00,0.0332
3082.00,0.0335
3081.00,0.0339
3080.00,0.0342
3079.00,0.0346
3078.00,0.0349
3077.00,0.0353
3076.00,0.0356
3075.00,0.0360
3074.00,0.0363
3073.00,0.0365
3072.00,0.0368
3071.00,0.0370
3070.00,0.0372
3069.00,0.0373
3068.00,0.0375
3067.00,0.0376
3066.00,0.0377
3065.00,0.0378
3064.00,0.0379
3063.00,0.0379
3062.00,0.0379
3061.00,0.0379
3060.00,0.0379
3059.00,0.0379
3058.00,0.0379
3057.00,0.0379
3056.00,0.0380
3055.00,0.0381
3054.00,0.0381
3053.00,0.0382
3052.00,0.0383
3051.00,0.0384
3050.00,0.0385
3049.00,0.0387
3048.00,0.0388
3047.00,0.0389
3046.00,0.0390
3045.00,0.0391
3044.00,0.0392
3043.00,0.0393
3042.00,0.0393
3041.00,0.0394
3040.00,0.0395
3039.00,0.0396
3038.00,0.0397
3037.00,0.0398
3036.00,0.0398
3035.00,0.0399
3034.00,0.0400
3033.00,0.0401
3032.00,0.0402
3031.00,0.0403
3030.00,0.0404
3029.00,0.0405
3028.00,0.0406
3027.00,0.0406
3026.00,0.0407
3025.00,0.0408
3024.00,0.0408
3023.00,0.0409
3022.00,0.0409
3021.00,0.0410
3020.00,0.0410
3019.00,0.0410
3018.00,0.0411
3017.00,0.0411
3016.00,0.0411
3015.00,0.0411
3014.00,0.0412
3013.00,0.0412
3012.00,0.0412
3011.00,0.0412
3010.00,0.0413
3009.00,0.0413
3008.00,0.0413
3007.00,0.0414
3006.00,0.0414
3005.00,0.0415
3004.00,0.0416
3003.00,0.0417
3002.00,0.0419
3001.00,0.0421
3000.00,0.0423
2999.00,0.0426
2998.00,0.0430
2997.00,0.0434
2996.00,0.0439
2995.00,0.0444
2994.00,0.0449
2993.00,0.0455
2992.00,0.0461
2991.00,0.0468
2990.00,0.0476
2989.00,0.0485
2988.00,0.0495
2987.00,0.0506
2986.00,0.0517
2985.00,0.0528
2984.00,0.0539
2983.00,0.0548
2982.00,0.0557
2981.00,0.0565
2980.00,0.0574
2979.00,0.0583
2978.00,0.0591
2977.00,0.0598
2976.00,0.0603
2975.00,0.0607
2974.00,0.0608
2973.00,0.0608
2972.00,0.0609
2971.00,0.0611
2970.00,0.0616
2969.00,0.0624
2968.00,0.0635
2967.00,0.0648
2966.00,0.0662
2965.00,0.0675
2964.00,0.0689
2963.00,0.0700
2962.00,0.0710
2961.00,0.0717
2960.00,0.0722
2959.00,0.0723
2958.00,0.0722
2957.00,0.0720
2956.00,0.0715
2955.00,0.0710
2954.00,0.0706
2953.00,0.0702
2952.00,0.0699
2951.00,0.0698
2950.00,0.0699
2949.00,0.0703
2948.00,0.0709
2947.00,0.0717
2946.00,0.0728
2945.00,0.0742
2944.00,0.0759
2943.00,0.0777
2942.00,0.0796
2941.00,0.0813
2940.00,0.0825
2939.00,0.0833
2938.00,0.0835
2937.00,0.0836
2936.00,0.0836
2935.00,0.0838
2934.00,0.0841
2933.00,0.0846
2932.00,0.0852
2931.00,0.0858
2930.00,0.0863
2929.00,0.0868
2928.00,0.0872
2927.00,0.0873
2926.00,0.0874
2925.00,0.0872
2924.00,0.0869
2923.00,0.0863
2922.00,0.0856
2921.00,0.0848
2920.00,0.0839
2919.00,0.0830
2918.00,0.0821
2917.00,0.0812
2916.00,0.0804
2915.00,0.0795
2914.00,0.0786
2913.00,0.0777
2912.00,0.0769
2911.00,0.0761
2910.00,0.0753
2909.00,0.0747
2908.00,0.0742
2907.00,0.0738
2906.00,0.0735
2905.00,0.0733
2904.00,0.0733
2903.00,0.0734
2902.00,0.0735
2901.00,0.0736
2900.00,0.0737
2899.00,0.0737
2898.00,0.0736
2897.00,0.0735
2896.00,0.0733
2895.00,0.0731
2894.00,0.0729
2893.00,0.0729
2892.00,0.0729
2891.00,0.0731
2890.00,0.0732
2889.00,0.0733
2888.00,0.0732
2887.00,0.0730
2886.00,0.0725
2885.00,0.0719
2884.00,0.0712
2883.00,0.0706
2882.00,0.0700
2881.00,0.0697
2880.00,0.0696
2879.00,0.0697
2878.00,0.0700
2877.00,0.0704
2876.00,0.0709
2875.00,0.0714
2874.00,0.0719
2873.00,0.0723
2872.00,0.0726
2871.00,0.0727
2870.00,0.0727
2869.00,0.0725
2868.00,0.0722
2867.00,0.0719
2866.00,0.0716
2865.00,0.0713
2864.00,0.0710
2863.00,0.0706
2862.00,0.0702
2861.00,0.0698
2860.00,0.0694
2859.00,0.0690
2858.00,0.0686
2857.00,0.0682
2856.00,0.0678
2855.00,0.0675
2854.00,0.0671
2853.00,0.0668
2852.00,0.0665
2851.00,0.0661
2850.00,0.0658
2849.00,0.0653
2848.00,0.0648
2847.00,0.0641
2846.00,0.0633
2845.00,0.0625
2844.00,0.0618
2843.00,0.0611
2842.00,0.0607
2841.00,0.0604
2840.00,0.0604
2839.00,0.0607
2838.00,0.0612
2837.00,0.0618
2836.00,0.0625
2835.00,0.0630
2834.00,0.0635
2833.00,0.0636
2832.00,0.0635
2831.00,0.0631
2830.00,0.0625
2829.00,0.0617
2828.00,0.0607
2827.00,0.0596
2826.00,0.0585
2825.00,0.0574
2824.00,0.0564
2823.00,0.0554
2822.00,0.0546
2821.00,0.0539
2820.00,0.0532
2819.00,0.0526
2818.00,0.0521
2817.00,0.0516
2816.00,0.0511
2815.00,0.0507
2814.00,0.0503
2813.00,0.0499
2812.00,0.0495
2811.00,0.0492
2810.00,0.0488
2809.00,0.0486
2808.00,0.0483
2807.00,0.0480
2806.00,0.0477
2805.00,0.0475
2804.00,0.0472
2803.00,0.0470
2802.00,0.0467
2801.00,0.0465
2800.00,0.0462
2799.00,0.0460
2798.00,0.0457
2797.00,0.0455
2796.00,0.0453
2795.00,0.0450
2794.00,0.0448
2793.00,0.0446
2792.00,0.0443
2791.00,0.0440
2790.00,0.0438
2789.00,0.0435
2788.00,0.0433
2787.00,0.0430
2786.00,0.0428
2785.00,0.0425
2784.00,0.0423
2783.00,0.0420
2782.00,0.0418
2781.00,0.0415
2780.00,0.0413
2779.00,0.0410
2778.00,0.0408
2777.00,0.0406
2776.00,0.0404
2775.00,0.0402
2774.00,0.0400
2773.00,0.0398
2772.00,0.0396
2771.00,0.0395
2770.00,0.0393
2769.00,0.0392
2768.00,0.0390
2767.00,0.0389
2766.00,0.0388
2765.00,0.0386
2764.00,0.0385
2763.00,0.0384
2762.00,0.0384
2761.00,0.0383
2760.00,0.0382
2759.00,0.0382
2758.00,0.0381
2757.00,0.0380
