Created as New Dataset,Sample 197 By YargerLab Date Sunday, June 09 2024
cm-1,A
4000.00,0.0099
3999.00,0.0099
3998.00,0.0099
3997.00,0.0099
3996.00,0.0099
3995.00,0.0099
3994.00,0.0099
3993.00,0.0099
3992.00,0.0099
3991.00,0.0099
3990.00,0.0099
3989.00,0.0099
3988.00,0.0099
3987.00,0.0099
3986.00,0.0099
3985.00,0.0099
3984.00,0.0099
3983.00,0.0099
3982.00,0.0099
3981.00,0.0099
3980.00,0.0099
3979.00,0.0099
3978.00,0.0099
3977.00,0.0099
3976.00,0.0099
3975.00,0.0099
3974.00,0.0099
3973.00,0.0099
3972.00,0.0099
3971.00,0.0099
3970.00,0.0099
3969.00,0.0099
3968.00,0.0099
3967.00,0.0099
3966.00,0.0099
3965.00,0.0099
3964.00,0.0099
3963.00,0.0099
3962.00,0.0099
3961.00,0.0099
3960.00,0.0099
3959.00,0.0099
3958.00,0.0099
3957.00,0.0099
3956.00,0.0099
3955.00,0.0099
3954.00,0.0099
3953.00,0.0099
3952.00,0.0099
3951.00,0.0099
3950.00,0.0098
3949.00,0.0098
3948.00,0.0097
3947.00,0.0097
3946.00,0.0097
3945.00,0.0097
3944.00,0.0098
3943.00,0.0098
3942.00,0.0098
3941.00,0.0098
3940.00,0.0098
3939.00,0.0098
3938.00,0.0098
3937.00,0.0098
3936.00,0.0097
3935.00,0.0097
3934.00,0.0096
3933.00,0.0096
3932.00,0.0097
3931.00,0.0097
3930.00,0.0097
3929.00,0.0097
3928.00,0.0098
3927.00,0.0098
3926.00,0.0098
3925.00,0.0098
3924.00,0.0098
3923.00,0.0098
3922.00,0.0097
3921.00,0.0095
3920.00,0.0095
3919.00,0.0094
3918.00,0.0095
3917.00,0.0095
3916.00,0.0096
3915.00,0.0097
3914.00,0.0097
3913.00,0.0097
3912.00,0.0098
3911.00,0.0098
3910.00,0.0098
3909.00,0.0098
3908.00,0.0098
3907.00,0.0097
3906.00,0.0097
3905.00,0.0095
3904.00,0.0093
3903.00,0.0091
3902.00,0.0090
3901.00,0.0090
3900.00,0.0091
3899.00,0.0093
3898.00,0.0094
3897.00,0.0095
3896.00,0.0095
3895.00,0.0095
3894.00,0.0095
3893.00,0.0096
3892.00,0.0096
3891.00,0.0096
3890.00,0.0095
3889.00,0.0094
3888.00,0.0093
3887.00,0.0092
3886.00,0.0092
3885.00,0.0093
3884.00,0.0094
3883.00,0.0093
3882.00,0.0093
3881.00,0.0093
3880.00,0.0093
3879.00,0.0094
3878.00,0.0093
3877.00,0.0093
3876.00,0.0092
3875.00,0.0093
3874.00,0.0094
3873.00,0.0094
3872.00,0.0093
3871.00,0.0091
3870.00,0.0091
3869.00,0.0091
3868.00,0.0091
3867.00,0.0090
3866.00,0.0090
3865.00,0.0091
3864.00,0.0091
3863.00,0.0092
3862.00,0.0091
3861.00,0.0091
3860.00,0.0091
3859.00,0.0092
3858.00,0.0094
3857.00,0.0096
3856.00,0.0098
3855.00,0.0097
3854.00,0.0096
3853.00,0.0095
3852.00,0.0093
3851.00,0.0092
3850.00,0.0092
3849.00,0.0091
3848.00,0.0091
3847.00,0.0091
3846.00,0.0091
3845.00,0.0091
3844.00,0.0091
3843.00,0.0091
3842.00,0.0090
3841.00,0.0090
3840.00,0.0090
3839.00,0.0090
3838.00,0.0091
3837.00,0.0091
3836.00,0.0091
3835.00,0.0091
3834.00,0.0091
3833.00,0.0091
3832.00,0.0090
3831.00,0.0091
3830.00,0.0091
3829.00,0.0091
3828.00,0.0091
3827.00,0.0091
3826.00,0.0091
3825.00,0.0091
3824.00,0.0090
3823.00,0.0088
3822.00,0.0088
3821.00,0.0089
3820.00,0.0090
3819.00,0.0089
3818.00,0.0089
3817.00,0.0089
3816.00,0.0090
3815.00,0.0092
3814.00,0.0093
3813.00,0.0093
3812.00,0.0093
3811.00,0.0093
3810.00,0.0093
3809.00,0.0093
3808.00,0.0092
3807.00,0.0092
3806.00,0.0091
3805.00,0.0090
3804.00,0.0089
3803.00,0.0089
3802.00,0.0089
3801.00,0.0091
3800.00,0.0091
3799.00,0.0090
3798.00,0.0090
3797.00,0.0090
3796.00,0.0091
3795.00,0.0092
3794.00,0.0092
3793.00,0.0093
3792.00,0.0094
3791.00,0.0094
3790.00,0.0095
3789.00,0.0095
3788.00,0.0095
3787.00,0.0094
3786.00,0.0094
3785.00,0.0094
3784.00,0.0094
3783.00,0.0093
3782.00,0.0092
3781.00,0.0092
3780.00,0.0092
3779.00,0.0092
3778.00,0.0093
3777.00,0.0093
3776.00,0.0093
3775.00,0.0093
3774.00,0.0093
3773.00,0.0093
3772.00,0.0092
3771.00,0.0091
3770.00,0.0091
3769.00,0.0091
3768.00,0.0090
3767.00,0.0090
3766.00,0.0089
3765.00,0.0090
3764.00,0.0090
3763.00,0.0090
3762.00,0.0089
3761.00,0.0088
3760.00,0.0088
3759.00,0.0089
3758.00,0.0088
3757.00,0.0088
3756.00,0.0087
3755.00,0.0086
3754.00,0.0085
3753.00,0.0084
3752.00,0.0083
3751.00,0.0082
3750.00,0.0081
3749.00,0.0081
3748.00,0.0081
3747.00,0.0081
3746.00,0.0081
3745.00,0.0081
3744.00,0.0082
3743.00,0.0083
3742.00,0.0083
3741.00,0.0082
3740.00,0.0080
3739.00,0.0079
3738.00,0.0078
3737.00,0.0078
3736.00,0.0079
3735.00,0.0080
3734.00,0.0081
3733.00,0.0081
3732.00,0.0082
3731.00,0.0084
3730.00,0.0085
3729.00,0.0086
3728.00,0.0086
3727.00,0.0086
3726.00,0.0086
3725.00,0.0087
3724.00,0.0087
3723.00,0.0087
3722.00,0.0087
3721.00,0.0088
3720.00,0.0088
3719.00,0.0088
3718.00,0.0089
3717.00,0.0089
3716.00,0.0088
3715.00,0.0088
3714.00,0.0087
3713.00,0.0086
3712.00,0.0086
3711.00,0.0086
3710.00,0.0086
3709.00,0.0086
3708.00,0.0086
3707.00,0.0087
3706.00,0.0088
3705.00,0.0088
3704.00,0.0089
3703.00,0.0090
3702.00,0.0090
3701.00,0.0090
3700.00,0.0090
3699.00,0.0090
3698.00,0.0090
3697.00,0.0090
3696.00,0.0090
3695.00,0.0090
3694.00,0.0089
3693.00,0.0089
3692.00,0.0089
3691.00,0.0089
3690.00,0.0088
3689.00,0.0087
3688.00,0.0086
3687.00,0.0086
3686.00,0.0087
3685.00,0.0087
3684.00,0.0087
3683.00,0.0087
3682.00,0.0087
3681.00,0.0087
3680.00,0.0087
3679.00,0.0087
3678.00,0.0086
3677.00,0.0084
3676.00,0.0083
3675.00,0.0084
3674.00,0.0084
3673.00,0.0083
3672.00,0.0083
3671.00,0.0083
3670.00,0.0085
3669.00,0.0087
3668.00,0.0087
3667.00,0.0088
3666.00,0.0088
3665.00,0.0089
3664.00,0.0090
3663.00,0.0090
3662.00,0.0091
3661.00,0.0091
3660.00,0.0091
3659.00,0.0091
3658.00,0.0090
3657.00,0.0089
3656.00,0.0089
3655.00,0.0088
3654.00,0.0087
3653.00,0.0086
3652.00,0.0084
3651.00,0.0083
3650.00,0.0082
3649.00,0.0082
3648.00,0.0082
3647.00,0.0083
3646.00,0.0084
3645.00,0.0086
3644.00,0.0088
3643.00,0.0089
3642.00,0.0091
3641.00,0.0092
3640.00,0.0092
3639.00,0.0092
3638.00,0.0092
3637.00,0.0092
3636.00,0.0092
3635.00,0.0091
3634.00,0.0091
3633.00,0.0091
3632.00,0.0090
3631.00,0.0089
3630.00,0.0088
3629.00,0.0088
3628.00,0.0088
3627.00,0.0088
3626.00,0.0088
3625.00,0.0088
3624.00,0.0089
3623.00,0.0090
3622.00,0.0090
3621.00,0.0091
3620.00,0.0092
3619.00,0.0092
3618.00,0.0091
3617.00,0.0090
3616.00,0.0089
3615.00,0.0089
3614.00,0.0089
3613.00,0.0089
3612.00,0.0089
3611.00,0.0089
3610.00,0.0089
3609.00,0.0089
3608.00,0.0091
3607.00,0.0092
3606.00,0.0094
3605.00,0.0094
3604.00,0.0095
3603.00,0.0095
3602.00,0.0096
3601.00,0.0096
3600.00,0.0096
3599.00,0.0096
3598.00,0.0096
3597.00,0.0096
3596.00,0.0096
3595.00,0.0096
3594.00,0.0097
3593.00,0.0097
3592.00,0.0096
3591.00,0.0096
3590.00,0.0095
3589.00,0.0095
3588.00,0.0096
3587.00,0.0097
3586.00,0.0098
3585.00,0.0098
3584.00,0.0099
3583.00,0.0099
3582.00,0.0100
3581.00,0.0101
3580.00,0.0102
3579.00,0.0103
3578.00,0.0103
3577.00,0.0103
3576.00,0.0103
3575.00,0.0104
3574.00,0.0104
3573.00,0.0104
3572.00,0.0103
3571.00,0.0102
3570.00,0.0101
3569.00,0.0100
3568.00,0.0100
3567.00,0.0101
3566.00,0.0102
3565.00,0.0103
3564.00,0.0103
3563.00,0.0104
3562.00,0.0104
3561.00,0.0105
3560.00,0.0106
3559.00,0.0107
3558.00,0.0107
3557.00,0.0108
3556.00,0.0108
3555.00,0.0108
3554.00,0.0108
3553.00,0.0109
3552.00,0.0109
3551.00,0.0108
3550.00,0.0108
3549.00,0.0108
3548.00,0.0107
3547.00,0.0108
3546.00,0.0108
3545.00,0.0109
3544.00,0.0110
3543.00,0.0111
3542.00,0.0111
3541.00,0.0112
3540.00,0.0112
3539.00,0.0113
3538.00,0.0113
3537.00,0.0114
3536.00,0.0114
3535.00,0.0114
3534.00,0.0114
3533.00,0.0114
3532.00,0.0114
3531.00,0.0114
3530.00,0.0115
3529.00,0.0115
3528.00,0.0115
3527.00,0.0115
3526.00,0.0115
3525.00,0.0115
3524.00,0.0116
3523.00,0.0116
3522.00,0.0117
3521.00,0.0118
3520.00,0.0118
3519.00,0.0118
3518.00,0.0119
3517.00,0.0119
3516.00,0.0119
3515.00,0.0120
3514.00,0.0120
3513.00,0.0120
3512.00,0.0120
3511.00,0.0121
3510.00,0.0121
3509.00,0.0121
3508.00,0.0121
3507.00,0.0121
3506.00,0.0121
3505.00,0.0122
3504.00,0.0122
3503.00,0.0123
3502.00,0.0123
3501.00,0.0123
3500.00,0.0124
3499.00,0.0124
3498.00,0.0125
3497.00,0.0125
3496.00,0.0126
3495.00,0.0126
3494.00,0.0126
3493.00,0.0127
3492.00,0.0127
3491.00,0.0127
3490.00,0.0128
3489.00,0.0128
3488.00,0.0128
3487.00,0.0129
3486.00,0.0129
3485.00,0.0129
3484.00,0.0130
3483.00,0.0130
3482.00,0.0131
3481.00,0.0131
3480.00,0.0132
3479.00,0.0132
3478.00,0.0132
3477.00,0.0133
3476.00,0.0133
3475.00,0.0134
3474.00,0.0134
3473.00,0.0134
3472.00,0.0135
3471.00,0.0135
3470.00,0.0136
3469.00,0.0136
3468.00,0.0136
3467.00,0.0137
3466.00,0.0137
3465.00,0.0137
3464.00,0.0138
3463.00,0.0138
3462.00,0.0139
3461.00,0.0139
3460.00,0.0139
3459.00,0.0139
3458.00,0.0140
3457.00,0.0140
3456.00,0.0141
3455.00,0.0141
3454.00,0.0141
3453.00,0.0142
3452.00,0.0142
3451.00,0.0142
3450.00,0.0142
3449.00,0.0142
3448.00,0.0143
3447.00,0.0143
3446.00,0.0143
3445.00,0.0144
3444.00,0.0144
3443.00,0.0144
3442.00,0.0145
3441.00,0.0145
3440.00,0.0145
3439.00,0.0146
3438.00,0.0146
3437.00,0.0147
3436.00,0.0147
3435.00,0.0147
3434.00,0.0148
3433.00,0.0148
3432.00,0.0149
3431.00,0.0149
3430.00,0.0149
3429.00,0.0150
3428.00,0.0150
3427.00,0.0150
3426.00,0.0151
3425.00,0.0151
3424.00,0.0152
3423.00,0.0152
3422.00,0.0153
3421.00,0.0153
3420.00,0.0154
3419.00,0.0154
3418.00,0.0154
3417.00,0.0155
3416.00,0.0155
3415.00,0.0155
3414.00,0.0156
3413.00,0.0156
3412.00,0.0157
3411.00,0.0157
3410.00,0.0157
3409.00,0.0158
3408.00,0.0158
3407.00,0.0158
3406.00,0.0158
3405.00,0.0159
3404.00,0.0159
3403.00,0.0160
3402.00,0.0160
3401.00,0.0161
3400.00,0.0161
3399.00,0.0161
3398.00,0.0161
3397.00,0.0161
3396.00,0.0162
3395.00,0.0162
3394.00,0.0162
3393.00,0.0163
3392.00,0.0164
3391.00,0.0164
3390.00,0.0164
3389.00,0.0165
3388.00,0.0165
3387.00,0.0166
3386.00,0.0166
3385.00,0.0167
3384.00,0.0167
3383.00,0.0167
3382.00,0.0168
3381.00,0.0168
3380.00,0.0169
3379.00,0.0169
3378.00,0.0170
3377.00,0.0170
3376.00,0.0171
3375.00,0.0171
3374.00,0.0172
3373.00,0.0172
3372.00,0.0173
3371.00,0.0173
3370.00,0.0174
3369.00,0.0174
3368.00,0.0175
3367.00,0.0176
3366.00,0.0177
3365.00,0.0177
3364.00,0.0178
3363.00,0.0179
3362.00,0.0179
3361.00,0.0180
3360.00,0.0181
3359.00,0.0182
3358.00,0.0183
3357.00,0.0184
3356.00,0.0185
3355.00,0.0185
3354.00,0.0186
3353.00,0.0186
3352.00,0.0187
3351.00,0.0188
3350.00,0.0189
3349.00,0.0190
3348.00,0.0191
3347.00,0.0192
3346.00,0.0192
3345.00,0.0193
3344.00,0.0194
3343.00,0.0195
3342.00,0.0196
3341.00,0.0197
3340.00,0.0198
3339.00,0.0198
3338.00,0.0200
3337.00,0.0201
3336.00,0.0202
3335.00,0.0204
3334.00,0.0205
3333.00,0.0206
3332.00,0.0207
3331.00,0.0208
3330.00,0.0209
3329.00,0.0210
3328.00,0.0211
3327.00,0.0212
3326.00,0.0213
3325.00,0.0214
3324.00,0.0216
3323.00,0.0217
3322.00,0.0219
3321.00,0.0220
3320.00,0.0222
3319.00,0.0223
3318.00,0.0224
3317.00,0.0226
3316.00,0.0227
3315.00,0.0229
3314.00,0.0230
3313.00,0.0231
3312.00,0.0233
3311.00,0.0234
3310.00,0.0235
3309.00,0.0236
3308.00,0.0238
3307.00,0.0239
3306.00,0.0241
3305.00,0.0243
3304.00,0.0245
3303.00,0.0247
3302.00,0.0249
3301.00,0.0251
3300.00,0.0252
3299.00,0.0254
3298.00,0.0255
3297.00,0.0256
3296.00,0.0258
3295.00,0.0259
3294.00,0.0260
3293.00,0.0262
3292.00,0.0264
3291.00,0.0266
3290.00,0.0268
3289.00,0.0270
3288.00,0.0271
3287.00,0.0273
3286.00,0.0274
3285.00,0.0276
3284.00,0.0277
3283.00,0.0278
3282.00,0.0279
3281.00,0.0280
3280.00,0.0281
3279.00,0.0281
3278.00,0.0281
3277.00,0.0282
3276.00,0.0282
3275.00,0.0282
3274.00,0.0282
3273.00,0.0282
3272.00,0.0282
3271.00,0.0282
3270.00,0.0282
3269.00,0.0282
3268.00,0.0282
3267.00,0.0282
3266.00,0.0282
3265.00,0.0281
3264.00,0.0280
3263.00,0.0279
3262.00,0.0278
3261.00,0.0277
3260.00,0.0276
3259.00,0.0275
3258.00,0.0273
3257.00,0.0272
3256.00,0.0271
3255.00,0.0270
3254.00,0.0269
3253.00,0.0268
3252.00,0.0267
3251.00,0.0265
3250.00,0.0263
3249.00,0.0262
3248.00,0.0260
3247.00,0.0259
3246.00,0.0258
3245.00,0.0257
3244.00,0.0257
3243.00,0.0256
3242.00,0.0255
3241.00,0.0254
3240.00,0.0253
3239.00,0.0251
3238.00,0.0250
3237.00,0.0249
3236.00,0.0247
3235.00,0.0246
3234.00,0.0245
3233.00,0.0244
3232.00,0.0243
3231.00,0.0243
3230.00,0.0242
3229.00,0.0242
3228.00,0.0241
3227.00,0.0240
3226.00,0.0239
3225.00,0.0238
3224.00,0.0238
3223.00,0.0237
3222.00,0.0236
3221.00,0.0235
3220.00,0.0234
3219.00,0.0234
3218.00,0.0233
3217.00,0.0232
3216.00,0.0231
3215.00,0.0231
3214.00,0.0230
3213.00,0.0230
3212.00,0.0229
3211.00,0.0228
3210.00,0.0228
3209.00,0.0227
3208.00,0.0226
3207.00,0.0226
3206.00,0.0225
3205.00,0.0224
3204.00,0.0224
3203.00,0.0223
3202.00,0.0223
3201.00,0.0222
3200.00,0.0221
3199.00,0.0221
3198.00,0.0220
3197.00,0.0219
3196.00,0.0219
3195.00,0.0218
3194.00,0.0218
3193.00,0.0217
3192.00,0.0216
3191.00,0.0216
3190.00,0.0215
3189.00,0.0214
3188.00,0.0214
3187.00,0.0213
3186.00,0.0212
3185.00,0.0211
3184.00,0.0211
3183.00,0.0210
3182.00,0.0209
3181.00,0.0209
3180.00,0.0208
3179.00,0.0207
3178.00,0.0206
3177.00,0.0205
3176.00,0.0205
3175.00,0.0204
3174.00,0.0203
3173.00,0.0203
3172.00,0.0202
3171.00,0.0201
3170.00,0.0200
3169.00,0.0200
3168.00,0.0199
3167.00,0.0198
3166.00,0.0198
3165.00,0.0197
3164.00,0.0197
3163.00,0.0196
3162.00,0.0195
3161.00,0.0194
3160.00,0.0194
3159.00,0.0193
3158.00,0.0192
3157.00,0.0191
3156.00,0.0190
3155.00,0.0189
3154.00,0.0189
3153.00,0.0188
3152.00,0.0188
3151.00,0.0187
3150.00,0.0187
3149.00,0.0186
3148.00,0.0186
3147.00,0.0185
3146.00,0.0185
3145.00,0.0184
3144.00,0.0184
3143.00,0.0183
3142.00,0.0182
3141.00,0.0181
3140.00,0.0181
3139.00,0.0180
3138.00,0.0180
3137.00,0.0180
3136.00,0.0180
3135.00,0.0179
3134.00,0.0179
3133.00,0.0178
3132.00,0.0178
3131.00,0.0177
3130.00,0.0177
3129.00,0.0176
3128.00,0.0176
3127.00,0.0176
3126.00,0.0176
3125.00,0.0175
3124.00,0.0175
3123.00,0.0174
3122.00,0.0174
3121.00,0.0173
3120.00,0.0173
3119.00,0.0173
3118.00,0.0173
3117.00,0.0173
3116.00,0.0173
3115.00,0.0173
3114.00,0.0173
3113.00,0.0173
3112.00,0.0173
3111.00,0.0172
3110.00,0.0172
3109.00,0.0172
3108.00,0.0172
3107.00,0.0173
3106.00,0.0173
3105.00,0.0173
3104.00,0.0173
3103.00,0.0173
3102.00,0.0173
3101.00,0.0173
3100.00,0.0173
3099.00,0.0173
3098.00,0.0173
3097.00,0.0173
3096.00,0.0174
3095.00,0.0174
3094.00,0.0174
3093.00,0.0174
3092.00,0.0174
3091.00,0.0174
3090.00,0.0174
3089.00,0.0174
3088.00,0.0174
3087.00,0.0174
3086.00,0.0174
3085.00,0.0174
3084.00,0.0175
3083.00,0.0175
3082.00,0.0175
3081.00,0.0175
3080.00,0.0175
3079.00,0.0175
3078.00,0.0175
3077.00,0.0176
3076.00,0.0176
3075.00,0.0177
3074.00,0.0177
3073.00,0.0177
3072.00,0.0177
3071.00,0.0177
3070.00,0.0177
3069.00,0.0176
3068.00,0.0176
3067.00,0.0176
3066.00,0.0176
3065.00,0.0176
3064.00,0.0177
3063.00,0.0177
3062.00,0.0177
3061.00,0.0177
3060.00,0.0177
3059.00,0.0176
3058.00,0.0176
3057.00,0.0175
3056.00,0.0175
3055.00,0.0174
3054.00,0.0174
3053.00,0.0174
3052.00,0.0173
3051.00,0.0173
3050.00,0.0173
3049.00,0.0172
3048.00,0.0172
3047.00,0.0171
3046.00,0.0170
3045.00,0.0170
3044.00,0.0169
3043.00,0.0169
3042.00,0.0169
3041.00,0.0169
3040.00,0.0169
3039.00,0.0169
3038.00,0.0168
3037.00,0.0168
3036.00,0.0167
3035.00,0.0166
3034.00,0.0166
3033.00,0.0166
3032.00,0.0166
3031.00,0.0165
3030.00,0.0165
3029.00,0.0165
3028.00,0.0165
3027.00,0.0164
3026.00,0.0164
3025.00,0.0163
3024.00,0.0163
3023.00,0.0162
3022.00,0.0162
3021.00,0.0161
3020.00,0.0160
3019.00,0.0160
3018.00,0.0159
3017.00,0.0159
3016.00,0.0158
3015.00,0.0157
3014.00,0.0157
3013.00,0.0157
3012.00,0.0157
3011.00,0.0157
3010.00,0.0157
3009.00,0.0157
3008.00,0.0157
3007.00,0.0157
3006.00,0.0157
3005.00,0.0157
3004.00,0.0157
3003.00,0.0157
3002.00,0.0157
3001.00,0.0156
3000.00,0.0156
2999.00,0.0156
2998.00,0.0156
2997.00,0.0157
2996.00,0.0157
2995.00,0.0157
2994.00,0.0157
2993.00,0.0157
2992.00,0.0158
2991.00,0.0159
2990.00,0.0160
2989.00,0.0160
2988.00,0.0161
2987.00,0.0162
2986.00,0.0163
2985.00,0.0163
2984.00,0.0164
2983.00,0.0165
2982.00,0.0165
2981.00,0.0166
2980.00,0.0167
2979.00,0.0167
2978.00,0.0168
2977.00,0.0169
2976.00,0.0170
2975.00,0.0171
2974.00,0.0172
2973.00,0.0173
2972.00,0.0174
2971.00,0.0175
2970.00,0.0176
2969.00,0.0177
2968.00,0.0178
2967.00,0.0179
2966.00,0.0180
2965.00,0.0180
2964.00,0.0181
2963.00,0.0181
2962.00,0.0182
2961.00,0.0182
2960.00,0.0183
2959.00,0.0183
2958.00,0.0183
2957.00,0.0183
2956.00,0.0183
2955.00,0.0183
2954.00,0.0183
2953.00,0.0183
2952.00,0.0182
2951.00,0.0182
2950.00,0.0182
2949.00,0.0182
2948.00,0.0182
2947.00,0.0182
2946.00,0.0183
2945.00,0.0183
2944.00,0.0184
2943.00,0.0185
2942.00,0.0187
2941.00,0.0188
2940.00,0.0190
2939.00,0.0191
2938.00,0.0193
2937.00,0.0195
2936.00,0.0196
2935.00,0.0198
2934.00,0.0200
2933.00,0.0201
2932.00,0.0202
2931.00,0.0203
2930.00,0.0204
2929.00,0.0205
2928.00,0.0206
2927.00,0.0206
2926.00,0.0206
2925.00,0.0206
2924.00,0.0205
2923.00,0.0203
2922.00,0.0201
2921.00,0.0198
2920.00,0.0195
2919.00,0.0192
2918.00,0.0188
2917.00,0.0185
2916.00,0.0182
2915.00,0.0181
2914.00,0.0180
2913.00,0.0180
2912.00,0.0180
2911.00,0.0180
2910.00,0.0180
2909.00,0.0180
2908.00,0.0180
2907.00,0.0179
2906.00,0.0178
2905.00,0.0178
2904.00,0.0177
2903.00,0.0176
2902.00,0.0176
2901.00,0.0175
2900.00,0.0175
2899.00,0.0174
2898.00,0.0173
2897.00,0.0173
2896.00,0.0172
2895.00,0.0172
2894.00,0.0172
2893.00,0.0171
2892.00,0.0171
2891.00,0.0170
2890.00,0.0170
2889.00,0.0170
2888.00,0.0170
2887.00,0.0170
2886.00,0.0170
2885.00,0.0170
2884.00,0.0170
2883.00,0.0170
2882.00,0.0170
2881.00,0.0171
2880.00,0.0171
2879.00,0.0171
2878.00,0.0172
2877.00,0.0172
2876.00,0.0172
2875.00,0.0173
2874.00,0.0173
2873.00,0.0173
2872.00,0.0173
2871.00,0.0172
2870.00,0.0172
2869.00,0.0172
2868.00,0.0171
2867.00,0.0171
2866.00,0.0170
2865.00,0.0170
2864.00,0.0170
2863.00,0.0170
2862.00,0.0170
2861.00,0.0170
2860.00,0.0171
2859.00,0.0171
2858.00,0.0172
2857.00,0.0173
2856.00,0.0174
2855.00,0.0174
2854.00,0.0173
2853.00,0.0172
2852.00,0.0169
2851.00,0.0166
2850.00,0.0163
2849.00,0.0160
2848.00,0.0158
2847.00,0.0158
2846.00,0.0158
2845.00,0.0158
2844.00,0.0158
2843.00,0.0158
2842.00,0.0157
2841.00,0.0156
2840.00,0.0156
2839.00,0.0155
2838.00,0.0154
2837.00,0.0154
2836.00,0.0153
2835.00,0.0153
2834.00,0.0152
2833.00,0.0152
2832.00,0.0152
2831.00,0.0151
2830.00,0.0151
2829.00,0.0151
2828.00,0.0151
2827.00,0.0150
2826.00,0.0150
2825.00,0.0150
2824.00,0.0149
2823.00,0.0149
2822.00,0.0149
2821.00,0.0148
2820.00,0.0148
2819.00,0.0148
2818.00,0.0148
2817.00,0.0148
2816.00,0.0147
2815.00,0.0147
2814.00,0.0147
2813.00,0.0147
2812.00,0.0146
2811.00,0.0146
2810.00,0.0146
2809.00,0.0146
2808.00,0.0146
2807.00,0.0145
2806.00,0.0145
2805.00,0.0145
2804.00,0.0145
2803.00,0.0145
2802.00,0.0145
2801.00,0.0145
2800.00,0.0144
2799.00,0.0144
2798.00,0.0144
2797.00,0.0144
2796.00,0.0144
2795.00,0.0144
2794.00,0.0143
2793.00,0.0143
2792.00,0.0143
2791.00,0.0143
2790.00,0.0143
2789.00,0.0143
2788.00,0.0142
2787.00,0.0142
2786.00,0.0142
2785.00,0.0142
2784.00,0.0142
2783.00,0.0142
2782.00,0.0142
2781.00,0.0142
2780.00,0.0141
2779.00,0.0141
2778.00,0.0141
2777.00,0.0141
2776.00,0.0141
2775.00,0.0141
2774.00,0.0140
2773.00,0.0140
2772.00,0.0140
2771.00,0.0140
2770.00,0.0140
2769.00,0.0140
2768.00,0.0140
2767.00,0.0140
2766.00,0.0139
2765.00,0.0139
2764.00,0.0139
2763.00,0.0139
2762.00,0.0139
2761.00,0.0139
2760.00,0.0139
2759.00,0.0139
2758.00,0.0138
2757.00,0.0138
