Created as New Dataset,Sample 285 By YargerLab Date Saturday, July 27 2024
cm-1,A
4000.00,-0.0001
3999.00,-0.0001
3998.00,-0.0001
3997.00,-0.0001
3996.00,-0.0001
3995.00,-0.0001
3994.00,-0.0001
3993.00,-0.0001
3992.00,-0.0001
3991.00,-0.0001
3990.00,-0.0001
3989.00,-0.0001
3988.00,-0.0001
3987.00,-0.0001
3986.00,-0.0001
3985.00,-0.0001
3984.00,-0.0001
3983.00,-0.0001
3982.00,-0.0001
3981.00,-0.0001
3980.00,-0.0001
3979.00,-0.0001
3978.00,-0.0001
3977.00,-0.0001
3976.00,-0.0001
3975.00,-0.0001
3974.00,-0.0001
3973.00,-0.0001
3972.00,-0.0001
3971.00,-0.0001
3970.00,-0.0001
3969.00,-0.0001
3968.00,-0.0001
3967.00,-0.0001
3966.00,-0.0001
3965.00,-0.0001
3964.00,-0.0001
3963.00,-0.0001
3962.00,-0.0001
3961.00,-0.0001
3960.00,-0.0002
3959.00,-0.0002
3958.00,-0.0002
3957.00,-0.0002
3956.00,-0.0002
3955.00,-0.0002
3954.00,-0.0001
3953.00,-0.0002
3952.00,-0.0002
3951.00,-0.0002
3950.00,-0.0001
3949.00,-0.0001
3948.00,-0.0001
3947.00,-0.0001
3946.00,-0.0001
3945.00,-0.0001
3944.00,-0.0001
3943.00,-0.0001
3942.00,-0.0001
3941.00,-0.0001
3940.00,-0.0001
3939.00,-0.0001
3938.00,-0.0001
3937.00,-0.0001
3936.00,-0.0001
3935.00,-0.0001
3934.00,-0.0001
3933.00,-0.0001
3932.00,-0.0001
3931.00,-0.0001
3930.00,-0.0001
3929.00,-0.0001
3928.00,-0.0001
3927.00,-0.0001
3926.00,-0.0002
3925.00,-0.0002
3924.00,-0.0002
3923.00,-0.0001
3922.00,-0.0001
3921.00,-0.0001
3920.00,-0.0001
3919.00,-0.0001
3918.00,-0.0001
3917.00,-0.0001
3916.00,-0.0001
3915.00,-0.0001
3914.00,-0.0002
3913.00,-0.0002
3912.00,-0.0002
3911.00,-0.0002
3910.00,-0.0002
3909.00,-0.0001
3908.00,-0.0001
3907.00,-0.0001
3906.00,-0.0000
3905.00,-0.0000
3904.00,-0.0000
3903.00,-0.0000
3902.00,-0.0000
3901.00,-0.0000
3900.00,-0.0000
3899.00,-0.0001
3898.00,-0.0001
3897.00,-0.0001
3896.00,-0.0001
3895.00,-0.0001
3894.00,-0.0001
3893.00,-0.0001
3892.00,-0.0001
3891.00,-0.0001
3890.00,-0.0001
3889.00,-0.0001
3888.00,-0.0001
3887.00,-0.0001
3886.00,-0.0001
3885.00,-0.0001
3884.00,-0.0001
3883.00,-0.0001
3882.00,-0.0001
3881.00,-0.0001
3880.00,-0.0001
3879.00,-0.0001
3878.00,-0.0001
3877.00,-0.0001
3876.00,-0.0001
3875.00,-0.0001
3874.00,-0.0001
3873.00,-0.0001
3872.00,-0.0001
3871.00,-0.0001
3870.00,-0.0001
3869.00,-0.0001
3868.00,-0.0000
3867.00,-0.0000
3866.00,-0.0001
3865.00,-0.0001
3864.00,-0.0001
3863.00,-0.0001
3862.00,-0.0001
3861.00,-0.0001
3860.00,-0.0001
3859.00,-0.0001
3858.00,-0.0001
3857.00,-0.0000
3856.00,0.0000
3855.00,0.0000
3854.00,-0.0000
3853.00,-0.0001
3852.00,-0.0000
3851.00,-0.0000
3850.00,-0.0001
3849.00,-0.0001
3848.00,-0.0002
3847.00,-0.0002
3846.00,-0.0002
3845.00,-0.0002
3844.00,-0.0001
3843.00,-0.0001
3842.00,-0.0001
3841.00,-0.0001
3840.00,-0.0001
3839.00,-0.0001
3838.00,-0.0001
3837.00,-0.0001
3836.00,-0.0001
3835.00,-0.0001
3834.00,-0.0001
3833.00,-0.0001
3832.00,-0.0002
3831.00,-0.0002
3830.00,-0.0002
3829.00,-0.0002
3828.00,-0.0002
3827.00,-0.0002
3826.00,-0.0002
3825.00,-0.0001
3824.00,-0.0001
3823.00,-0.0001
3822.00,-0.0001
3821.00,-0.0001
3820.00,-0.0001
3819.00,-0.0001
3818.00,-0.0001
3817.00,-0.0001
3816.00,-0.0002
3815.00,-0.0002
3814.00,-0.0001
3813.00,-0.0002
3812.00,-0.0002
3811.00,-0.0002
3810.00,-0.0002
3809.00,-0.0001
3808.00,-0.0001
3807.00,-0.0001
3806.00,-0.0001
3805.00,-0.0001
3804.00,-0.0001
3803.00,-0.0001
3802.00,-0.0001
3801.00,-0.0001
3800.00,-0.0001
3799.00,-0.0001
3798.00,-0.0001
3797.00,-0.0002
3796.00,-0.0002
3795.00,-0.0002
3794.00,-0.0002
3793.00,-0.0002
3792.00,-0.0002
3791.00,-0.0002
3790.00,-0.0002
3789.00,-0.0002
3788.00,-0.0002
3787.00,-0.0002
3786.00,-0.0002
3785.00,-0.0002
3784.00,-0.0002
3783.00,-0.0002
3782.00,-0.0002
3781.00,-0.0002
3780.00,-0.0002
3779.00,-0.0002
3778.00,-0.0002
3777.00,-0.0002
3776.00,-0.0002
3775.00,-0.0002
3774.00,-0.0002
3773.00,-0.0001
3772.00,-0.0001
3771.00,-0.0001
3770.00,-0.0001
3769.00,-0.0001
3768.00,-0.0001
3767.00,-0.0001
3766.00,-0.0001
3765.00,-0.0001
3764.00,-0.0001
3763.00,-0.0001
3762.00,-0.0001
3761.00,-0.0001
3760.00,-0.0001
3759.00,-0.0001
3758.00,-0.0001
3757.00,-0.0001
3756.00,-0.0001
3755.00,-0.0001
3754.00,-0.0000
3753.00,-0.0000
3752.00,-0.0000
3751.00,-0.0000
3750.00,-0.0000
3749.00,-0.0000
3748.00,-0.0000
3747.00,0.0000
3746.00,-0.0000
3745.00,-0.0000
3744.00,-0.0000
3743.00,0.0000
3742.00,0.0000
3741.00,-0.0000
3740.00,-0.0000
3739.00,-0.0000
3738.00,0.0000
3737.00,0.0000
3736.00,0.0000
3735.00,0.0000
3734.00,0.0000
3733.00,0.0000
3732.00,-0.0000
3731.00,-0.0000
3730.00,-0.0001
3729.00,-0.0001
3728.00,-0.0001
3727.00,-0.0001
3726.00,-0.0001
3725.00,-0.0001
3724.00,-0.0000
3723.00,-0.0000
3722.00,-0.0000
3721.00,-0.0000
3720.00,-0.0001
3719.00,-0.0001
3718.00,-0.0001
3717.00,-0.0001
3716.00,-0.0001
3715.00,-0.0000
3714.00,-0.0000
3713.00,-0.0000
3712.00,-0.0000
3711.00,-0.0000
3710.00,-0.0000
3709.00,-0.0000
3708.00,-0.0000
3707.00,-0.0001
3706.00,-0.0001
3705.00,-0.0001
3704.00,-0.0001
3703.00,-0.0001
3702.00,-0.0001
3701.00,-0.0001
3700.00,-0.0000
3699.00,-0.0000
3698.00,-0.0001
3697.00,-0.0001
3696.00,-0.0001
3695.00,-0.0001
3694.00,-0.0000
3693.00,-0.0000
3692.00,0.0000
3691.00,0.0000
3690.00,0.0000
3689.00,0.0000
3688.00,0.0000
3687.00,0.0000
3686.00,0.0000
3685.00,-0.0000
3684.00,-0.0000
3683.00,-0.0000
3682.00,0.0000
3681.00,0.0000
3680.00,0.0001
3679.00,0.0001
3678.00,0.0002
3677.00,0.0002
3676.00,0.0002
3675.00,0.0002
3674.00,0.0003
3673.00,0.0003
3672.00,0.0002
3671.00,0.0002
3670.00,0.0001
3669.00,0.0002
3668.00,0.0002
3667.00,0.0002
3666.00,0.0002
3665.00,0.0001
3664.00,0.0001
3663.00,0.0002
3662.00,0.0002
3661.00,0.0002
3660.00,0.0002
3659.00,0.0002
3658.00,0.0003
3657.00,0.0003
3656.00,0.0003
3655.00,0.0003
3654.00,0.0004
3653.00,0.0004
3652.00,0.0005
3651.00,0.0005
3650.00,0.0005
3649.00,0.0005
3648.00,0.0005
3647.00,0.0005
3646.00,0.0005
3645.00,0.0005
3644.00,0.0004
3643.00,0.0004
3642.00,0.0004
3641.00,0.0005
3640.00,0.0005
3639.00,0.0005
3638.00,0.0005
3637.00,0.0005
3636.00,0.0006
3635.00,0.0006
3634.00,0.0006
3633.00,0.0007
3632.00,0.0008
3631.00,0.0008
3630.00,0.0008
3629.00,0.0007
3628.00,0.0007
3627.00,0.0008
3626.00,0.0008
3625.00,0.0008
3624.00,0.0008
3623.00,0.0008
3622.00,0.0009
3621.00,0.0009
3620.00,0.0009
3619.00,0.0009
3618.00,0.0009
3617.00,0.0010
3616.00,0.0010
3615.00,0.0009
3614.00,0.0010
3613.00,0.0010
3612.00,0.0010
3611.00,0.0011
3610.00,0.0011
3609.00,0.0011
3608.00,0.0011
3607.00,0.0011
3606.00,0.0011
3605.00,0.0011
3604.00,0.0011
3603.00,0.0011
3602.00,0.0011
3601.00,0.0012
3600.00,0.0012
3599.00,0.0012
3598.00,0.0012
3597.00,0.0013
3596.00,0.0013
3595.00,0.0013
3594.00,0.0013
3593.00,0.0013
3592.00,0.0014
3591.00,0.0014
3590.00,0.0015
3589.00,0.0015
3588.00,0.0014
3587.00,0.0015
3586.00,0.0015
3585.00,0.0015
3584.00,0.0015
3583.00,0.0015
3582.00,0.0015
3581.00,0.0016
3580.00,0.0016
3579.00,0.0016
3578.00,0.0016
3577.00,0.0016
3576.00,0.0016
3575.00,0.0017
3574.00,0.0017
3573.00,0.0017
3572.00,0.0018
3571.00,0.0018
3570.00,0.0019
3569.00,0.0019
3568.00,0.0019
3567.00,0.0019
3566.00,0.0019
3565.00,0.0019
3564.00,0.0020
3563.00,0.0020
3562.00,0.0020
3561.00,0.0020
3560.00,0.0020
3559.00,0.0020
3558.00,0.0020
3557.00,0.0021
3556.00,0.0021
3555.00,0.0021
3554.00,0.0021
3553.00,0.0021
3552.00,0.0022
3551.00,0.0022
3550.00,0.0022
3549.00,0.0022
3548.00,0.0022
3547.00,0.0022
3546.00,0.0023
3545.00,0.0023
3544.00,0.0023
3543.00,0.0023
3542.00,0.0023
3541.00,0.0024
3540.00,0.0024
3539.00,0.0024
3538.00,0.0024
3537.00,0.0024
3536.00,0.0025
3535.00,0.0025
3534.00,0.0025
3533.00,0.0025
3532.00,0.0026
3531.00,0.0026
3530.00,0.0026
3529.00,0.0026
3528.00,0.0026
3527.00,0.0026
3526.00,0.0027
3525.00,0.0027
3524.00,0.0027
3523.00,0.0027
3522.00,0.0027
3521.00,0.0027
3520.00,0.0027
3519.00,0.0028
3518.00,0.0028
3517.00,0.0028
3516.00,0.0028
3515.00,0.0029
3514.00,0.0029
3513.00,0.0029
3512.00,0.0029
3511.00,0.0029
3510.00,0.0030
3509.00,0.0030
3508.00,0.0030
3507.00,0.0030
3506.00,0.0031
3505.00,0.0031
3504.00,0.0031
3503.00,0.0031
3502.00,0.0031
3501.00,0.0032
3500.00,0.0032
3499.00,0.0032
3498.00,0.0032
3497.00,0.0032
3496.00,0.0032
3495.00,0.0032
3494.00,0.0033
3493.00,0.0033
3492.00,0.0033
3491.00,0.0034
3490.00,0.0034
3489.00,0.0034
3488.00,0.0034
3487.00,0.0034
3486.00,0.0035
3485.00,0.0035
3484.00,0.0035
3483.00,0.0035
3482.00,0.0035
3481.00,0.0035
3480.00,0.0036
3479.00,0.0036
3478.00,0.0036
3477.00,0.0037
3476.00,0.0037
3475.00,0.0037
3474.00,0.0037
3473.00,0.0037
3472.00,0.0037
3471.00,0.0038
3470.00,0.0038
3469.00,0.0038
3468.00,0.0038
3467.00,0.0038
3466.00,0.0039
3465.00,0.0039
3464.00,0.0039
3463.00,0.0039
3462.00,0.0039
3461.00,0.0040
3460.00,0.0040
3459.00,0.0040
3458.00,0.0040
3457.00,0.0040
3456.00,0.0040
3455.00,0.0041
3454.00,0.0041
3453.00,0.0041
3452.00,0.0041
3451.00,0.0042
3450.00,0.0042
3449.00,0.0042
3448.00,0.0042
3447.00,0.0042
3446.00,0.0042
3445.00,0.0043
3444.00,0.0043
3443.00,0.0043
3442.00,0.0043
3441.00,0.0043
3440.00,0.0044
3439.00,0.0044
3438.00,0.0044
3437.00,0.0044
3436.00,0.0044
3435.00,0.0045
3434.00,0.0045
3433.00,0.0045
3432.00,0.0045
3431.00,0.0045
3430.00,0.0045
3429.00,0.0046
3428.00,0.0046
3427.00,0.0046
3426.00,0.0047
3425.00,0.0047
3424.00,0.0047
3423.00,0.0047
3422.00,0.0047
3421.00,0.0047
3420.00,0.0047
3419.00,0.0048
3418.00,0.0048
3417.00,0.0048
3416.00,0.0049
3415.00,0.0049
3414.00,0.0049
3413.00,0.0049
3412.00,0.0049
3411.00,0.0049
3410.00,0.0050
3409.00,0.0050
3408.00,0.0050
3407.00,0.0050
3406.00,0.0050
3405.00,0.0050
3404.00,0.0051
3403.00,0.0051
3402.00,0.0051
3401.00,0.0051
3400.00,0.0051
3399.00,0.0052
3398.00,0.0052
3397.00,0.0052
3396.00,0.0052
3395.00,0.0052
3394.00,0.0053
3393.00,0.0053
3392.00,0.0053
3391.00,0.0053
3390.00,0.0053
3389.00,0.0053
3388.00,0.0053
3387.00,0.0054
3386.00,0.0054
3385.00,0.0054
3384.00,0.0054
3383.00,0.0054
3382.00,0.0055
3381.00,0.0055
3380.00,0.0055
3379.00,0.0055
3378.00,0.0056
3377.00,0.0056
3376.00,0.0056
3375.00,0.0056
3374.00,0.0057
3373.00,0.0057
3372.00,0.0057
3371.00,0.0058
3370.00,0.0058
3369.00,0.0058
3368.00,0.0059
3367.00,0.0059
3366.00,0.0059
3365.00,0.0059
3364.00,0.0060
3363.00,0.0060
3362.00,0.0060
3361.00,0.0060
3360.00,0.0061
3359.00,0.0061
3358.00,0.0061
3357.00,0.0061
3356.00,0.0062
3355.00,0.0062
3354.00,0.0062
3353.00,0.0063
3352.00,0.0063
3351.00,0.0063
3350.00,0.0064
3349.00,0.0064
3348.00,0.0064
3347.00,0.0065
3346.00,0.0065
3345.00,0.0065
3344.00,0.0066
3343.00,0.0066
3342.00,0.0066
3341.00,0.0067
3340.00,0.0067
3339.00,0.0068
3338.00,0.0068
3337.00,0.0069
3336.00,0.0069
3335.00,0.0069
3334.00,0.0070
3333.00,0.0070
3332.00,0.0071
3331.00,0.0071
3330.00,0.0072
3329.00,0.0072
3328.00,0.0073
3327.00,0.0073
3326.00,0.0074
3325.00,0.0075
3324.00,0.0075
3323.00,0.0076
3322.00,0.0076
3321.00,0.0077
3320.00,0.0078
3319.00,0.0078
3318.00,0.0079
3317.00,0.0079
3316.00,0.0080
3315.00,0.0081
3314.00,0.0081
3313.00,0.0082
3312.00,0.0083
3311.00,0.0083
3310.00,0.0084
3309.00,0.0085
3308.00,0.0085
3307.00,0.0086
3306.00,0.0087
3305.00,0.0088
3304.00,0.0088
3303.00,0.0089
3302.00,0.0090
3301.00,0.0090
3300.00,0.0091
3299.00,0.0092
3298.00,0.0093
3297.00,0.0093
3296.00,0.0094
3295.00,0.0095
3294.00,0.0096
3293.00,0.0097
3292.00,0.0097
3291.00,0.0098
3290.00,0.0098
3289.00,0.0099
3288.00,0.0100
3287.00,0.0100
3286.00,0.0101
3285.00,0.0101
3284.00,0.0102
3283.00,0.0103
3282.00,0.0103
3281.00,0.0104
3280.00,0.0104
3279.00,0.0105
3278.00,0.0105
3277.00,0.0106
3276.00,0.0106
3275.00,0.0106
3274.00,0.0106
3273.00,0.0106
3272.00,0.0106
3271.00,0.0106
3270.00,0.0106
3269.00,0.0106
3268.00,0.0106
3267.00,0.0105
3266.00,0.0105
3265.00,0.0104
3264.00,0.0104
3263.00,0.0103
3262.00,0.0103
3261.00,0.0102
3260.00,0.0102
3259.00,0.0101
3258.00,0.0101
3257.00,0.0100
3256.00,0.0100
3255.00,0.0099
3254.00,0.0098
3253.00,0.0097
3252.00,0.0097
3251.00,0.0096
3250.00,0.0095
3249.00,0.0095
3248.00,0.0094
3247.00,0.0094
3246.00,0.0093
3245.00,0.0092
3244.00,0.0091
3243.00,0.0091
3242.00,0.0090
3241.00,0.0089
3240.00,0.0089
3239.00,0.0088
3238.00,0.0088
3237.00,0.0087
3236.00,0.0087
3235.00,0.0086
3234.00,0.0086
3233.00,0.0085
3232.00,0.0085
3231.00,0.0084
3230.00,0.0084
3229.00,0.0083
3228.00,0.0083
3227.00,0.0082
3226.00,0.0082
3225.00,0.0081
3224.00,0.0081
3223.00,0.0080
3222.00,0.0080
3221.00,0.0080
3220.00,0.0079
3219.00,0.0079
3218.00,0.0078
3217.00,0.0078
3216.00,0.0078
3215.00,0.0078
3214.00,0.0077
3213.00,0.0077
3212.00,0.0077
3211.00,0.0076
3210.00,0.0076
3209.00,0.0075
3208.00,0.0075
3207.00,0.0075
3206.00,0.0074
3205.00,0.0074
3204.00,0.0074
3203.00,0.0073
3202.00,0.0073
3201.00,0.0073
3200.00,0.0072
3199.00,0.0072
3198.00,0.0071
3197.00,0.0071
3196.00,0.0071
3195.00,0.0070
3194.00,0.0070
3193.00,0.0070
3192.00,0.0069
3191.00,0.0069
3190.00,0.0069
3189.00,0.0068
3188.00,0.0068
3187.00,0.0068
3186.00,0.0067
3185.00,0.0067
3184.00,0.0067
3183.00,0.0066
3182.00,0.0066
3181.00,0.0066
3180.00,0.0066
3179.00,0.0065
3178.00,0.0065
3177.00,0.0065
3176.00,0.0064
3175.00,0.0064
3174.00,0.0063
3173.00,0.0063
3172.00,0.0063
3171.00,0.0062
3170.00,0.0062
3169.00,0.0062
3168.00,0.0061
3167.00,0.0061
3166.00,0.0061
3165.00,0.0061
3164.00,0.0060
3163.00,0.0060
3162.00,0.0060
3161.00,0.0059
3160.00,0.0059
3159.00,0.0059
3158.00,0.0058
3157.00,0.0058
3156.00,0.0058
3155.00,0.0057
3154.00,0.0057
3153.00,0.0057
3152.00,0.0057
3151.00,0.0057
3150.00,0.0056
3149.00,0.0056
3148.00,0.0056
3147.00,0.0055
3146.00,0.0055
3145.00,0.0055
3144.00,0.0055
3143.00,0.0055
3142.00,0.0055
3141.00,0.0054
3140.00,0.0054
3139.00,0.0054
3138.00,0.0054
3137.00,0.0053
3136.00,0.0053
3135.00,0.0053
3134.00,0.0053
3133.00,0.0053
3132.00,0.0053
3131.00,0.0052
3130.00,0.0052
3129.00,0.0052
3128.00,0.0052
3127.00,0.0052
3126.00,0.0052
3125.00,0.0052
3124.00,0.0052
3123.00,0.0052
3122.00,0.0051
3121.00,0.0051
3120.00,0.0051
3119.00,0.0051
3118.00,0.0051
3117.00,0.0051
3116.00,0.0051
3115.00,0.0051
3114.00,0.0051
3113.00,0.0051
3112.00,0.0051
3111.00,0.0051
3110.00,0.0051
3109.00,0.0051
3108.00,0.0051
3107.00,0.0051
3106.00,0.0051
3105.00,0.0051
3104.00,0.0051
3103.00,0.0051
3102.00,0.0051
3101.00,0.0051
3100.00,0.0051
3099.00,0.0051
3098.00,0.0052
3097.00,0.0052
3096.00,0.0052
3095.00,0.0052
3094.00,0.0052
3093.00,0.0052
3092.00,0.0052
3091.00,0.0052
3090.00,0.0052
3089.00,0.0052
3088.00,0.0052
3087.00,0.0053
3086.00,0.0053
3085.00,0.0052
3084.00,0.0052
3083.00,0.0052
3082.00,0.0052
3081.00,0.0052
3080.00,0.0052
3079.00,0.0052
3078.00,0.0052
3077.00,0.0052
3076.00,0.0052
3075.00,0.0052
3074.00,0.0052
3073.00,0.0052
3072.00,0.0052
3071.00,0.0052
3070.00,0.0052
3069.00,0.0052
3068.00,0.0052
3067.00,0.0052
3066.00,0.0051
3065.00,0.0051
3064.00,0.0051
3063.00,0.0051
3062.00,0.0051
3061.00,0.0051
3060.00,0.0050
3059.00,0.0050
3058.00,0.0050
3057.00,0.0049
3056.00,0.0049
3055.00,0.0049
3054.00,0.0049
3053.00,0.0048
3052.00,0.0048
3051.00,0.0048
3050.00,0.0047
3049.00,0.0047
3048.00,0.0047
3047.00,0.0046
3046.00,0.0046
3045.00,0.0046
3044.00,0.0046
3043.00,0.0045
3042.00,0.0045
3041.00,0.0045
3040.00,0.0044
3039.00,0.0044
3038.00,0.0044
3037.00,0.0044
3036.00,0.0043
3035.00,0.0043
3034.00,0.0043
3033.00,0.0043
3032.00,0.0042
3031.00,0.0042
3030.00,0.0042
3029.00,0.0042
3028.00,0.0041
3027.00,0.0041
3026.00,0.0041
3025.00,0.0041
3024.00,0.0041
3023.00,0.0040
3022.00,0.0040
3021.00,0.0040
3020.00,0.0040
3019.00,0.0039
3018.00,0.0039
3017.00,0.0039
3016.00,0.0038
3015.00,0.0038
3014.00,0.0038
3013.00,0.0038
3012.00,0.0038
3011.00,0.0038
3010.00,0.0038
3009.00,0.0038
3008.00,0.0038
3007.00,0.0037
3006.00,0.0037
3005.00,0.0037
3004.00,0.0037
3003.00,0.0037
3002.00,0.0037
3001.00,0.0037
3000.00,0.0037
2999.00,0.0037
2998.00,0.0037
2997.00,0.0038
2996.00,0.0038
2995.00,0.0038
2994.00,0.0038
2993.00,0.0038
2992.00,0.0039
2991.00,0.0039
2990.00,0.0039
2989.00,0.0040
2988.00,0.0040
2987.00,0.0041
2986.00,0.0041
2985.00,0.0041
2984.00,0.0042
2983.00,0.0042
2982.00,0.0043
2981.00,0.0043
2980.00,0.0044
2979.00,0.0045
2978.00,0.0045
2977.00,0.0046
2976.00,0.0046
2975.00,0.0047
2974.00,0.0047
2973.00,0.0048
2972.00,0.0049
2971.00,0.0049
2970.00,0.0050
2969.00,0.0050
2968.00,0.0051
2967.00,0.0051
2966.00,0.0052
2965.00,0.0052
2964.00,0.0052
2963.00,0.0052
2962.00,0.0052
2961.00,0.0052
2960.00,0.0052
2959.00,0.0052
2958.00,0.0052
2957.00,0.0051
2956.00,0.0051
2955.00,0.0051
2954.00,0.0050
2953.00,0.0050
2952.00,0.0049
2951.00,0.0049
2950.00,0.0049
2949.00,0.0048
2948.00,0.0048
2947.00,0.0048
2946.00,0.0048
2945.00,0.0048
2944.00,0.0049
2943.00,0.0049
2942.00,0.0049
2941.00,0.0050
2940.00,0.0050
2939.00,0.0050
2938.00,0.0051
2937.00,0.0051
2936.00,0.0051
2935.00,0.0052
2934.00,0.0052
2933.00,0.0052
2932.00,0.0052
2931.00,0.0052
2930.00,0.0052
2929.00,0.0052
2928.00,0.0052
2927.00,0.0052
2926.00,0.0052
2925.00,0.0052
2924.00,0.0052
2923.00,0.0051
2922.00,0.0051
2921.00,0.0051
2920.00,0.0051
2919.00,0.0050
2918.00,0.0049
2917.00,0.0049
2916.00,0.0048
2915.00,0.0048
2914.00,0.0047
2913.00,0.0046
2912.00,0.0046
2911.00,0.0045
2910.00,0.0044
2909.00,0.0044
2908.00,0.0044
2907.00,0.0043
2906.00,0.0043
2905.00,0.0042
2904.00,0.0042
2903.00,0.0041
2902.00,0.0041
2901.00,0.0041
2900.00,0.0040
2899.00,0.0040
2898.00,0.0040
2897.00,0.0039
2896.00,0.0039
2895.00,0.0039
2894.00,0.0038
2893.00,0.0038
2892.00,0.0038
2891.00,0.0038
2890.00,0.0038
2889.00,0.0038
2888.00,0.0038
2887.00,0.0038
2886.00,0.0038
2885.00,0.0038
2884.00,0.0038
2883.00,0.0039
2882.00,0.0039
2881.00,0.0039
2880.00,0.0039
2879.00,0.0039
2878.00,0.0040
2877.00,0.0040
2876.00,0.0040
2875.00,0.0040
2874.00,0.0040
2873.00,0.0039
2872.00,0.0039
2871.00,0.0039
2870.00,0.0039
2869.00,0.0038
2868.00,0.0038
2867.00,0.0037
2866.00,0.0037
2865.00,0.0036
2864.00,0.0036
2863.00,0.0036
2862.00,0.0035
2861.00,0.0035
2860.00,0.0035
2859.00,0.0034
2858.00,0.0034
2857.00,0.0034
2856.00,0.0034
2855.00,0.0034
2854.00,0.0034
2853.00,0.0034
2852.00,0.0034
2851.00,0.0034
2850.00,0.0033
2849.00,0.0033
2848.00,0.0032
2847.00,0.0032
2846.00,0.0031
2845.00,0.0030
2844.00,0.0030
2843.00,0.0029
2842.00,0.0029
2841.00,0.0028
2840.00,0.0028
2839.00,0.0027
2838.00,0.0027
2837.00,0.0027
2836.00,0.0027
2835.00,0.0026
2834.00,0.0026
2833.00,0.0026
2832.00,0.0026
2831.00,0.0026
2830.00,0.0026
2829.00,0.0026
2828.00,0.0026
2827.00,0.0026
2826.00,0.0025
2825.00,0.0025
2824.00,0.0025
2823.00,0.0025
2822.00,0.0025
2821.00,0.0025
2820.00,0.0025
2819.00,0.0025
2818.00,0.0025
2817.00,0.0025
2816.00,0.0025
2815.00,0.0025
2814.00,0.0024
2813.00,0.0024
2812.00,0.0024
2811.00,0.0024
2810.00,0.0024
2809.00,0.0024
2808.00,0.0024
2807.00,0.0024
2806.00,0.0024
2805.00,0.0024
2804.00,0.0024
2803.00,0.0024
2802.00,0.0024
2801.00,0.0024
2800.00,0.0024
2799.00,0.0024
2798.00,0.0023
2797.00,0.0023
2796.00,0.0023
2795.00,0.0023
2794.00,0.0023
2793.00,0.0023
2792.00,0.0023
2791.00,0.0023
2790.00,0.0022
2789.00,0.0022
2788.00,0.0022
2787.00,0.0022
2786.00,0.0022
2785.00,0.0022
2784.00,0.0022
2783.00,0.0022
2782.00,0.0022
2781.00,0.0022
2780.00,0.0021
2779.00,0.0021
2778.00,0.0021
2777.00,0.0021
2776.00,0.0021
2775.00,0.0021
