Created as New Dataset,Sample 275 By YargerLab Date Wednesday, July 24 2024
cm-1,A
4000.00,0.0035
3999.00,0.0035
3998.00,0.0035
3997.00,0.0035
3996.00,0.0036
3995.00,0.0035
3994.00,0.0035
3993.00,0.0035
3992.00,0.0035
3991.00,0.0035
3990.00,0.0035
3989.00,0.0035
3988.00,0.0035
3987.00,0.0035
3986.00,0.0035
3985.00,0.0035
3984.00,0.0035
3983.00,0.0035
3982.00,0.0035
3981.00,0.0035
3980.00,0.0035
3979.00,0.0035
3978.00,0.0035
3977.00,0.0035
3976.00,0.0035
3975.00,0.0035
3974.00,0.0035
3973.00,0.0035
3972.00,0.0035
3971.00,0.0035
3970.00,0.0035
3969.00,0.0035
3968.00,0.0035
3967.00,0.0035
3966.00,0.0035
3965.00,0.0035
3964.00,0.0035
3963.00,0.0035
3962.00,0.0035
3961.00,0.0035
3960.00,0.0035
3959.00,0.0035
3958.00,0.0035
3957.00,0.0035
3956.00,0.0035
3955.00,0.0035
3954.00,0.0035
3953.00,0.0035
3952.00,0.0035
3951.00,0.0035
3950.00,0.0035
3949.00,0.0035
3948.00,0.0035
3947.00,0.0035
3946.00,0.0035
3945.00,0.0035
3944.00,0.0035
3943.00,0.0035
3942.00,0.0035
3941.00,0.0035
3940.00,0.0035
3939.00,0.0035
3938.00,0.0035
3937.00,0.0035
3936.00,0.0035
3935.00,0.0035
3934.00,0.0035
3933.00,0.0035
3932.00,0.0035
3931.00,0.0035
3930.00,0.0035
3929.00,0.0035
3928.00,0.0035
3927.00,0.0034
3926.00,0.0034
3925.00,0.0034
3924.00,0.0035
3923.00,0.0035
3922.00,0.0035
3921.00,0.0035
3920.00,0.0035
3919.00,0.0035
3918.00,0.0035
3917.00,0.0035
3916.00,0.0035
3915.00,0.0035
3914.00,0.0035
3913.00,0.0034
3912.00,0.0034
3911.00,0.0034
3910.00,0.0034
3909.00,0.0034
3908.00,0.0034
3907.00,0.0034
3906.00,0.0034
3905.00,0.0034
3904.00,0.0034
3903.00,0.0035
3902.00,0.0034
3901.00,0.0034
3900.00,0.0034
3899.00,0.0034
3898.00,0.0034
3897.00,0.0034
3896.00,0.0034
3895.00,0.0034
3894.00,0.0034
3893.00,0.0034
3892.00,0.0034
3891.00,0.0034
3890.00,0.0034
3889.00,0.0034
3888.00,0.0033
3887.00,0.0033
3886.00,0.0033
3885.00,0.0033
3884.00,0.0033
3883.00,0.0034
3882.00,0.0034
3881.00,0.0034
3880.00,0.0034
3879.00,0.0034
3878.00,0.0034
3877.00,0.0033
3876.00,0.0033
3875.00,0.0033
3874.00,0.0033
3873.00,0.0034
3872.00,0.0034
3871.00,0.0034
3870.00,0.0034
3869.00,0.0034
3868.00,0.0034
3867.00,0.0034
3866.00,0.0034
3865.00,0.0034
3864.00,0.0034
3863.00,0.0034
3862.00,0.0034
3861.00,0.0034
3860.00,0.0034
3859.00,0.0034
3858.00,0.0033
3857.00,0.0033
3856.00,0.0033
3855.00,0.0033
3854.00,0.0033
3853.00,0.0033
3852.00,0.0033
3851.00,0.0033
3850.00,0.0033
3849.00,0.0033
3848.00,0.0033
3847.00,0.0033
3846.00,0.0033
3845.00,0.0033
3844.00,0.0033
3843.00,0.0033
3842.00,0.0033
3841.00,0.0033
3840.00,0.0033
3839.00,0.0033
3838.00,0.0033
3837.00,0.0033
3836.00,0.0033
3835.00,0.0033
3834.00,0.0033
3833.00,0.0033
3832.00,0.0033
3831.00,0.0033
3830.00,0.0033
3829.00,0.0033
3828.00,0.0033
3827.00,0.0033
3826.00,0.0033
3825.00,0.0033
3824.00,0.0033
3823.00,0.0033
3822.00,0.0033
3821.00,0.0033
3820.00,0.0033
3819.00,0.0033
3818.00,0.0033
3817.00,0.0033
3816.00,0.0032
3815.00,0.0032
3814.00,0.0032
3813.00,0.0032
3812.00,0.0032
3811.00,0.0032
3810.00,0.0032
3809.00,0.0033
3808.00,0.0033
3807.00,0.0033
3806.00,0.0032
3805.00,0.0032
3804.00,0.0032
3803.00,0.0032
3802.00,0.0032
3801.00,0.0032
3800.00,0.0032
3799.00,0.0032
3798.00,0.0032
3797.00,0.0032
3796.00,0.0033
3795.00,0.0033
3794.00,0.0032
3793.00,0.0032
3792.00,0.0032
3791.00,0.0032
3790.00,0.0032
3789.00,0.0032
3788.00,0.0032
3787.00,0.0032
3786.00,0.0032
3785.00,0.0032
3784.00,0.0032
3783.00,0.0032
3782.00,0.0032
3781.00,0.0032
3780.00,0.0033
3779.00,0.0033
3778.00,0.0033
3777.00,0.0032
3776.00,0.0032
3775.00,0.0032
3774.00,0.0032
3773.00,0.0032
3772.00,0.0032
3771.00,0.0032
3770.00,0.0032
3769.00,0.0032
3768.00,0.0032
3767.00,0.0032
3766.00,0.0033
3765.00,0.0033
3764.00,0.0033
3763.00,0.0033
3762.00,0.0033
3761.00,0.0033
3760.00,0.0033
3759.00,0.0033
3758.00,0.0033
3757.00,0.0033
3756.00,0.0033
3755.00,0.0033
3754.00,0.0033
3753.00,0.0033
3752.00,0.0033
3751.00,0.0033
3750.00,0.0033
3749.00,0.0033
3748.00,0.0033
3747.00,0.0033
3746.00,0.0032
3745.00,0.0032
3744.00,0.0033
3743.00,0.0032
3742.00,0.0032
3741.00,0.0033
3740.00,0.0033
3739.00,0.0033
3738.00,0.0033
3737.00,0.0033
3736.00,0.0033
3735.00,0.0033
3734.00,0.0033
3733.00,0.0033
3732.00,0.0033
3731.00,0.0033
3730.00,0.0033
3729.00,0.0033
3728.00,0.0033
3727.00,0.0033
3726.00,0.0033
3725.00,0.0033
3724.00,0.0033
3723.00,0.0033
3722.00,0.0033
3721.00,0.0033
3720.00,0.0032
3719.00,0.0033
3718.00,0.0033
3717.00,0.0033
3716.00,0.0033
3715.00,0.0033
3714.00,0.0033
3713.00,0.0032
3712.00,0.0032
3711.00,0.0032
3710.00,0.0032
3709.00,0.0032
3708.00,0.0032
3707.00,0.0033
3706.00,0.0033
3705.00,0.0033
3704.00,0.0033
3703.00,0.0033
3702.00,0.0033
3701.00,0.0033
3700.00,0.0033
3699.00,0.0033
3698.00,0.0033
3697.00,0.0033
3696.00,0.0033
3695.00,0.0033
3694.00,0.0032
3693.00,0.0032
3692.00,0.0032
3691.00,0.0032
3690.00,0.0032
3689.00,0.0032
3688.00,0.0032
3687.00,0.0031
3686.00,0.0031
3685.00,0.0031
3684.00,0.0031
3683.00,0.0031
3682.00,0.0031
3681.00,0.0031
3680.00,0.0031
3679.00,0.0030
3678.00,0.0030
3677.00,0.0030
3676.00,0.0029
3675.00,0.0029
3674.00,0.0029
3673.00,0.0028
3672.00,0.0028
3671.00,0.0029
3670.00,0.0029
3669.00,0.0029
3668.00,0.0029
3667.00,0.0029
3666.00,0.0029
3665.00,0.0029
3664.00,0.0029
3663.00,0.0029
3662.00,0.0029
3661.00,0.0030
3660.00,0.0030
3659.00,0.0030
3658.00,0.0031
3657.00,0.0031
3656.00,0.0031
3655.00,0.0032
3654.00,0.0032
3653.00,0.0033
3652.00,0.0033
3651.00,0.0034
3650.00,0.0034
3649.00,0.0035
3648.00,0.0036
3647.00,0.0036
3646.00,0.0037
3645.00,0.0037
3644.00,0.0038
3643.00,0.0038
3642.00,0.0039
3641.00,0.0040
3640.00,0.0040
3639.00,0.0041
3638.00,0.0041
3637.00,0.0042
3636.00,0.0043
3635.00,0.0044
3634.00,0.0045
3633.00,0.0046
3632.00,0.0047
3631.00,0.0048
3630.00,0.0049
3629.00,0.0049
3628.00,0.0050
3627.00,0.0051
3626.00,0.0051
3625.00,0.0052
3624.00,0.0053
3623.00,0.0053
3622.00,0.0054
3621.00,0.0055
3620.00,0.0055
3619.00,0.0056
3618.00,0.0056
3617.00,0.0057
3616.00,0.0058
3615.00,0.0058
3614.00,0.0059
3613.00,0.0059
3612.00,0.0060
3611.00,0.0061
3610.00,0.0061
3609.00,0.0062
3608.00,0.0062
3607.00,0.0063
3606.00,0.0063
3605.00,0.0064
3604.00,0.0065
3603.00,0.0065
3602.00,0.0066
3601.00,0.0067
3600.00,0.0067
3599.00,0.0068
3598.00,0.0068
3597.00,0.0069
3596.00,0.0069
3595.00,0.0070
3594.00,0.0070
3593.00,0.0071
3592.00,0.0072
3591.00,0.0073
3590.00,0.0074
3589.00,0.0074
3588.00,0.0075
3587.00,0.0075
3586.00,0.0075
3585.00,0.0076
3584.00,0.0077
3583.00,0.0077
3582.00,0.0078
3581.00,0.0079
3580.00,0.0079
3579.00,0.0080
3578.00,0.0080
3577.00,0.0081
3576.00,0.0082
3575.00,0.0083
3574.00,0.0084
3573.00,0.0084
3572.00,0.0085
3571.00,0.0086
3570.00,0.0087
3569.00,0.0088
3568.00,0.0088
3567.00,0.0089
3566.00,0.0089
3565.00,0.0090
3564.00,0.0091
3563.00,0.0091
3562.00,0.0092
3561.00,0.0093
3560.00,0.0093
3559.00,0.0094
3558.00,0.0095
3557.00,0.0095
3556.00,0.0096
3555.00,0.0097
3554.00,0.0097
3553.00,0.0098
3552.00,0.0099
3551.00,0.0100
3550.00,0.0101
3549.00,0.0102
3548.00,0.0103
3547.00,0.0103
3546.00,0.0104
3545.00,0.0104
3544.00,0.0105
3543.00,0.0106
3542.00,0.0106
3541.00,0.0107
3540.00,0.0108
3539.00,0.0108
3538.00,0.0109
3537.00,0.0110
3536.00,0.0111
3535.00,0.0111
3534.00,0.0112
3533.00,0.0113
3532.00,0.0113
3531.00,0.0114
3530.00,0.0115
3529.00,0.0116
3528.00,0.0117
3527.00,0.0117
3526.00,0.0118
3525.00,0.0119
3524.00,0.0119
3523.00,0.0120
3522.00,0.0120
3521.00,0.0121
3520.00,0.0122
3519.00,0.0122
3518.00,0.0123
3517.00,0.0124
3516.00,0.0125
3515.00,0.0125
3514.00,0.0126
3513.00,0.0127
3512.00,0.0128
3511.00,0.0129
3510.00,0.0129
3509.00,0.0130
3508.00,0.0131
3507.00,0.0132
3506.00,0.0133
3505.00,0.0133
3504.00,0.0134
3503.00,0.0135
3502.00,0.0135
3501.00,0.0136
3500.00,0.0137
3499.00,0.0138
3498.00,0.0138
3497.00,0.0139
3496.00,0.0140
3495.00,0.0141
3494.00,0.0141
3493.00,0.0142
3492.00,0.0143
3491.00,0.0144
3490.00,0.0145
3489.00,0.0146
3488.00,0.0146
3487.00,0.0147
3486.00,0.0148
3485.00,0.0149
3484.00,0.0150
3483.00,0.0151
3482.00,0.0151
3481.00,0.0152
3480.00,0.0153
3479.00,0.0153
3478.00,0.0154
3477.00,0.0155
3476.00,0.0156
3475.00,0.0157
3474.00,0.0158
3473.00,0.0159
3472.00,0.0159
3471.00,0.0160
3470.00,0.0161
3469.00,0.0162
3468.00,0.0163
3467.00,0.0164
3466.00,0.0165
3465.00,0.0166
3464.00,0.0166
3463.00,0.0167
3462.00,0.0168
3461.00,0.0169
3460.00,0.0170
3459.00,0.0171
3458.00,0.0171
3457.00,0.0172
3456.00,0.0173
3455.00,0.0174
3454.00,0.0175
3453.00,0.0175
3452.00,0.0176
3451.00,0.0177
3450.00,0.0178
3449.00,0.0179
3448.00,0.0180
3447.00,0.0180
3446.00,0.0181
3445.00,0.0182
3444.00,0.0183
3443.00,0.0183
3442.00,0.0184
3441.00,0.0185
3440.00,0.0186
3439.00,0.0187
3438.00,0.0188
3437.00,0.0189
3436.00,0.0189
3435.00,0.0190
3434.00,0.0191
3433.00,0.0192
3432.00,0.0193
3431.00,0.0194
3430.00,0.0195
3429.00,0.0196
3428.00,0.0196
3427.00,0.0197
3426.00,0.0198
3425.00,0.0198
3424.00,0.0199
3423.00,0.0200
3422.00,0.0201
3421.00,0.0202
3420.00,0.0203
3419.00,0.0203
3418.00,0.0204
3417.00,0.0205
3416.00,0.0206
3415.00,0.0207
3414.00,0.0208
3413.00,0.0208
3412.00,0.0209
3411.00,0.0210
3410.00,0.0211
3409.00,0.0212
3408.00,0.0212
3407.00,0.0213
3406.00,0.0214
3405.00,0.0215
3404.00,0.0216
3403.00,0.0216
3402.00,0.0217
3401.00,0.0218
3400.00,0.0219
3399.00,0.0219
3398.00,0.0220
3397.00,0.0221
3396.00,0.0222
3395.00,0.0223
3394.00,0.0223
3393.00,0.0224
3392.00,0.0225
3391.00,0.0225
3390.00,0.0226
3389.00,0.0227
3388.00,0.0228
3387.00,0.0228
3386.00,0.0229
3385.00,0.0230
3384.00,0.0231
3383.00,0.0232
3382.00,0.0232
3381.00,0.0233
3380.00,0.0234
3379.00,0.0235
3378.00,0.0236
3377.00,0.0237
3376.00,0.0238
3375.00,0.0239
3374.00,0.0240
3373.00,0.0241
3372.00,0.0242
3371.00,0.0243
3370.00,0.0244
3369.00,0.0245
3368.00,0.0247
3367.00,0.0248
3366.00,0.0249
3365.00,0.0250
3364.00,0.0251
3363.00,0.0253
3362.00,0.0254
3361.00,0.0255
3360.00,0.0257
3359.00,0.0258
3358.00,0.0259
3357.00,0.0261
3356.00,0.0262
3355.00,0.0263
3354.00,0.0264
3353.00,0.0266
3352.00,0.0267
3351.00,0.0268
3350.00,0.0270
3349.00,0.0271
3348.00,0.0273
3347.00,0.0274
3346.00,0.0276
3345.00,0.0277
3344.00,0.0279
3343.00,0.0280
3342.00,0.0282
3341.00,0.0283
3340.00,0.0285
3339.00,0.0287
3338.00,0.0288
3337.00,0.0290
3336.00,0.0292
3335.00,0.0294
3334.00,0.0295
3333.00,0.0297
3332.00,0.0299
3331.00,0.0301
3330.00,0.0303
3329.00,0.0305
3328.00,0.0307
3327.00,0.0308
3326.00,0.0310
3325.00,0.0312
3324.00,0.0314
3323.00,0.0316
3322.00,0.0319
3321.00,0.0321
3320.00,0.0323
3319.00,0.0325
3318.00,0.0327
3317.00,0.0329
3316.00,0.0332
3315.00,0.0334
3314.00,0.0336
3313.00,0.0339
3312.00,0.0341
3311.00,0.0343
3310.00,0.0345
3309.00,0.0347
3308.00,0.0349
3307.00,0.0351
3306.00,0.0354
3305.00,0.0356
3304.00,0.0359
3303.00,0.0362
3302.00,0.0365
3301.00,0.0367
3300.00,0.0370
3299.00,0.0372
3298.00,0.0374
3297.00,0.0377
3296.00,0.0379
3295.00,0.0381
3294.00,0.0383
3293.00,0.0386
3292.00,0.0388
3291.00,0.0390
3290.00,0.0393
3289.00,0.0395
3288.00,0.0396
3287.00,0.0398
3286.00,0.0400
3285.00,0.0402
3284.00,0.0403
3283.00,0.0404
3282.00,0.0406
3281.00,0.0407
3280.00,0.0408
3279.00,0.0408
3278.00,0.0409
3277.00,0.0409
3276.00,0.0409
3275.00,0.0409
3274.00,0.0409
3273.00,0.0408
3272.00,0.0408
3271.00,0.0407
3270.00,0.0406
3269.00,0.0405
3268.00,0.0404
3267.00,0.0403
3266.00,0.0402
3265.00,0.0400
3264.00,0.0398
3263.00,0.0397
3262.00,0.0395
3261.00,0.0393
3260.00,0.0391
3259.00,0.0388
3258.00,0.0386
3257.00,0.0384
3256.00,0.0382
3255.00,0.0380
3254.00,0.0378
3253.00,0.0376
3252.00,0.0373
3251.00,0.0371
3250.00,0.0369
3249.00,0.0367
3248.00,0.0364
3247.00,0.0362
3246.00,0.0360
3245.00,0.0358
3244.00,0.0357
3243.00,0.0355
3242.00,0.0353
3241.00,0.0352
3240.00,0.0350
3239.00,0.0348
3238.00,0.0346
3237.00,0.0344
3236.00,0.0342
3235.00,0.0341
3234.00,0.0339
3233.00,0.0338
3232.00,0.0337
3231.00,0.0336
3230.00,0.0334
3229.00,0.0333
3228.00,0.0332
3227.00,0.0330
3226.00,0.0329
3225.00,0.0328
3224.00,0.0327
3223.00,0.0326
3222.00,0.0325
3221.00,0.0324
3220.00,0.0322
3219.00,0.0321
3218.00,0.0320
3217.00,0.0319
3216.00,0.0318
3215.00,0.0317
3214.00,0.0316
3213.00,0.0315
3212.00,0.0314
3211.00,0.0313
3210.00,0.0312
3209.00,0.0311
3208.00,0.0310
3207.00,0.0309
3206.00,0.0308
3205.00,0.0307
3204.00,0.0306
3203.00,0.0305
3202.00,0.0304
3201.00,0.0303
3200.00,0.0302
3199.00,0.0301
3198.00,0.0300
3197.00,0.0299
3196.00,0.0298
3195.00,0.0297
3194.00,0.0295
3193.00,0.0294
3192.00,0.0293
3191.00,0.0292
3190.00,0.0291
3189.00,0.0290
3188.00,0.0288
3187.00,0.0287
3186.00,0.0286
3185.00,0.0285
3184.00,0.0284
3183.00,0.0282
3182.00,0.0281
3181.00,0.0280
3180.00,0.0279
3179.00,0.0277
3178.00,0.0276
3177.00,0.0275
3176.00,0.0273
3175.00,0.0272
3174.00,0.0271
3173.00,0.0270
3172.00,0.0268
3171.00,0.0267
3170.00,0.0266
3169.00,0.0264
3168.00,0.0263
3167.00,0.0262
3166.00,0.0261
3165.00,0.0259
3164.00,0.0258
3163.00,0.0257
3162.00,0.0256
3161.00,0.0254
3160.00,0.0253
3159.00,0.0252
3158.00,0.0250
3157.00,0.0249
3156.00,0.0248
3155.00,0.0246
3154.00,0.0245
3153.00,0.0244
3152.00,0.0243
3151.00,0.0242
3150.00,0.0241
3149.00,0.0240
3148.00,0.0239
3147.00,0.0238
3146.00,0.0237
3145.00,0.0236
3144.00,0.0235
3143.00,0.0234
3142.00,0.0233
3141.00,0.0232
3140.00,0.0231
3139.00,0.0230
3138.00,0.0229
3137.00,0.0229
3136.00,0.0228
3135.00,0.0227
3134.00,0.0226
3133.00,0.0226
3132.00,0.0225
3131.00,0.0224
3130.00,0.0223
3129.00,0.0223
3128.00,0.0222
3127.00,0.0222
3126.00,0.0221
3125.00,0.0221
3124.00,0.0220
3123.00,0.0219
3122.00,0.0219
3121.00,0.0218
3120.00,0.0218
3119.00,0.0217
3118.00,0.0217
3117.00,0.0217
3116.00,0.0217
3115.00,0.0217
3114.00,0.0217
3113.00,0.0217
3112.00,0.0217
3111.00,0.0216
3110.00,0.0216
3109.00,0.0216
3108.00,0.0216
3107.00,0.0216
3106.00,0.0217
3105.00,0.0217
3104.00,0.0217
3103.00,0.0217
3102.00,0.0217
3101.00,0.0217
3100.00,0.0217
3099.00,0.0218
3098.00,0.0218
3097.00,0.0218
3096.00,0.0219
3095.00,0.0219
3094.00,0.0219
3093.00,0.0219
3092.00,0.0220
3091.00,0.0220
3090.00,0.0220
3089.00,0.0221
3088.00,0.0221
3087.00,0.0221
3086.00,0.0221
3085.00,0.0221
3084.00,0.0222
3083.00,0.0222
3082.00,0.0222
3081.00,0.0222
3080.00,0.0223
3079.00,0.0223
3078.00,0.0223
3077.00,0.0224
3076.00,0.0224
3075.00,0.0225
3074.00,0.0225
3073.00,0.0225
3072.00,0.0225
3071.00,0.0225
3070.00,0.0225
3069.00,0.0224
3068.00,0.0224
3067.00,0.0224
3066.00,0.0224
3065.00,0.0223
3064.00,0.0223
3063.00,0.0223
3062.00,0.0223
3061.00,0.0223
3060.00,0.0222
3059.00,0.0221
3058.00,0.0221
3057.00,0.0220
3056.00,0.0219
3055.00,0.0218
3054.00,0.0217
3053.00,0.0216
3052.00,0.0215
3051.00,0.0214
3050.00,0.0213
3049.00,0.0213
3048.00,0.0212
3047.00,0.0211
3046.00,0.0210
3045.00,0.0209
3044.00,0.0208
3043.00,0.0207
3042.00,0.0206
3041.00,0.0206
3040.00,0.0205
3039.00,0.0204
3038.00,0.0204
3037.00,0.0203
3036.00,0.0202
3035.00,0.0201
3034.00,0.0200
3033.00,0.0199
3032.00,0.0198
3031.00,0.0198
3030.00,0.0197
3029.00,0.0196
3028.00,0.0195
3027.00,0.0194
3026.00,0.0193
3025.00,0.0191
3024.00,0.0190
3023.00,0.0189
3022.00,0.0188
3021.00,0.0186
3020.00,0.0185
3019.00,0.0184
3018.00,0.0182
3017.00,0.0180
3016.00,0.0179
3015.00,0.0177
3014.00,0.0175
3013.00,0.0174
3012.00,0.0172
3011.00,0.0170
3010.00,0.0169
3009.00,0.0167
3008.00,0.0165
3007.00,0.0162
3006.00,0.0160
3005.00,0.0157
3004.00,0.0155
3003.00,0.0152
3002.00,0.0149
3001.00,0.0147
3000.00,0.0145
2999.00,0.0143
2998.00,0.0141
2997.00,0.0140
2996.00,0.0139
2995.00,0.0139
2994.00,0.0138
2993.00,0.0137
2992.00,0.0137
2991.00,0.0137
2990.00,0.0137
2989.00,0.0138
2988.00,0.0138
2987.00,0.0137
2986.00,0.0135
2985.00,0.0130
2984.00,0.0125
2983.00,0.0119
2982.00,0.0115
2981.00,0.0115
2980.00,0.0118
2979.00,0.0124
2978.00,0.0130
2977.00,0.0135
2976.00,0.0139
2975.00,0.0142
2974.00,0.0144
2973.00,0.0145
2972.00,0.0147
2971.00,0.0149
2970.00,0.0154
2969.00,0.0159
2968.00,0.0164
2967.00,0.0168
2966.00,0.0172
2965.00,0.0176
2964.00,0.0179
2963.00,0.0182
2962.00,0.0184
2961.00,0.0187
2960.00,0.0188
2959.00,0.0190
2958.00,0.0191
2957.00,0.0193
2956.00,0.0194
2955.00,0.0195
2954.00,0.0196
2953.00,0.0197
2952.00,0.0197
2951.00,0.0198
2950.00,0.0199
2949.00,0.0200
2948.00,0.0201
2947.00,0.0203
2946.00,0.0205
2945.00,0.0207
2944.00,0.0210
2943.00,0.0213
2942.00,0.0215
2941.00,0.0218
2940.00,0.0221
2939.00,0.0223
2938.00,0.0226
2937.00,0.0229
2936.00,0.0232
2935.00,0.0235
2934.00,0.0237
2933.00,0.0239
2932.00,0.0241
2931.00,0.0243
2930.00,0.0244
2929.00,0.0246
2928.00,0.0247
2927.00,0.0249
2926.00,0.0250
2925.00,0.0250
2924.00,0.0250
2923.00,0.0250
2922.00,0.0250
2921.00,0.0248
2920.00,0.0247
2919.00,0.0245
2918.00,0.0242
2917.00,0.0239
2916.00,0.0235
2915.00,0.0230
2914.00,0.0225
2913.00,0.0220
2912.00,0.0216
2911.00,0.0212
2910.00,0.0208
2909.00,0.0205
2908.00,0.0202
2907.00,0.0199
2906.00,0.0196
2905.00,0.0194
2904.00,0.0192
2903.00,0.0190
2902.00,0.0189
2901.00,0.0187
2900.00,0.0185
2899.00,0.0184
2898.00,0.0182
2897.00,0.0181
2896.00,0.0179
2895.00,0.0178
2894.00,0.0176
2893.00,0.0175
2892.00,0.0173
2891.00,0.0172
2890.00,0.0171
2889.00,0.0170
2888.00,0.0170
2887.00,0.0170
2886.00,0.0169
2885.00,0.0169
2884.00,0.0169
2883.00,0.0170
2882.00,0.0171
2881.00,0.0173
2880.00,0.0175
2879.00,0.0177
2878.00,0.0178
2877.00,0.0179
2876.00,0.0180
2875.00,0.0181
2874.00,0.0181
2873.00,0.0182
2872.00,0.0182
2871.00,0.0182
2870.00,0.0181
2869.00,0.0181
2868.00,0.0180
2867.00,0.0180
2866.00,0.0179
2865.00,0.0179
2864.00,0.0179
2863.00,0.0179
2862.00,0.0180
2861.00,0.0181
2860.00,0.0182
2859.00,0.0183
2858.00,0.0185
2857.00,0.0186
2856.00,0.0188
2855.00,0.0189
2854.00,0.0191
2853.00,0.0192
2852.00,0.0192
2851.00,0.0192
2850.00,0.0191
2849.00,0.0188
2848.00,0.0185
2847.00,0.0181
2846.00,0.0177
2845.00,0.0173
2844.00,0.0170
2843.00,0.0166
2842.00,0.0164
2841.00,0.0161
2840.00,0.0159
2839.00,0.0157
2838.00,0.0155
2837.00,0.0154
2836.00,0.0153
2835.00,0.0152
2834.00,0.0151
2833.00,0.0150
2832.00,0.0149
2831.00,0.0148
2830.00,0.0147
2829.00,0.0147
2828.00,0.0146
2827.00,0.0146
2826.00,0.0145
2825.00,0.0145
2824.00,0.0144
2823.00,0.0143
2822.00,0.0143
2821.00,0.0142
2820.00,0.0142
2819.00,0.0142
2818.00,0.0141
2817.00,0.0141
2816.00,0.0140
2815.00,0.0140
2814.00,0.0140
2813.00,0.0139
2812.00,0.0139
2811.00,0.0138
2810.00,0.0138
2809.00,0.0137
2808.00,0.0137
2807.00,0.0137
2806.00,0.0136
2805.00,0.0136
2804.00,0.0136
2803.00,0.0135
2802.00,0.0135
2801.00,0.0134
2800.00,0.0134
2799.00,0.0133
2798.00,0.0133
2797.00,0.0133
2796.00,0.0132
2795.00,0.0132
2794.00,0.0132
2793.00,0.0131
2792.00,0.0131
2791.00,0.0131
2790.00,0.0130
2789.00,0.0130
2788.00,0.0130
2787.00,0.0129
2786.00,0.0129
2785.00,0.0129
2784.00,0.0129
2783.00,0.0128
2782.00,0.0128
2781.00,0.0128
2780.00,0.0127
2779.00,0.0127
2778.00,0.0127
2777.00,0.0126
2776.00,0.0126
2775.00,0.0126
2774.00,0.0125
2773.00,0.0125
2772.00,0.0125
2771.00,0.0125
2770.00,0.0124
2769.00,0.0124
2768.00,0.0124
2767.00,0.0124
2766.00,0.0123
2765.00,0.0123
2764.00,0.0123
2763.00,0.0123
2762.00,0.0122
2761.00,0.0122
2760.00,0.0122
2759.00,0.0122
2758.00,0.0121
2757.00,0.0121
