Created as New Dataset,Sample 264 By YargerLab Date Wednesday, July 24 2024
cm-1,A
4000.00,0.0004
3999.00,0.0004
3998.00,0.0004
3997.00,0.0004
3996.00,0.0005
3995.00,0.0005
3994.00,0.0005
3993.00,0.0004
3992.00,0.0004
3991.00,0.0004
3990.00,0.0004
3989.00,0.0004
3988.00,0.0004
3987.00,0.0004
3986.00,0.0004
3985.00,0.0004
3984.00,0.0004
3983.00,0.0004
3982.00,0.0004
3981.00,0.0004
3980.00,0.0004
3979.00,0.0004
3978.00,0.0004
3977.00,0.0004
3976.00,0.0004
3975.00,0.0004
3974.00,0.0004
3973.00,0.0004
3972.00,0.0004
3971.00,0.0004
3970.00,0.0004
3969.00,0.0004
3968.00,0.0004
3967.00,0.0004
3966.00,0.0004
3965.00,0.0004
3964.00,0.0004
3963.00,0.0004
3962.00,0.0004
3961.00,0.0004
3960.00,0.0004
3959.00,0.0004
3958.00,0.0004
3957.00,0.0004
3956.00,0.0004
3955.00,0.0004
3954.00,0.0004
3953.00,0.0004
3952.00,0.0004
3951.00,0.0004
3950.00,0.0004
3949.00,0.0004
3948.00,0.0004
3947.00,0.0003
3946.00,0.0003
3945.00,0.0003
3944.00,0.0003
3943.00,0.0003
3942.00,0.0003
3941.00,0.0003
3940.00,0.0003
3939.00,0.0003
3938.00,0.0003
3937.00,0.0003
3936.00,0.0003
3935.00,0.0003
3934.00,0.0003
3933.00,0.0003
3932.00,0.0003
3931.00,0.0003
3930.00,0.0003
3929.00,0.0003
3928.00,0.0003
3927.00,0.0003
3926.00,0.0003
3925.00,0.0003
3924.00,0.0003
3923.00,0.0003
3922.00,0.0003
3921.00,0.0003
3920.00,0.0003
3919.00,0.0003
3918.00,0.0003
3917.00,0.0003
3916.00,0.0003
3915.00,0.0003
3914.00,0.0003
3913.00,0.0003
3912.00,0.0003
3911.00,0.0003
3910.00,0.0003
3909.00,0.0003
3908.00,0.0003
3907.00,0.0002
3906.00,0.0002
3905.00,0.0002
3904.00,0.0002
3903.00,0.0002
3902.00,0.0002
3901.00,0.0002
3900.00,0.0002
3899.00,0.0002
3898.00,0.0002
3897.00,0.0002
3896.00,0.0002
3895.00,0.0002
3894.00,0.0002
3893.00,0.0002
3892.00,0.0002
3891.00,0.0002
3890.00,0.0002
3889.00,0.0002
3888.00,0.0001
3887.00,0.0001
3886.00,0.0001
3885.00,0.0001
3884.00,0.0001
3883.00,0.0001
3882.00,0.0002
3881.00,0.0002
3880.00,0.0002
3879.00,0.0002
3878.00,0.0002
3877.00,0.0002
3876.00,0.0002
3875.00,0.0002
3874.00,0.0002
3873.00,0.0002
3872.00,0.0002
3871.00,0.0002
3870.00,0.0002
3869.00,0.0002
3868.00,0.0002
3867.00,0.0002
3866.00,0.0002
3865.00,0.0002
3864.00,0.0002
3863.00,0.0002
3862.00,0.0002
3861.00,0.0002
3860.00,0.0002
3859.00,0.0002
3858.00,0.0001
3857.00,0.0001
3856.00,0.0001
3855.00,0.0001
3854.00,0.0001
3853.00,0.0001
3852.00,0.0001
3851.00,0.0001
3850.00,0.0001
3849.00,0.0001
3848.00,0.0001
3847.00,0.0001
3846.00,0.0001
3845.00,0.0001
3844.00,0.0001
3843.00,0.0001
3842.00,0.0001
3841.00,0.0001
3840.00,0.0001
3839.00,0.0001
3838.00,0.0001
3837.00,0.0001
3836.00,0.0001
3835.00,0.0001
3834.00,0.0001
3833.00,0.0001
3832.00,0.0001
3831.00,0.0001
3830.00,0.0001
3829.00,0.0001
3828.00,0.0001
3827.00,0.0001
3826.00,0.0001
3825.00,0.0001
3824.00,0.0001
3823.00,0.0001
3822.00,0.0001
3821.00,0.0001
3820.00,0.0001
3819.00,0.0001
3818.00,0.0001
3817.00,0.0001
3816.00,0.0001
3815.00,0.0001
3814.00,0.0001
3813.00,0.0001
3812.00,0.0001
3811.00,0.0001
3810.00,0.0001
3809.00,0.0001
3808.00,0.0001
3807.00,0.0001
3806.00,0.0001
3805.00,0.0001
3804.00,0.0001
3803.00,0.0001
3802.00,0.0001
3801.00,0.0001
3800.00,0.0000
3799.00,0.0000
3798.00,0.0000
3797.00,0.0001
3796.00,0.0001
3795.00,0.0001
3794.00,0.0001
3793.00,0.0001
3792.00,0.0001
3791.00,0.0001
3790.00,0.0001
3789.00,0.0001
3788.00,0.0001
3787.00,0.0001
3786.00,0.0001
3785.00,0.0001
3784.00,0.0001
3783.00,0.0001
3782.00,0.0001
3781.00,0.0001
3780.00,0.0001
3779.00,0.0001
3778.00,0.0001
3777.00,0.0001
3776.00,0.0001
3775.00,0.0001
3774.00,0.0001
3773.00,0.0001
3772.00,0.0001
3771.00,0.0001
3770.00,0.0001
3769.00,0.0001
3768.00,0.0001
3767.00,0.0001
3766.00,0.0001
3765.00,0.0001
3764.00,0.0001
3763.00,0.0001
3762.00,0.0001
3761.00,0.0001
3760.00,0.0001
3759.00,0.0001
3758.00,0.0001
3757.00,0.0001
3756.00,0.0001
3755.00,0.0001
3754.00,0.0001
3753.00,0.0001
3752.00,0.0001
3751.00,0.0001
3750.00,0.0001
3749.00,0.0001
3748.00,0.0000
3747.00,0.0000
3746.00,0.0000
3745.00,0.0000
3744.00,0.0000
3743.00,0.0000
3742.00,-0.0000
3741.00,0.0000
3740.00,0.0000
3739.00,0.0000
3738.00,0.0001
3737.00,0.0001
3736.00,0.0001
3735.00,0.0001
3734.00,0.0001
3733.00,0.0001
3732.00,0.0001
3731.00,0.0001
3730.00,0.0001
3729.00,0.0001
3728.00,0.0001
3727.00,0.0001
3726.00,0.0001
3725.00,0.0001
3724.00,0.0001
3723.00,0.0001
3722.00,0.0001
3721.00,0.0001
3720.00,0.0001
3719.00,0.0001
3718.00,0.0001
3717.00,0.0001
3716.00,0.0001
3715.00,0.0001
3714.00,0.0001
3713.00,0.0001
3712.00,0.0001
3711.00,0.0001
3710.00,0.0001
3709.00,0.0001
3708.00,0.0001
3707.00,0.0001
3706.00,0.0001
3705.00,0.0001
3704.00,0.0001
3703.00,0.0001
3702.00,0.0001
3701.00,0.0001
3700.00,0.0001
3699.00,0.0001
3698.00,0.0001
3697.00,0.0001
3696.00,0.0001
3695.00,0.0001
3694.00,0.0001
3693.00,0.0001
3692.00,0.0001
3691.00,0.0001
3690.00,0.0001
3689.00,0.0001
3688.00,0.0001
3687.00,0.0001
3686.00,0.0001
3685.00,0.0001
3684.00,0.0001
3683.00,0.0001
3682.00,0.0001
3681.00,0.0001
3680.00,0.0001
3679.00,0.0001
3678.00,0.0001
3677.00,0.0000
3676.00,0.0000
3675.00,0.0000
3674.00,-0.0000
3673.00,-0.0000
3672.00,-0.0000
3671.00,-0.0000
3670.00,0.0000
3669.00,0.0000
3668.00,0.0000
3667.00,0.0001
3666.00,0.0001
3665.00,0.0001
3664.00,0.0001
3663.00,0.0001
3662.00,0.0002
3661.00,0.0002
3660.00,0.0002
3659.00,0.0002
3658.00,0.0002
3657.00,0.0002
3656.00,0.0003
3655.00,0.0003
3654.00,0.0003
3653.00,0.0003
3652.00,0.0003
3651.00,0.0003
3650.00,0.0004
3649.00,0.0004
3648.00,0.0004
3647.00,0.0005
3646.00,0.0006
3645.00,0.0006
3644.00,0.0007
3643.00,0.0008
3642.00,0.0008
3641.00,0.0009
3640.00,0.0009
3639.00,0.0010
3638.00,0.0010
3637.00,0.0011
3636.00,0.0011
3635.00,0.0012
3634.00,0.0012
3633.00,0.0013
3632.00,0.0014
3631.00,0.0014
3630.00,0.0014
3629.00,0.0014
3628.00,0.0015
3627.00,0.0015
3626.00,0.0016
3625.00,0.0016
3624.00,0.0017
3623.00,0.0017
3622.00,0.0018
3621.00,0.0018
3620.00,0.0019
3619.00,0.0019
3618.00,0.0019
3617.00,0.0019
3616.00,0.0020
3615.00,0.0020
3614.00,0.0021
3613.00,0.0021
3612.00,0.0022
3611.00,0.0022
3610.00,0.0023
3609.00,0.0023
3608.00,0.0023
3607.00,0.0024
3606.00,0.0024
3605.00,0.0025
3604.00,0.0026
3603.00,0.0026
3602.00,0.0027
3601.00,0.0027
3600.00,0.0028
3599.00,0.0028
3598.00,0.0028
3597.00,0.0028
3596.00,0.0029
3595.00,0.0029
3594.00,0.0029
3593.00,0.0030
3592.00,0.0031
3591.00,0.0031
3590.00,0.0032
3589.00,0.0032
3588.00,0.0032
3587.00,0.0032
3586.00,0.0032
3585.00,0.0033
3584.00,0.0034
3583.00,0.0034
3582.00,0.0035
3581.00,0.0035
3580.00,0.0036
3579.00,0.0036
3578.00,0.0037
3577.00,0.0037
3576.00,0.0038
3575.00,0.0038
3574.00,0.0039
3573.00,0.0039
3572.00,0.0040
3571.00,0.0041
3570.00,0.0041
3569.00,0.0041
3568.00,0.0041
3567.00,0.0041
3566.00,0.0041
3565.00,0.0042
3564.00,0.0043
3563.00,0.0043
3562.00,0.0044
3561.00,0.0045
3560.00,0.0045
3559.00,0.0046
3558.00,0.0046
3557.00,0.0047
3556.00,0.0047
3555.00,0.0048
3554.00,0.0048
3553.00,0.0049
3552.00,0.0049
3551.00,0.0050
3550.00,0.0050
3549.00,0.0051
3548.00,0.0051
3547.00,0.0051
3546.00,0.0051
3545.00,0.0052
3544.00,0.0052
3543.00,0.0053
3542.00,0.0053
3541.00,0.0054
3540.00,0.0054
3539.00,0.0055
3538.00,0.0055
3537.00,0.0056
3536.00,0.0056
3535.00,0.0057
3534.00,0.0057
3533.00,0.0057
3532.00,0.0058
3531.00,0.0058
3530.00,0.0059
3529.00,0.0059
3528.00,0.0060
3527.00,0.0060
3526.00,0.0060
3525.00,0.0061
3524.00,0.0061
3523.00,0.0062
3522.00,0.0062
3521.00,0.0062
3520.00,0.0063
3519.00,0.0063
3518.00,0.0064
3517.00,0.0064
3516.00,0.0065
3515.00,0.0065
3514.00,0.0066
3513.00,0.0066
3512.00,0.0066
3511.00,0.0067
3510.00,0.0067
3509.00,0.0067
3508.00,0.0067
3507.00,0.0068
3506.00,0.0068
3505.00,0.0069
3504.00,0.0069
3503.00,0.0070
3502.00,0.0070
3501.00,0.0070
3500.00,0.0070
3499.00,0.0071
3498.00,0.0071
3497.00,0.0072
3496.00,0.0072
3495.00,0.0072
3494.00,0.0073
3493.00,0.0073
3492.00,0.0074
3491.00,0.0074
3490.00,0.0074
3489.00,0.0075
3488.00,0.0075
3487.00,0.0075
3486.00,0.0076
3485.00,0.0076
3484.00,0.0076
3483.00,0.0077
3482.00,0.0077
3481.00,0.0077
3480.00,0.0077
3479.00,0.0078
3478.00,0.0078
3477.00,0.0078
3476.00,0.0079
3475.00,0.0079
3474.00,0.0079
3473.00,0.0080
3472.00,0.0080
3471.00,0.0080
3470.00,0.0081
3469.00,0.0081
3468.00,0.0082
3467.00,0.0082
3466.00,0.0082
3465.00,0.0082
3464.00,0.0083
3463.00,0.0083
3462.00,0.0083
3461.00,0.0083
3460.00,0.0084
3459.00,0.0084
3458.00,0.0084
3457.00,0.0084
3456.00,0.0085
3455.00,0.0085
3454.00,0.0085
3453.00,0.0086
3452.00,0.0086
3451.00,0.0087
3450.00,0.0087
3449.00,0.0087
3448.00,0.0088
3447.00,0.0088
3446.00,0.0088
3445.00,0.0088
3444.00,0.0089
3443.00,0.0089
3442.00,0.0090
3441.00,0.0090
3440.00,0.0091
3439.00,0.0091
3438.00,0.0092
3437.00,0.0092
3436.00,0.0093
3435.00,0.0093
3434.00,0.0093
3433.00,0.0094
3432.00,0.0094
3431.00,0.0095
3430.00,0.0095
3429.00,0.0096
3428.00,0.0096
3427.00,0.0097
3426.00,0.0097
3425.00,0.0098
3424.00,0.0098
3423.00,0.0099
3422.00,0.0099
3421.00,0.0100
3420.00,0.0100
3419.00,0.0101
3418.00,0.0101
3417.00,0.0102
3416.00,0.0102
3415.00,0.0103
3414.00,0.0103
3413.00,0.0104
3412.00,0.0104
3411.00,0.0105
3410.00,0.0106
3409.00,0.0106
3408.00,0.0107
3407.00,0.0107
3406.00,0.0108
3405.00,0.0109
3404.00,0.0109
3403.00,0.0110
3402.00,0.0110
3401.00,0.0111
3400.00,0.0111
3399.00,0.0112
3398.00,0.0112
3397.00,0.0113
3396.00,0.0113
3395.00,0.0114
3394.00,0.0114
3393.00,0.0115
3392.00,0.0115
3391.00,0.0116
3390.00,0.0116
3389.00,0.0117
3388.00,0.0117
3387.00,0.0118
3386.00,0.0118
3385.00,0.0119
3384.00,0.0119
3383.00,0.0120
3382.00,0.0121
3381.00,0.0121
3380.00,0.0122
3379.00,0.0122
3378.00,0.0123
3377.00,0.0124
3376.00,0.0124
3375.00,0.0125
3374.00,0.0126
3373.00,0.0127
3372.00,0.0127
3371.00,0.0128
3370.00,0.0129
3369.00,0.0130
3368.00,0.0131
3367.00,0.0131
3366.00,0.0132
3365.00,0.0133
3364.00,0.0134
3363.00,0.0135
3362.00,0.0136
3361.00,0.0137
3360.00,0.0138
3359.00,0.0139
3358.00,0.0140
3357.00,0.0141
3356.00,0.0142
3355.00,0.0143
3354.00,0.0144
3353.00,0.0145
3352.00,0.0146
3351.00,0.0148
3350.00,0.0149
3349.00,0.0150
3348.00,0.0151
3347.00,0.0153
3346.00,0.0154
3345.00,0.0156
3344.00,0.0157
3343.00,0.0158
3342.00,0.0160
3341.00,0.0162
3340.00,0.0163
3339.00,0.0165
3338.00,0.0167
3337.00,0.0168
3336.00,0.0170
3335.00,0.0172
3334.00,0.0174
3333.00,0.0176
3332.00,0.0178
3331.00,0.0180
3330.00,0.0182
3329.00,0.0184
3328.00,0.0186
3327.00,0.0188
3326.00,0.0190
3325.00,0.0192
3324.00,0.0195
3323.00,0.0197
3322.00,0.0199
3321.00,0.0201
3320.00,0.0204
3319.00,0.0206
3318.00,0.0208
3317.00,0.0211
3316.00,0.0213
3315.00,0.0216
3314.00,0.0218
3313.00,0.0221
3312.00,0.0223
3311.00,0.0226
3310.00,0.0228
3309.00,0.0230
3308.00,0.0233
3307.00,0.0235
3306.00,0.0237
3305.00,0.0240
3304.00,0.0242
3303.00,0.0245
3302.00,0.0247
3301.00,0.0249
3300.00,0.0251
3299.00,0.0254
3298.00,0.0255
3297.00,0.0257
3296.00,0.0259
3295.00,0.0261
3294.00,0.0263
3293.00,0.0264
3292.00,0.0265
3291.00,0.0266
3290.00,0.0267
3289.00,0.0268
3288.00,0.0269
3287.00,0.0269
3286.00,0.0270
3285.00,0.0270
3284.00,0.0269
3283.00,0.0269
3282.00,0.0269
3281.00,0.0268
3280.00,0.0268
3279.00,0.0267
3278.00,0.0265
3277.00,0.0264
3276.00,0.0262
3275.00,0.0261
3274.00,0.0259
3273.00,0.0257
3272.00,0.0255
3271.00,0.0253
3270.00,0.0251
3269.00,0.0249
3268.00,0.0246
3267.00,0.0244
3266.00,0.0242
3265.00,0.0239
3264.00,0.0237
3263.00,0.0235
3262.00,0.0232
3261.00,0.0230
3260.00,0.0228
3259.00,0.0226
3258.00,0.0223
3257.00,0.0221
3256.00,0.0219
3255.00,0.0216
3254.00,0.0214
3253.00,0.0213
3252.00,0.0211
3251.00,0.0209
3250.00,0.0207
3249.00,0.0205
3248.00,0.0203
3247.00,0.0202
3246.00,0.0200
3245.00,0.0198
3244.00,0.0196
3243.00,0.0195
3242.00,0.0193
3241.00,0.0192
3240.00,0.0190
3239.00,0.0189
3238.00,0.0187
3237.00,0.0186
3236.00,0.0185
3235.00,0.0183
3234.00,0.0182
3233.00,0.0180
3232.00,0.0179
3231.00,0.0178
3230.00,0.0176
3229.00,0.0175
3228.00,0.0174
3227.00,0.0173
3226.00,0.0171
3225.00,0.0170
3224.00,0.0169
3223.00,0.0168
3222.00,0.0167
3221.00,0.0166
3220.00,0.0165
3219.00,0.0164
3218.00,0.0163
3217.00,0.0162
3216.00,0.0161
3215.00,0.0159
3214.00,0.0158
3213.00,0.0157
3212.00,0.0156
3211.00,0.0155
3210.00,0.0154
3209.00,0.0153
3208.00,0.0152
3207.00,0.0150
3206.00,0.0149
3205.00,0.0148
3204.00,0.0147
3203.00,0.0146
3202.00,0.0145
3201.00,0.0144
3200.00,0.0143
3199.00,0.0142
3198.00,0.0141
3197.00,0.0140
3196.00,0.0139
3195.00,0.0137
3194.00,0.0136
3193.00,0.0135
3192.00,0.0134
3191.00,0.0133
3190.00,0.0132
3189.00,0.0131
3188.00,0.0130
3187.00,0.0129
3186.00,0.0127
3185.00,0.0126
3184.00,0.0125
3183.00,0.0124
3182.00,0.0123
3181.00,0.0122
3180.00,0.0121
3179.00,0.0120
3178.00,0.0119
3177.00,0.0118
3176.00,0.0117
3175.00,0.0116
3174.00,0.0115
3173.00,0.0113
3172.00,0.0112
3171.00,0.0111
3170.00,0.0111
3169.00,0.0110
3168.00,0.0109
3167.00,0.0108
3166.00,0.0107
3165.00,0.0106
3164.00,0.0105
3163.00,0.0104
3162.00,0.0103
3161.00,0.0102
3160.00,0.0101
3159.00,0.0101
3158.00,0.0100
3157.00,0.0099
3156.00,0.0098
3155.00,0.0097
3154.00,0.0096
3153.00,0.0095
3152.00,0.0095
3151.00,0.0094
3150.00,0.0093
3149.00,0.0093
3148.00,0.0092
3147.00,0.0091
3146.00,0.0091
3145.00,0.0090
3144.00,0.0090
3143.00,0.0089
3142.00,0.0088
3141.00,0.0088
3140.00,0.0087
3139.00,0.0087
3138.00,0.0086
3137.00,0.0086
3136.00,0.0086
3135.00,0.0085
3134.00,0.0085
3133.00,0.0085
3132.00,0.0084
3131.00,0.0084
3130.00,0.0084
3129.00,0.0083
3128.00,0.0083
3127.00,0.0083
3126.00,0.0083
3125.00,0.0082
3124.00,0.0082
3123.00,0.0082
3122.00,0.0082
3121.00,0.0082
3120.00,0.0081
3119.00,0.0081
3118.00,0.0081
3117.00,0.0081
3116.00,0.0081
3115.00,0.0082
3114.00,0.0082
3113.00,0.0082
3112.00,0.0082
3111.00,0.0082
3110.00,0.0082
3109.00,0.0082
3108.00,0.0083
3107.00,0.0083
3106.00,0.0083
3105.00,0.0083
3104.00,0.0084
3103.00,0.0084
3102.00,0.0084
3101.00,0.0084
3100.00,0.0085
3099.00,0.0085
3098.00,0.0085
3097.00,0.0085
3096.00,0.0086
3095.00,0.0086
3094.00,0.0086
3093.00,0.0086
3092.00,0.0087
3091.00,0.0087
3090.00,0.0087
3089.00,0.0087
3088.00,0.0087
3087.00,0.0088
3086.00,0.0088
3085.00,0.0088
3084.00,0.0088
3083.00,0.0089
3082.00,0.0089
3081.00,0.0089
3080.00,0.0089
3079.00,0.0089
3078.00,0.0090
3077.00,0.0090
3076.00,0.0090
3075.00,0.0090
3074.00,0.0090
3073.00,0.0090
3072.00,0.0090
3071.00,0.0090
3070.00,0.0089
3069.00,0.0089
3068.00,0.0089
3067.00,0.0088
3066.00,0.0088
3065.00,0.0087
3064.00,0.0087
3063.00,0.0087
3062.00,0.0086
3061.00,0.0086
3060.00,0.0086
3059.00,0.0085
3058.00,0.0084
3057.00,0.0084
3056.00,0.0083
3055.00,0.0082
3054.00,0.0081
3053.00,0.0081
3052.00,0.0080
3051.00,0.0079
3050.00,0.0078
3049.00,0.0078
3048.00,0.0077
3047.00,0.0077
3046.00,0.0076
3045.00,0.0075
3044.00,0.0074
3043.00,0.0074
3042.00,0.0073
3041.00,0.0072
3040.00,0.0072
3039.00,0.0071
3038.00,0.0070
3037.00,0.0070
3036.00,0.0069
3035.00,0.0068
3034.00,0.0067
3033.00,0.0067
3032.00,0.0066
3031.00,0.0066
3030.00,0.0065
3029.00,0.0064
3028.00,0.0064
3027.00,0.0063
3026.00,0.0063
3025.00,0.0062
3024.00,0.0062
3023.00,0.0061
3022.00,0.0061
3021.00,0.0060
3020.00,0.0059
3019.00,0.0058
3018.00,0.0057
3017.00,0.0057
3016.00,0.0056
3015.00,0.0055
3014.00,0.0054
3013.00,0.0053
3012.00,0.0053
3011.00,0.0052
3010.00,0.0051
3009.00,0.0050
3008.00,0.0049
3007.00,0.0048
3006.00,0.0047
3005.00,0.0045
3004.00,0.0044
3003.00,0.0043
3002.00,0.0042
3001.00,0.0041
3000.00,0.0040
2999.00,0.0039
2998.00,0.0039
2997.00,0.0038
2996.00,0.0038
2995.00,0.0038
2994.00,0.0038
2993.00,0.0038
2992.00,0.0038
2991.00,0.0038
2990.00,0.0039
2989.00,0.0039
2988.00,0.0039
2987.00,0.0039
2986.00,0.0038
2985.00,0.0035
2984.00,0.0032
2983.00,0.0029
2982.00,0.0027
2981.00,0.0027
2980.00,0.0028
2979.00,0.0031
2978.00,0.0033
2977.00,0.0036
2976.00,0.0038
2975.00,0.0039
2974.00,0.0039
2973.00,0.0039
2972.00,0.0040
2971.00,0.0040
2970.00,0.0042
2969.00,0.0044
2968.00,0.0046
2967.00,0.0048
2966.00,0.0049
2965.00,0.0050
2964.00,0.0052
2963.00,0.0053
2962.00,0.0053
2961.00,0.0054
2960.00,0.0055
2959.00,0.0055
2958.00,0.0055
2957.00,0.0056
2956.00,0.0056
2955.00,0.0057
2954.00,0.0057
2953.00,0.0057
2952.00,0.0058
2951.00,0.0058
2950.00,0.0059
2949.00,0.0059
2948.00,0.0060
2947.00,0.0061
2946.00,0.0063
2945.00,0.0064
2944.00,0.0066
2943.00,0.0068
2942.00,0.0069
2941.00,0.0071
2940.00,0.0072
2939.00,0.0074
2938.00,0.0075
2937.00,0.0077
2936.00,0.0079
2935.00,0.0080
2934.00,0.0081
2933.00,0.0083
2932.00,0.0084
2931.00,0.0085
2930.00,0.0087
2929.00,0.0089
2928.00,0.0090
2927.00,0.0092
2926.00,0.0094
2925.00,0.0096
2924.00,0.0098
2923.00,0.0100
2922.00,0.0102
2921.00,0.0103
2920.00,0.0105
2919.00,0.0106
2918.00,0.0105
2917.00,0.0104
2916.00,0.0101
2915.00,0.0098
2914.00,0.0093
2913.00,0.0088
2912.00,0.0083
2911.00,0.0078
2910.00,0.0074
2909.00,0.0071
2908.00,0.0068
2907.00,0.0065
2906.00,0.0063
2905.00,0.0062
2904.00,0.0060
2903.00,0.0059
2902.00,0.0057
2901.00,0.0056
2900.00,0.0055
2899.00,0.0054
2898.00,0.0053
2897.00,0.0052
2896.00,0.0051
2895.00,0.0049
2894.00,0.0048
2893.00,0.0047
2892.00,0.0046
2891.00,0.0045
2890.00,0.0045
2889.00,0.0044
2888.00,0.0044
2887.00,0.0043
2886.00,0.0043
2885.00,0.0043
2884.00,0.0043
2883.00,0.0043
2882.00,0.0044
2881.00,0.0044
2880.00,0.0045
2879.00,0.0046
2878.00,0.0047
2877.00,0.0047
2876.00,0.0047
2875.00,0.0048
2874.00,0.0048
2873.00,0.0048
2872.00,0.0048
2871.00,0.0047
2870.00,0.0047
2869.00,0.0047
2868.00,0.0046
2867.00,0.0046
2866.00,0.0045
2865.00,0.0045
2864.00,0.0046
2863.00,0.0046
2862.00,0.0046
2861.00,0.0047
2860.00,0.0048
2859.00,0.0049
2858.00,0.0051
2857.00,0.0052
2856.00,0.0054
2855.00,0.0057
2854.00,0.0060
2853.00,0.0063
2852.00,0.0065
2851.00,0.0067
2850.00,0.0068
2849.00,0.0067
2848.00,0.0064
2847.00,0.0060
2846.00,0.0056
2845.00,0.0052
2844.00,0.0048
2843.00,0.0045
2842.00,0.0042
2841.00,0.0040
2840.00,0.0039
2839.00,0.0037
2838.00,0.0036
2837.00,0.0035
2836.00,0.0034
2835.00,0.0034
2834.00,0.0033
2833.00,0.0032
2832.00,0.0032
2831.00,0.0032
2830.00,0.0031
2829.00,0.0031
2828.00,0.0031
2827.00,0.0031
2826.00,0.0030
2825.00,0.0030
2824.00,0.0030
2823.00,0.0030
2822.00,0.0029
2821.00,0.0029
2820.00,0.0029
2819.00,0.0029
2818.00,0.0029
2817.00,0.0029
2816.00,0.0029
2815.00,0.0028
2814.00,0.0028
2813.00,0.0028
2812.00,0.0028
2811.00,0.0028
2810.00,0.0027
2809.00,0.0027
2808.00,0.0027
2807.00,0.0027
2806.00,0.0027
2805.00,0.0026
2804.00,0.0026
2803.00,0.0026
2802.00,0.0026
2801.00,0.0026
2800.00,0.0026
2799.00,0.0025
2798.00,0.0025
2797.00,0.0025
2796.00,0.0025
2795.00,0.0024
2794.00,0.0024
2793.00,0.0024
2792.00,0.0024
2791.00,0.0024
2790.00,0.0023
2789.00,0.0023
2788.00,0.0023
2787.00,0.0023
2786.00,0.0023
2785.00,0.0023
2784.00,0.0022
2783.00,0.0022
2782.00,0.0022
2781.00,0.0022
2780.00,0.0022
2779.00,0.0022
2778.00,0.0022
2777.00,0.0021
2776.00,0.0021
2775.00,0.0021
2774.00,0.0021
2773.00,0.0021
2772.00,0.0021
2771.00,0.0021
2770.00,0.0020
2769.00,0.0020
2768.00,0.0020
2767.00,0.0020
2766.00,0.0020
2765.00,0.0020
2764.00,0.0019
2763.00,0.0019
2762.00,0.0019
2761.00,0.0019
2760.00,0.0019
2759.00,0.0019
2758.00,0.0019
2757.00,0.0019
