Created as New Dataset,Sample 196 By YargerLab Date Sunday, June 09 2024
cm-1,A
4000.00,0.0085
3999.00,0.0085
3998.00,0.0085
3997.00,0.0085
3996.00,0.0085
3995.00,0.0085
3994.00,0.0085
3993.00,0.0085
3992.00,0.0085
3991.00,0.0085
3990.00,0.0085
3989.00,0.0085
3988.00,0.0085
3987.00,0.0085
3986.00,0.0085
3985.00,0.0085
3984.00,0.0085
3983.00,0.0085
3982.00,0.0085
3981.00,0.0085
3980.00,0.0085
3979.00,0.0085
3978.00,0.0085
3977.00,0.0085
3976.00,0.0085
3975.00,0.0085
3974.00,0.0085
3973.00,0.0085
3972.00,0.0085
3971.00,0.0085
3970.00,0.0085
3969.00,0.0085
3968.00,0.0085
3967.00,0.0085
3966.00,0.0085
3965.00,0.0085
3964.00,0.0085
3963.00,0.0085
3962.00,0.0085
3961.00,0.0085
3960.00,0.0085
3959.00,0.0085
3958.00,0.0085
3957.00,0.0085
3956.00,0.0085
3955.00,0.0085
3954.00,0.0085
3953.00,0.0085
3952.00,0.0085
3951.00,0.0085
3950.00,0.0084
3949.00,0.0084
3948.00,0.0083
3947.00,0.0083
3946.00,0.0083
3945.00,0.0083
3944.00,0.0084
3943.00,0.0084
3942.00,0.0084
3941.00,0.0084
3940.00,0.0084
3939.00,0.0084
3938.00,0.0084
3937.00,0.0084
3936.00,0.0083
3935.00,0.0083
3934.00,0.0082
3933.00,0.0082
3932.00,0.0083
3931.00,0.0083
3930.00,0.0083
3929.00,0.0083
3928.00,0.0084
3927.00,0.0084
3926.00,0.0084
3925.00,0.0084
3924.00,0.0084
3923.00,0.0084
3922.00,0.0083
3921.00,0.0082
3920.00,0.0081
3919.00,0.0081
3918.00,0.0081
3917.00,0.0081
3916.00,0.0082
3915.00,0.0083
3914.00,0.0083
3913.00,0.0083
3912.00,0.0084
3911.00,0.0084
3910.00,0.0084
3909.00,0.0084
3908.00,0.0084
3907.00,0.0083
3906.00,0.0082
3905.00,0.0081
3904.00,0.0079
3903.00,0.0078
3902.00,0.0076
3901.00,0.0077
3900.00,0.0078
3899.00,0.0079
3898.00,0.0080
3897.00,0.0081
3896.00,0.0081
3895.00,0.0081
3894.00,0.0081
3893.00,0.0082
3892.00,0.0082
3891.00,0.0082
3890.00,0.0081
3889.00,0.0080
3888.00,0.0079
3887.00,0.0078
3886.00,0.0078
3885.00,0.0079
3884.00,0.0080
3883.00,0.0079
3882.00,0.0079
3881.00,0.0079
3880.00,0.0079
3879.00,0.0079
3878.00,0.0079
3877.00,0.0079
3876.00,0.0078
3875.00,0.0079
3874.00,0.0080
3873.00,0.0080
3872.00,0.0079
3871.00,0.0077
3870.00,0.0077
3869.00,0.0077
3868.00,0.0078
3867.00,0.0077
3866.00,0.0076
3865.00,0.0076
3864.00,0.0077
3863.00,0.0078
3862.00,0.0077
3861.00,0.0077
3860.00,0.0077
3859.00,0.0078
3858.00,0.0080
3857.00,0.0082
3856.00,0.0082
3855.00,0.0082
3854.00,0.0082
3853.00,0.0081
3852.00,0.0080
3851.00,0.0079
3850.00,0.0078
3849.00,0.0077
3848.00,0.0077
3847.00,0.0077
3846.00,0.0077
3845.00,0.0077
3844.00,0.0077
3843.00,0.0076
3842.00,0.0076
3841.00,0.0076
3840.00,0.0076
3839.00,0.0076
3838.00,0.0076
3837.00,0.0077
3836.00,0.0077
3835.00,0.0077
3834.00,0.0077
3833.00,0.0076
3832.00,0.0076
3831.00,0.0076
3830.00,0.0076
3829.00,0.0077
3828.00,0.0077
3827.00,0.0077
3826.00,0.0077
3825.00,0.0077
3824.00,0.0075
3823.00,0.0074
3822.00,0.0074
3821.00,0.0075
3820.00,0.0076
3819.00,0.0075
3818.00,0.0075
3817.00,0.0075
3816.00,0.0076
3815.00,0.0078
3814.00,0.0079
3813.00,0.0079
3812.00,0.0079
3811.00,0.0079
3810.00,0.0079
3809.00,0.0078
3808.00,0.0078
3807.00,0.0077
3806.00,0.0077
3805.00,0.0076
3804.00,0.0075
3803.00,0.0074
3802.00,0.0075
3801.00,0.0076
3800.00,0.0077
3799.00,0.0076
3798.00,0.0075
3797.00,0.0075
3796.00,0.0076
3795.00,0.0078
3794.00,0.0078
3793.00,0.0079
3792.00,0.0080
3791.00,0.0080
3790.00,0.0081
3789.00,0.0081
3788.00,0.0081
3787.00,0.0081
3786.00,0.0080
3785.00,0.0080
3784.00,0.0080
3783.00,0.0079
3782.00,0.0078
3781.00,0.0078
3780.00,0.0078
3779.00,0.0078
3778.00,0.0079
3777.00,0.0079
3776.00,0.0079
3775.00,0.0079
3774.00,0.0079
3773.00,0.0079
3772.00,0.0078
3771.00,0.0077
3770.00,0.0077
3769.00,0.0076
3768.00,0.0076
3767.00,0.0076
3766.00,0.0075
3765.00,0.0076
3764.00,0.0076
3763.00,0.0076
3762.00,0.0075
3761.00,0.0074
3760.00,0.0074
3759.00,0.0075
3758.00,0.0074
3757.00,0.0074
3756.00,0.0074
3755.00,0.0073
3754.00,0.0072
3753.00,0.0071
3752.00,0.0070
3751.00,0.0069
3750.00,0.0068
3749.00,0.0068
3748.00,0.0068
3747.00,0.0068
3746.00,0.0067
3745.00,0.0068
3744.00,0.0069
3743.00,0.0070
3742.00,0.0070
3741.00,0.0068
3740.00,0.0067
3739.00,0.0066
3738.00,0.0065
3737.00,0.0065
3736.00,0.0065
3735.00,0.0067
3734.00,0.0067
3733.00,0.0068
3732.00,0.0069
3731.00,0.0070
3730.00,0.0072
3729.00,0.0072
3728.00,0.0072
3727.00,0.0072
3726.00,0.0073
3725.00,0.0073
3724.00,0.0073
3723.00,0.0073
3722.00,0.0074
3721.00,0.0074
3720.00,0.0075
3719.00,0.0075
3718.00,0.0075
3717.00,0.0075
3716.00,0.0075
3715.00,0.0074
3714.00,0.0073
3713.00,0.0072
3712.00,0.0072
3711.00,0.0072
3710.00,0.0072
3709.00,0.0072
3708.00,0.0073
3707.00,0.0074
3706.00,0.0074
3705.00,0.0075
3704.00,0.0075
3703.00,0.0076
3702.00,0.0077
3701.00,0.0077
3700.00,0.0077
3699.00,0.0077
3698.00,0.0077
3697.00,0.0077
3696.00,0.0077
3695.00,0.0077
3694.00,0.0076
3693.00,0.0075
3692.00,0.0075
3691.00,0.0075
3690.00,0.0075
3689.00,0.0074
3688.00,0.0073
3687.00,0.0073
3686.00,0.0074
3685.00,0.0074
3684.00,0.0074
3683.00,0.0074
3682.00,0.0074
3681.00,0.0074
3680.00,0.0074
3679.00,0.0074
3678.00,0.0073
3677.00,0.0071
3676.00,0.0070
3675.00,0.0071
3674.00,0.0071
3673.00,0.0070
3672.00,0.0069
3671.00,0.0070
3670.00,0.0072
3669.00,0.0074
3668.00,0.0074
3667.00,0.0075
3666.00,0.0075
3665.00,0.0076
3664.00,0.0077
3663.00,0.0077
3662.00,0.0078
3661.00,0.0078
3660.00,0.0078
3659.00,0.0078
3658.00,0.0077
3657.00,0.0076
3656.00,0.0076
3655.00,0.0076
3654.00,0.0075
3653.00,0.0073
3652.00,0.0071
3651.00,0.0070
3650.00,0.0070
3649.00,0.0069
3648.00,0.0069
3647.00,0.0070
3646.00,0.0072
3645.00,0.0073
3644.00,0.0075
3643.00,0.0076
3642.00,0.0078
3641.00,0.0079
3640.00,0.0080
3639.00,0.0080
3638.00,0.0080
3637.00,0.0079
3636.00,0.0079
3635.00,0.0078
3634.00,0.0078
3633.00,0.0078
3632.00,0.0078
3631.00,0.0077
3630.00,0.0076
3629.00,0.0075
3628.00,0.0075
3627.00,0.0076
3626.00,0.0076
3625.00,0.0076
3624.00,0.0077
3623.00,0.0078
3622.00,0.0078
3621.00,0.0079
3620.00,0.0079
3619.00,0.0080
3618.00,0.0079
3617.00,0.0078
3616.00,0.0077
3615.00,0.0076
3614.00,0.0076
3613.00,0.0077
3612.00,0.0077
3611.00,0.0076
3610.00,0.0076
3609.00,0.0077
3608.00,0.0079
3607.00,0.0080
3606.00,0.0081
3605.00,0.0082
3604.00,0.0082
3603.00,0.0083
3602.00,0.0083
3601.00,0.0084
3600.00,0.0084
3599.00,0.0084
3598.00,0.0084
3597.00,0.0084
3596.00,0.0084
3595.00,0.0084
3594.00,0.0085
3593.00,0.0085
3592.00,0.0084
3591.00,0.0084
3590.00,0.0083
3589.00,0.0083
3588.00,0.0084
3587.00,0.0085
3586.00,0.0086
3585.00,0.0086
3584.00,0.0086
3583.00,0.0087
3582.00,0.0088
3581.00,0.0089
3580.00,0.0090
3579.00,0.0090
3578.00,0.0091
3577.00,0.0091
3576.00,0.0091
3575.00,0.0092
3574.00,0.0092
3573.00,0.0092
3572.00,0.0092
3571.00,0.0091
3570.00,0.0090
3569.00,0.0089
3568.00,0.0089
3567.00,0.0089
3566.00,0.0090
3565.00,0.0090
3564.00,0.0091
3563.00,0.0091
3562.00,0.0092
3561.00,0.0093
3560.00,0.0094
3559.00,0.0095
3558.00,0.0095
3557.00,0.0096
3556.00,0.0096
3555.00,0.0096
3554.00,0.0097
3553.00,0.0097
3552.00,0.0097
3551.00,0.0097
3550.00,0.0096
3549.00,0.0096
3548.00,0.0096
3547.00,0.0096
3546.00,0.0097
3545.00,0.0098
3544.00,0.0098
3543.00,0.0099
3542.00,0.0099
3541.00,0.0100
3540.00,0.0100
3539.00,0.0101
3538.00,0.0102
3537.00,0.0102
3536.00,0.0102
3535.00,0.0102
3534.00,0.0102
3533.00,0.0102
3532.00,0.0103
3531.00,0.0103
3530.00,0.0103
3529.00,0.0103
3528.00,0.0103
3527.00,0.0103
3526.00,0.0103
3525.00,0.0103
3524.00,0.0104
3523.00,0.0104
3522.00,0.0105
3521.00,0.0105
3520.00,0.0106
3519.00,0.0106
3518.00,0.0107
3517.00,0.0107
3516.00,0.0108
3515.00,0.0108
3514.00,0.0108
3513.00,0.0108
3512.00,0.0109
3511.00,0.0109
3510.00,0.0109
3509.00,0.0109
3508.00,0.0110
3507.00,0.0110
3506.00,0.0110
3505.00,0.0110
3504.00,0.0110
3503.00,0.0111
3502.00,0.0111
3501.00,0.0112
3500.00,0.0112
3499.00,0.0112
3498.00,0.0113
3497.00,0.0113
3496.00,0.0114
3495.00,0.0114
3494.00,0.0115
3493.00,0.0115
3492.00,0.0115
3491.00,0.0116
3490.00,0.0116
3489.00,0.0116
3488.00,0.0117
3487.00,0.0117
3486.00,0.0117
3485.00,0.0117
3484.00,0.0118
3483.00,0.0118
3482.00,0.0119
3481.00,0.0119
3480.00,0.0120
3479.00,0.0120
3478.00,0.0120
3477.00,0.0121
3476.00,0.0121
3475.00,0.0122
3474.00,0.0122
3473.00,0.0123
3472.00,0.0123
3471.00,0.0124
3470.00,0.0124
3469.00,0.0124
3468.00,0.0125
3467.00,0.0125
3466.00,0.0125
3465.00,0.0126
3464.00,0.0126
3463.00,0.0126
3462.00,0.0127
3461.00,0.0127
3460.00,0.0127
3459.00,0.0128
3458.00,0.0128
3457.00,0.0129
3456.00,0.0129
3455.00,0.0129
3454.00,0.0130
3453.00,0.0130
3452.00,0.0130
3451.00,0.0131
3450.00,0.0131
3449.00,0.0131
3448.00,0.0132
3447.00,0.0132
3446.00,0.0132
3445.00,0.0132
3444.00,0.0133
3443.00,0.0133
3442.00,0.0134
3441.00,0.0134
3440.00,0.0134
3439.00,0.0135
3438.00,0.0135
3437.00,0.0135
3436.00,0.0136
3435.00,0.0136
3434.00,0.0137
3433.00,0.0137
3432.00,0.0137
3431.00,0.0138
3430.00,0.0138
3429.00,0.0138
3428.00,0.0139
3427.00,0.0139
3426.00,0.0140
3425.00,0.0140
3424.00,0.0140
3423.00,0.0141
3422.00,0.0141
3421.00,0.0142
3420.00,0.0142
3419.00,0.0143
3418.00,0.0143
3417.00,0.0143
3416.00,0.0144
3415.00,0.0144
3414.00,0.0145
3413.00,0.0145
3412.00,0.0146
3411.00,0.0146
3410.00,0.0146
3409.00,0.0147
3408.00,0.0147
3407.00,0.0147
3406.00,0.0147
3405.00,0.0148
3404.00,0.0148
3403.00,0.0149
3402.00,0.0149
3401.00,0.0150
3400.00,0.0150
3399.00,0.0150
3398.00,0.0150
3397.00,0.0150
3396.00,0.0151
3395.00,0.0151
3394.00,0.0151
3393.00,0.0152
3392.00,0.0152
3391.00,0.0153
3390.00,0.0153
3389.00,0.0154
3388.00,0.0154
3387.00,0.0154
3386.00,0.0155
3385.00,0.0155
3384.00,0.0155
3383.00,0.0156
3382.00,0.0156
3381.00,0.0157
3380.00,0.0157
3379.00,0.0158
3378.00,0.0158
3377.00,0.0159
3376.00,0.0159
3375.00,0.0159
3374.00,0.0160
3373.00,0.0160
3372.00,0.0161
3371.00,0.0162
3370.00,0.0162
3369.00,0.0163
3368.00,0.0164
3367.00,0.0164
3366.00,0.0165
3365.00,0.0166
3364.00,0.0166
3363.00,0.0167
3362.00,0.0167
3361.00,0.0168
3360.00,0.0169
3359.00,0.0169
3358.00,0.0170
3357.00,0.0171
3356.00,0.0172
3355.00,0.0172
3354.00,0.0173
3353.00,0.0174
3352.00,0.0175
3351.00,0.0175
3350.00,0.0176
3349.00,0.0177
3348.00,0.0178
3347.00,0.0179
3346.00,0.0180
3345.00,0.0181
3344.00,0.0181
3343.00,0.0182
3342.00,0.0183
3341.00,0.0184
3340.00,0.0185
3339.00,0.0185
3338.00,0.0186
3337.00,0.0187
3336.00,0.0188
3335.00,0.0189
3334.00,0.0190
3333.00,0.0191
3332.00,0.0192
3331.00,0.0193
3330.00,0.0194
3329.00,0.0195
3328.00,0.0196
3327.00,0.0197
3326.00,0.0197
3325.00,0.0198
3324.00,0.0200
3323.00,0.0201
3322.00,0.0202
3321.00,0.0203
3320.00,0.0204
3319.00,0.0205
3318.00,0.0206
3317.00,0.0207
3316.00,0.0209
3315.00,0.0210
3314.00,0.0211
3313.00,0.0212
3312.00,0.0213
3311.00,0.0214
3310.00,0.0216
3309.00,0.0217
3308.00,0.0218
3307.00,0.0220
3306.00,0.0221
3305.00,0.0222
3304.00,0.0224
3303.00,0.0225
3302.00,0.0227
3301.00,0.0228
3300.00,0.0230
3299.00,0.0231
3298.00,0.0232
3297.00,0.0233
3296.00,0.0235
3295.00,0.0236
3294.00,0.0237
3293.00,0.0238
3292.00,0.0240
3291.00,0.0241
3290.00,0.0242
3289.00,0.0244
3288.00,0.0245
3287.00,0.0246
3286.00,0.0247
3285.00,0.0248
3284.00,0.0249
3283.00,0.0250
3282.00,0.0251
3281.00,0.0252
3280.00,0.0252
3279.00,0.0253
3278.00,0.0253
3277.00,0.0253
3276.00,0.0254
3275.00,0.0254
3274.00,0.0254
3273.00,0.0254
3272.00,0.0254
3271.00,0.0254
3270.00,0.0254
3269.00,0.0254
3268.00,0.0253
3267.00,0.0253
3266.00,0.0252
3265.00,0.0252
3264.00,0.0251
3263.00,0.0250
3262.00,0.0249
3261.00,0.0248
3260.00,0.0247
3259.00,0.0246
3258.00,0.0244
3257.00,0.0243
3256.00,0.0242
3255.00,0.0241
3254.00,0.0240
3253.00,0.0239
3252.00,0.0238
3251.00,0.0236
3250.00,0.0235
3249.00,0.0234
3248.00,0.0233
3247.00,0.0231
3246.00,0.0230
3245.00,0.0229
3244.00,0.0228
3243.00,0.0227
3242.00,0.0226
3241.00,0.0226
3240.00,0.0224
3239.00,0.0223
3238.00,0.0222
3237.00,0.0221
3236.00,0.0220
3235.00,0.0219
3234.00,0.0218
3233.00,0.0217
3232.00,0.0217
3231.00,0.0216
3230.00,0.0215
3229.00,0.0214
3228.00,0.0214
3227.00,0.0213
3226.00,0.0212
3225.00,0.0211
3224.00,0.0211
3223.00,0.0210
3222.00,0.0209
3221.00,0.0208
3220.00,0.0207
3219.00,0.0207
3218.00,0.0206
3217.00,0.0205
3216.00,0.0205
3215.00,0.0204
3214.00,0.0204
3213.00,0.0203
3212.00,0.0203
3211.00,0.0202
3210.00,0.0201
3209.00,0.0201
3208.00,0.0200
3207.00,0.0199
3206.00,0.0199
3205.00,0.0198
3204.00,0.0198
3203.00,0.0197
3202.00,0.0196
3201.00,0.0196
3200.00,0.0195
3199.00,0.0195
3198.00,0.0194
3197.00,0.0194
3196.00,0.0193
3195.00,0.0193
3194.00,0.0192
3193.00,0.0191
3192.00,0.0191
3191.00,0.0190
3190.00,0.0189
3189.00,0.0188
3188.00,0.0188
3187.00,0.0187
3186.00,0.0186
3185.00,0.0186
3184.00,0.0185
3183.00,0.0185
3182.00,0.0184
3181.00,0.0183
3180.00,0.0183
3179.00,0.0182
3178.00,0.0181
3177.00,0.0180
3176.00,0.0179
3175.00,0.0179
3174.00,0.0178
3173.00,0.0178
3172.00,0.0177
3171.00,0.0176
3170.00,0.0176
3169.00,0.0175
3168.00,0.0174
3167.00,0.0173
3166.00,0.0173
3165.00,0.0172
3164.00,0.0172
3163.00,0.0171
3162.00,0.0171
3161.00,0.0170
3160.00,0.0169
3159.00,0.0169
3158.00,0.0168
3157.00,0.0167
3156.00,0.0166
3155.00,0.0166
3154.00,0.0165
3153.00,0.0165
3152.00,0.0164
3151.00,0.0163
3150.00,0.0163
3149.00,0.0162
3148.00,0.0162
3147.00,0.0161
3146.00,0.0161
3145.00,0.0160
3144.00,0.0160
3143.00,0.0159
3142.00,0.0158
3141.00,0.0158
3140.00,0.0157
3139.00,0.0157
3138.00,0.0157
3137.00,0.0156
3136.00,0.0156
3135.00,0.0156
3134.00,0.0155
3133.00,0.0155
3132.00,0.0154
3131.00,0.0154
3130.00,0.0153
3129.00,0.0153
3128.00,0.0153
3127.00,0.0153
3126.00,0.0152
3125.00,0.0152
3124.00,0.0152
3123.00,0.0151
3122.00,0.0151
3121.00,0.0151
3120.00,0.0151
3119.00,0.0151
3118.00,0.0150
3117.00,0.0150
3116.00,0.0150
3115.00,0.0150
3114.00,0.0149
3113.00,0.0149
3112.00,0.0149
3111.00,0.0149
3110.00,0.0149
3109.00,0.0149
3108.00,0.0149
3107.00,0.0149
3106.00,0.0149
3105.00,0.0149
3104.00,0.0149
3103.00,0.0149
3102.00,0.0149
3101.00,0.0149
3100.00,0.0149
3099.00,0.0149
3098.00,0.0149
3097.00,0.0149
3096.00,0.0150
3095.00,0.0150
3094.00,0.0150
3093.00,0.0150
3092.00,0.0150
3091.00,0.0150
3090.00,0.0150
3089.00,0.0150
3088.00,0.0150
3087.00,0.0151
3086.00,0.0151
3085.00,0.0151
3084.00,0.0151
3083.00,0.0151
3082.00,0.0151
3081.00,0.0151
3080.00,0.0151
3079.00,0.0151
3078.00,0.0151
3077.00,0.0152
3076.00,0.0152
3075.00,0.0152
3074.00,0.0152
3073.00,0.0152
3072.00,0.0152
3071.00,0.0152
3070.00,0.0152
3069.00,0.0152
3068.00,0.0151
3067.00,0.0151
3066.00,0.0151
3065.00,0.0151
3064.00,0.0151
3063.00,0.0151
3062.00,0.0152
3061.00,0.0151
3060.00,0.0151
3059.00,0.0151
3058.00,0.0150
3057.00,0.0150
3056.00,0.0150
3055.00,0.0149
3054.00,0.0149
3053.00,0.0149
3052.00,0.0148
3051.00,0.0148
3050.00,0.0148
3049.00,0.0147
3048.00,0.0147
3047.00,0.0146
3046.00,0.0146
3045.00,0.0146
3044.00,0.0145
3043.00,0.0145
3042.00,0.0145
3041.00,0.0144
3040.00,0.0144
3039.00,0.0144
3038.00,0.0144
3037.00,0.0143
3036.00,0.0143
3035.00,0.0142
3034.00,0.0142
3033.00,0.0141
3032.00,0.0141
3031.00,0.0141
3030.00,0.0140
3029.00,0.0140
3028.00,0.0140
3027.00,0.0139
3026.00,0.0139
3025.00,0.0138
3024.00,0.0138
3023.00,0.0138
3022.00,0.0137
3021.00,0.0137
3020.00,0.0136
3019.00,0.0136
3018.00,0.0136
3017.00,0.0135
3016.00,0.0135
3015.00,0.0135
3014.00,0.0134
3013.00,0.0134
3012.00,0.0134
3011.00,0.0134
3010.00,0.0134
3009.00,0.0134
3008.00,0.0133
3007.00,0.0133
3006.00,0.0133
3005.00,0.0133
3004.00,0.0133
3003.00,0.0133
3002.00,0.0133
3001.00,0.0133
3000.00,0.0133
2999.00,0.0133
2998.00,0.0133
2997.00,0.0133
2996.00,0.0134
2995.00,0.0134
2994.00,0.0134
2993.00,0.0135
2992.00,0.0135
2991.00,0.0136
2990.00,0.0136
2989.00,0.0137
2988.00,0.0138
2987.00,0.0139
2986.00,0.0139
2985.00,0.0140
2984.00,0.0140
2983.00,0.0141
2982.00,0.0142
2981.00,0.0143
2980.00,0.0143
2979.00,0.0144
2978.00,0.0145
2977.00,0.0146
2976.00,0.0147
2975.00,0.0148
2974.00,0.0149
2973.00,0.0150
2972.00,0.0151
2971.00,0.0152
2970.00,0.0153
2969.00,0.0154
2968.00,0.0155
2967.00,0.0156
2966.00,0.0156
2965.00,0.0157
2964.00,0.0158
2963.00,0.0159
2962.00,0.0159
2961.00,0.0160
2960.00,0.0160
2959.00,0.0161
2958.00,0.0161
2957.00,0.0161
2956.00,0.0162
2955.00,0.0162
2954.00,0.0161
2953.00,0.0161
2952.00,0.0161
2951.00,0.0161
2950.00,0.0161
2949.00,0.0161
2948.00,0.0161
2947.00,0.0162
2946.00,0.0162
2945.00,0.0163
2944.00,0.0164
2943.00,0.0165
2942.00,0.0166
2941.00,0.0168
2940.00,0.0170
2939.00,0.0172
2938.00,0.0174
2937.00,0.0176
2936.00,0.0178
2935.00,0.0180
2934.00,0.0182
2933.00,0.0184
2932.00,0.0186
2931.00,0.0188
2930.00,0.0190
2929.00,0.0191
2928.00,0.0192
2927.00,0.0194
2926.00,0.0194
2925.00,0.0195
2924.00,0.0194
2923.00,0.0194
2922.00,0.0192
2921.00,0.0190
2920.00,0.0187
2919.00,0.0184
2918.00,0.0180
2917.00,0.0176
2916.00,0.0173
2915.00,0.0171
2914.00,0.0169
2913.00,0.0168
2912.00,0.0168
2911.00,0.0167
2910.00,0.0166
2909.00,0.0165
2908.00,0.0164
2907.00,0.0163
2906.00,0.0163
2905.00,0.0162
2904.00,0.0161
2903.00,0.0160
2902.00,0.0159
2901.00,0.0159
2900.00,0.0158
2899.00,0.0157
2898.00,0.0156
2897.00,0.0156
2896.00,0.0155
2895.00,0.0154
2894.00,0.0154
2893.00,0.0153
2892.00,0.0153
2891.00,0.0152
2890.00,0.0152
2889.00,0.0151
2888.00,0.0151
2887.00,0.0151
2886.00,0.0150
2885.00,0.0150
2884.00,0.0150
2883.00,0.0150
2882.00,0.0150
2881.00,0.0150
2880.00,0.0150
2879.00,0.0151
2878.00,0.0151
2877.00,0.0151
2876.00,0.0152
2875.00,0.0152
2874.00,0.0152
2873.00,0.0152
2872.00,0.0152
2871.00,0.0152
2870.00,0.0152
2869.00,0.0151
2868.00,0.0151
2867.00,0.0150
2866.00,0.0150
2865.00,0.0150
2864.00,0.0150
2863.00,0.0151
2862.00,0.0151
2861.00,0.0152
2860.00,0.0153
2859.00,0.0155
2858.00,0.0156
2857.00,0.0157
2856.00,0.0159
2855.00,0.0160
2854.00,0.0160
2853.00,0.0159
2852.00,0.0157
2851.00,0.0154
2850.00,0.0150
2849.00,0.0147
2848.00,0.0144
2847.00,0.0142
2846.00,0.0141
2845.00,0.0140
2844.00,0.0140
2843.00,0.0139
2842.00,0.0138
2841.00,0.0137
2840.00,0.0135
2839.00,0.0134
2838.00,0.0133
2837.00,0.0133
2836.00,0.0132
2835.00,0.0131
2834.00,0.0130
2833.00,0.0130
2832.00,0.0129
2831.00,0.0129
2830.00,0.0128
2829.00,0.0128
2828.00,0.0128
2827.00,0.0127
2826.00,0.0127
2825.00,0.0127
2824.00,0.0126
2823.00,0.0126
2822.00,0.0126
2821.00,0.0126
2820.00,0.0125
2819.00,0.0125
2818.00,0.0125
2817.00,0.0124
2816.00,0.0124
2815.00,0.0124
2814.00,0.0124
2813.00,0.0124
2812.00,0.0124
2811.00,0.0123
2810.00,0.0123
2809.00,0.0123
2808.00,0.0122
2807.00,0.0122
2806.00,0.0122
2805.00,0.0122
2804.00,0.0122
2803.00,0.0121
2802.00,0.0121
2801.00,0.0121
2800.00,0.0121
2799.00,0.0121
2798.00,0.0121
2797.00,0.0121
2796.00,0.0120
2795.00,0.0120
2794.00,0.0120
2793.00,0.0120
2792.00,0.0119
2791.00,0.0119
2790.00,0.0119
2789.00,0.0119
2788.00,0.0119
2787.00,0.0119
2786.00,0.0119
2785.00,0.0119
2784.00,0.0118
2783.00,0.0118
2782.00,0.0118
2781.00,0.0118
2780.00,0.0118
2779.00,0.0118
2778.00,0.0118
2777.00,0.0117
2776.00,0.0117
2775.00,0.0117
2774.00,0.0117
2773.00,0.0117
2772.00,0.0117
2771.00,0.0117
2770.00,0.0116
2769.00,0.0116
2768.00,0.0116
2767.00,0.0116
2766.00,0.0116
2765.00,0.0115
2764.00,0.0115
2763.00,0.0115
2762.00,0.0115
2761.00,0.0115
2760.00,0.0115
2759.00,0.0115
2758.00,0.0115
2757.00,0.0115
