Created as New Dataset,Sample 194 By YargerLab Date Sunday, June 09 2024
cm-1,A
4000.00,0.0116
3999.00,0.0116
3998.00,0.0116
3997.00,0.0116
3996.00,0.0116
3995.00,0.0116
3994.00,0.0116
3993.00,0.0116
3992.00,0.0116
3991.00,0.0116
3990.00,0.0116
3989.00,0.0116
3988.00,0.0116
3987.00,0.0116
3986.00,0.0116
3985.00,0.0115
3984.00,0.0115
3983.00,0.0115
3982.00,0.0115
3981.00,0.0115
3980.00,0.0115
3979.00,0.0115
3978.00,0.0115
3977.00,0.0115
3976.00,0.0115
3975.00,0.0115
3974.00,0.0115
3973.00,0.0115
3972.00,0.0115
3971.00,0.0115
3970.00,0.0115
3969.00,0.0115
3968.00,0.0115
3967.00,0.0115
3966.00,0.0115
3965.00,0.0115
3964.00,0.0115
3963.00,0.0115
3962.00,0.0115
3961.00,0.0115
3960.00,0.0115
3959.00,0.0115
3958.00,0.0115
3957.00,0.0115
3956.00,0.0115
3955.00,0.0115
3954.00,0.0115
3953.00,0.0115
3952.00,0.0114
3951.00,0.0114
3950.00,0.0114
3949.00,0.0114
3948.00,0.0113
3947.00,0.0113
3946.00,0.0113
3945.00,0.0113
3944.00,0.0113
3943.00,0.0114
3942.00,0.0114
3941.00,0.0114
3940.00,0.0114
3939.00,0.0114
3938.00,0.0113
3937.00,0.0113
3936.00,0.0113
3935.00,0.0112
3934.00,0.0112
3933.00,0.0112
3932.00,0.0112
3931.00,0.0113
3930.00,0.0113
3929.00,0.0113
3928.00,0.0113
3927.00,0.0113
3926.00,0.0113
3925.00,0.0113
3924.00,0.0113
3923.00,0.0113
3922.00,0.0112
3921.00,0.0111
3920.00,0.0111
3919.00,0.0111
3918.00,0.0111
3917.00,0.0111
3916.00,0.0112
3915.00,0.0112
3914.00,0.0112
3913.00,0.0113
3912.00,0.0113
3911.00,0.0113
3910.00,0.0113
3909.00,0.0113
3908.00,0.0113
3907.00,0.0112
3906.00,0.0112
3905.00,0.0111
3904.00,0.0109
3903.00,0.0107
3902.00,0.0106
3901.00,0.0106
3900.00,0.0107
3899.00,0.0108
3898.00,0.0109
3897.00,0.0110
3896.00,0.0110
3895.00,0.0110
3894.00,0.0110
3893.00,0.0110
3892.00,0.0111
3891.00,0.0111
3890.00,0.0110
3889.00,0.0110
3888.00,0.0108
3887.00,0.0107
3886.00,0.0108
3885.00,0.0108
3884.00,0.0109
3883.00,0.0108
3882.00,0.0108
3881.00,0.0108
3880.00,0.0109
3879.00,0.0109
3878.00,0.0108
3877.00,0.0108
3876.00,0.0107
3875.00,0.0108
3874.00,0.0109
3873.00,0.0109
3872.00,0.0108
3871.00,0.0107
3870.00,0.0106
3869.00,0.0107
3868.00,0.0107
3867.00,0.0106
3866.00,0.0105
3865.00,0.0105
3864.00,0.0106
3863.00,0.0107
3862.00,0.0106
3861.00,0.0106
3860.00,0.0106
3859.00,0.0107
3858.00,0.0109
3857.00,0.0111
3856.00,0.0111
3855.00,0.0111
3854.00,0.0110
3853.00,0.0109
3852.00,0.0108
3851.00,0.0107
3850.00,0.0106
3849.00,0.0106
3848.00,0.0106
3847.00,0.0106
3846.00,0.0106
3845.00,0.0106
3844.00,0.0106
3843.00,0.0105
3842.00,0.0105
3841.00,0.0105
3840.00,0.0104
3839.00,0.0104
3838.00,0.0105
3837.00,0.0105
3836.00,0.0105
3835.00,0.0105
3834.00,0.0105
3833.00,0.0105
3832.00,0.0105
3831.00,0.0105
3830.00,0.0105
3829.00,0.0105
3828.00,0.0105
3827.00,0.0105
3826.00,0.0106
3825.00,0.0105
3824.00,0.0104
3823.00,0.0103
3822.00,0.0103
3821.00,0.0104
3820.00,0.0104
3819.00,0.0104
3818.00,0.0103
3817.00,0.0103
3816.00,0.0104
3815.00,0.0106
3814.00,0.0107
3813.00,0.0107
3812.00,0.0107
3811.00,0.0107
3810.00,0.0107
3809.00,0.0107
3808.00,0.0106
3807.00,0.0106
3806.00,0.0106
3805.00,0.0105
3804.00,0.0103
3803.00,0.0103
3802.00,0.0103
3801.00,0.0104
3800.00,0.0105
3799.00,0.0104
3798.00,0.0103
3797.00,0.0104
3796.00,0.0104
3795.00,0.0105
3794.00,0.0106
3793.00,0.0107
3792.00,0.0107
3791.00,0.0108
3790.00,0.0108
3789.00,0.0108
3788.00,0.0108
3787.00,0.0108
3786.00,0.0108
3785.00,0.0107
3784.00,0.0107
3783.00,0.0106
3782.00,0.0106
3781.00,0.0105
3780.00,0.0105
3779.00,0.0106
3778.00,0.0106
3777.00,0.0106
3776.00,0.0106
3775.00,0.0106
3774.00,0.0107
3773.00,0.0107
3772.00,0.0106
3771.00,0.0105
3770.00,0.0105
3769.00,0.0104
3768.00,0.0104
3767.00,0.0103
3766.00,0.0103
3765.00,0.0103
3764.00,0.0104
3763.00,0.0103
3762.00,0.0103
3761.00,0.0102
3760.00,0.0102
3759.00,0.0102
3758.00,0.0102
3757.00,0.0101
3756.00,0.0101
3755.00,0.0100
3754.00,0.0099
3753.00,0.0099
3752.00,0.0098
3751.00,0.0097
3750.00,0.0096
3749.00,0.0096
3748.00,0.0096
3747.00,0.0096
3746.00,0.0095
3745.00,0.0095
3744.00,0.0096
3743.00,0.0097
3742.00,0.0097
3741.00,0.0096
3740.00,0.0095
3739.00,0.0094
3738.00,0.0093
3737.00,0.0093
3736.00,0.0094
3735.00,0.0095
3734.00,0.0095
3733.00,0.0095
3732.00,0.0096
3731.00,0.0098
3730.00,0.0099
3729.00,0.0100
3728.00,0.0100
3727.00,0.0100
3726.00,0.0101
3725.00,0.0101
3724.00,0.0101
3723.00,0.0101
3722.00,0.0101
3721.00,0.0102
3720.00,0.0102
3719.00,0.0102
3718.00,0.0103
3717.00,0.0103
3716.00,0.0102
3715.00,0.0101
3714.00,0.0100
3713.00,0.0099
3712.00,0.0099
3711.00,0.0099
3710.00,0.0099
3709.00,0.0099
3708.00,0.0100
3707.00,0.0101
3706.00,0.0101
3705.00,0.0102
3704.00,0.0102
3703.00,0.0103
3702.00,0.0103
3701.00,0.0104
3700.00,0.0104
3699.00,0.0103
3698.00,0.0103
3697.00,0.0103
3696.00,0.0104
3695.00,0.0103
3694.00,0.0103
3693.00,0.0102
3692.00,0.0102
3691.00,0.0102
3690.00,0.0101
3689.00,0.0100
3688.00,0.0100
3687.00,0.0100
3686.00,0.0100
3685.00,0.0100
3684.00,0.0100
3683.00,0.0100
3682.00,0.0100
3681.00,0.0100
3680.00,0.0100
3679.00,0.0100
3678.00,0.0099
3677.00,0.0097
3676.00,0.0097
3675.00,0.0097
3674.00,0.0097
3673.00,0.0097
3672.00,0.0096
3671.00,0.0096
3670.00,0.0098
3669.00,0.0100
3668.00,0.0100
3667.00,0.0100
3666.00,0.0100
3665.00,0.0101
3664.00,0.0102
3663.00,0.0102
3662.00,0.0103
3661.00,0.0103
3660.00,0.0104
3659.00,0.0103
3658.00,0.0103
3657.00,0.0102
3656.00,0.0101
3655.00,0.0101
3654.00,0.0100
3653.00,0.0098
3652.00,0.0097
3651.00,0.0095
3650.00,0.0095
3649.00,0.0094
3648.00,0.0094
3647.00,0.0095
3646.00,0.0096
3645.00,0.0098
3644.00,0.0099
3643.00,0.0101
3642.00,0.0102
3641.00,0.0103
3640.00,0.0104
3639.00,0.0104
3638.00,0.0104
3637.00,0.0103
3636.00,0.0103
3635.00,0.0102
3634.00,0.0102
3633.00,0.0103
3632.00,0.0102
3631.00,0.0101
3630.00,0.0100
3629.00,0.0100
3628.00,0.0100
3627.00,0.0099
3626.00,0.0099
3625.00,0.0100
3624.00,0.0100
3623.00,0.0101
3622.00,0.0102
3621.00,0.0102
3620.00,0.0103
3619.00,0.0102
3618.00,0.0102
3617.00,0.0101
3616.00,0.0100
3615.00,0.0099
3614.00,0.0099
3613.00,0.0100
3612.00,0.0100
3611.00,0.0100
3610.00,0.0099
3609.00,0.0100
3608.00,0.0101
3607.00,0.0102
3606.00,0.0103
3605.00,0.0104
3604.00,0.0104
3603.00,0.0105
3602.00,0.0105
3601.00,0.0105
3600.00,0.0105
3599.00,0.0105
3598.00,0.0104
3597.00,0.0104
3596.00,0.0105
3595.00,0.0105
3594.00,0.0105
3593.00,0.0105
3592.00,0.0105
3591.00,0.0105
3590.00,0.0104
3589.00,0.0104
3588.00,0.0105
3587.00,0.0105
3586.00,0.0106
3585.00,0.0106
3584.00,0.0106
3583.00,0.0107
3582.00,0.0107
3581.00,0.0108
3580.00,0.0109
3579.00,0.0109
3578.00,0.0110
3577.00,0.0110
3576.00,0.0110
3575.00,0.0110
3574.00,0.0110
3573.00,0.0110
3572.00,0.0110
3571.00,0.0109
3570.00,0.0108
3569.00,0.0108
3568.00,0.0107
3567.00,0.0108
3566.00,0.0108
3565.00,0.0108
3564.00,0.0108
3563.00,0.0109
3562.00,0.0110
3561.00,0.0111
3560.00,0.0112
3559.00,0.0112
3558.00,0.0112
3557.00,0.0112
3556.00,0.0113
3555.00,0.0113
3554.00,0.0113
3553.00,0.0113
3552.00,0.0113
3551.00,0.0113
3550.00,0.0113
3549.00,0.0112
3548.00,0.0112
3547.00,0.0112
3546.00,0.0113
3545.00,0.0113
3544.00,0.0114
3543.00,0.0114
3542.00,0.0114
3541.00,0.0115
3540.00,0.0115
3539.00,0.0116
3538.00,0.0116
3537.00,0.0117
3536.00,0.0117
3535.00,0.0117
3534.00,0.0117
3533.00,0.0117
3532.00,0.0116
3531.00,0.0116
3530.00,0.0116
3529.00,0.0116
3528.00,0.0116
3527.00,0.0116
3526.00,0.0116
3525.00,0.0117
3524.00,0.0117
3523.00,0.0118
3522.00,0.0118
3521.00,0.0118
3520.00,0.0119
3519.00,0.0119
3518.00,0.0119
3517.00,0.0120
3516.00,0.0120
3515.00,0.0120
3514.00,0.0120
3513.00,0.0120
3512.00,0.0120
3511.00,0.0121
3510.00,0.0121
3509.00,0.0121
3508.00,0.0121
3507.00,0.0121
3506.00,0.0121
3505.00,0.0121
3504.00,0.0121
3503.00,0.0121
3502.00,0.0122
3501.00,0.0122
3500.00,0.0122
3499.00,0.0123
3498.00,0.0123
3497.00,0.0124
3496.00,0.0124
3495.00,0.0124
3494.00,0.0124
3493.00,0.0124
3492.00,0.0124
3491.00,0.0124
3490.00,0.0125
3489.00,0.0125
3488.00,0.0125
3487.00,0.0125
3486.00,0.0125
3485.00,0.0126
3484.00,0.0126
3483.00,0.0126
3482.00,0.0126
3481.00,0.0127
3480.00,0.0127
3479.00,0.0127
3478.00,0.0127
3477.00,0.0128
3476.00,0.0128
3475.00,0.0128
3474.00,0.0129
3473.00,0.0129
3472.00,0.0129
3471.00,0.0129
3470.00,0.0129
3469.00,0.0130
3468.00,0.0130
3467.00,0.0130
3466.00,0.0130
3465.00,0.0131
3464.00,0.0131
3463.00,0.0131
3462.00,0.0132
3461.00,0.0132
3460.00,0.0132
3459.00,0.0132
3458.00,0.0132
3457.00,0.0133
3456.00,0.0133
3455.00,0.0133
3454.00,0.0133
3453.00,0.0133
3452.00,0.0133
3451.00,0.0133
3450.00,0.0134
3449.00,0.0134
3448.00,0.0134
3447.00,0.0134
3446.00,0.0134
3445.00,0.0134
3444.00,0.0134
3443.00,0.0135
3442.00,0.0135
3441.00,0.0135
3440.00,0.0135
3439.00,0.0136
3438.00,0.0136
3437.00,0.0137
3436.00,0.0137
3435.00,0.0137
3434.00,0.0137
3433.00,0.0138
3432.00,0.0138
3431.00,0.0138
3430.00,0.0138
3429.00,0.0138
3428.00,0.0138
3427.00,0.0139
3426.00,0.0139
3425.00,0.0139
3424.00,0.0139
3423.00,0.0140
3422.00,0.0140
3421.00,0.0140
3420.00,0.0140
3419.00,0.0140
3418.00,0.0141
3417.00,0.0141
3416.00,0.0141
3415.00,0.0142
3414.00,0.0142
3413.00,0.0142
3412.00,0.0143
3411.00,0.0143
3410.00,0.0143
3409.00,0.0143
3408.00,0.0143
3407.00,0.0143
3406.00,0.0143
3405.00,0.0143
3404.00,0.0144
3403.00,0.0144
3402.00,0.0145
3401.00,0.0145
3400.00,0.0145
3399.00,0.0145
3398.00,0.0145
3397.00,0.0145
3396.00,0.0145
3395.00,0.0145
3394.00,0.0146
3393.00,0.0146
3392.00,0.0147
3391.00,0.0147
3390.00,0.0147
3389.00,0.0147
3388.00,0.0147
3387.00,0.0147
3386.00,0.0148
3385.00,0.0148
3384.00,0.0148
3383.00,0.0148
3382.00,0.0149
3381.00,0.0149
3380.00,0.0149
3379.00,0.0149
3378.00,0.0150
3377.00,0.0150
3376.00,0.0150
3375.00,0.0151
3374.00,0.0151
3373.00,0.0151
3372.00,0.0151
3371.00,0.0152
3370.00,0.0152
3369.00,0.0153
3368.00,0.0153
3367.00,0.0153
3366.00,0.0154
3365.00,0.0154
3364.00,0.0154
3363.00,0.0155
3362.00,0.0155
3361.00,0.0155
3360.00,0.0156
3359.00,0.0156
3358.00,0.0157
3357.00,0.0157
3356.00,0.0158
3355.00,0.0158
3354.00,0.0159
3353.00,0.0159
3352.00,0.0160
3351.00,0.0160
3350.00,0.0161
3349.00,0.0161
3348.00,0.0162
3347.00,0.0162
3346.00,0.0163
3345.00,0.0163
3344.00,0.0164
3343.00,0.0164
3342.00,0.0165
3341.00,0.0165
3340.00,0.0166
3339.00,0.0166
3338.00,0.0167
3337.00,0.0167
3336.00,0.0168
3335.00,0.0169
3334.00,0.0169
3333.00,0.0170
3332.00,0.0171
3331.00,0.0171
3330.00,0.0172
3329.00,0.0173
3328.00,0.0173
3327.00,0.0174
3326.00,0.0174
3325.00,0.0175
3324.00,0.0176
3323.00,0.0177
3322.00,0.0178
3321.00,0.0179
3320.00,0.0179
3319.00,0.0180
3318.00,0.0181
3317.00,0.0182
3316.00,0.0182
3315.00,0.0183
3314.00,0.0184
3313.00,0.0185
3312.00,0.0186
3311.00,0.0187
3310.00,0.0188
3309.00,0.0189
3308.00,0.0190
3307.00,0.0191
3306.00,0.0192
3305.00,0.0193
3304.00,0.0194
3303.00,0.0194
3302.00,0.0195
3301.00,0.0196
3300.00,0.0197
3299.00,0.0198
3298.00,0.0199
3297.00,0.0200
3296.00,0.0201
3295.00,0.0202
3294.00,0.0203
3293.00,0.0204
3292.00,0.0205
3291.00,0.0205
3290.00,0.0206
3289.00,0.0207
3288.00,0.0208
3287.00,0.0209
3286.00,0.0210
3285.00,0.0211
3284.00,0.0212
3283.00,0.0213
3282.00,0.0213
3281.00,0.0214
3280.00,0.0214
3279.00,0.0215
3278.00,0.0215
3277.00,0.0215
3276.00,0.0215
3275.00,0.0215
3274.00,0.0216
3273.00,0.0216
3272.00,0.0216
3271.00,0.0216
3270.00,0.0216
3269.00,0.0215
3268.00,0.0215
3267.00,0.0215
3266.00,0.0215
3265.00,0.0214
3264.00,0.0214
3263.00,0.0213
3262.00,0.0212
3261.00,0.0212
3260.00,0.0211
3259.00,0.0210
3258.00,0.0210
3257.00,0.0209
3256.00,0.0208
3255.00,0.0207
3254.00,0.0207
3253.00,0.0206
3252.00,0.0205
3251.00,0.0204
3250.00,0.0203
3249.00,0.0202
3248.00,0.0201
3247.00,0.0200
3246.00,0.0200
3245.00,0.0199
3244.00,0.0198
3243.00,0.0198
3242.00,0.0197
3241.00,0.0196
3240.00,0.0196
3239.00,0.0195
3238.00,0.0194
3237.00,0.0193
3236.00,0.0193
3235.00,0.0192
3234.00,0.0192
3233.00,0.0191
3232.00,0.0190
3231.00,0.0190
3230.00,0.0189
3229.00,0.0189
3228.00,0.0188
3227.00,0.0188
3226.00,0.0187
3225.00,0.0187
3224.00,0.0186
3223.00,0.0186
3222.00,0.0185
3221.00,0.0185
3220.00,0.0184
3219.00,0.0183
3218.00,0.0183
3217.00,0.0182
3216.00,0.0182
3215.00,0.0182
3214.00,0.0181
3213.00,0.0181
3212.00,0.0180
3211.00,0.0180
3210.00,0.0179
3209.00,0.0179
3208.00,0.0178
3207.00,0.0178
3206.00,0.0178
3205.00,0.0177
3204.00,0.0177
3203.00,0.0176
3202.00,0.0176
3201.00,0.0176
3200.00,0.0175
3199.00,0.0175
3198.00,0.0174
3197.00,0.0174
3196.00,0.0174
3195.00,0.0173
3194.00,0.0173
3193.00,0.0173
3192.00,0.0172
3191.00,0.0172
3190.00,0.0172
3189.00,0.0171
3188.00,0.0171
3187.00,0.0170
3186.00,0.0169
3185.00,0.0169
3184.00,0.0168
3183.00,0.0168
3182.00,0.0168
3181.00,0.0167
3180.00,0.0167
3179.00,0.0166
3178.00,0.0165
3177.00,0.0165
3176.00,0.0164
3175.00,0.0164
3174.00,0.0164
3173.00,0.0163
3172.00,0.0163
3171.00,0.0162
3170.00,0.0162
3169.00,0.0161
3168.00,0.0161
3167.00,0.0160
3166.00,0.0160
3165.00,0.0159
3164.00,0.0159
3163.00,0.0159
3162.00,0.0158
3161.00,0.0158
3160.00,0.0158
3159.00,0.0157
3158.00,0.0156
3157.00,0.0156
3156.00,0.0155
3155.00,0.0155
3154.00,0.0154
3153.00,0.0154
3152.00,0.0154
3151.00,0.0153
3150.00,0.0153
3149.00,0.0152
3148.00,0.0152
3147.00,0.0152
3146.00,0.0151
3145.00,0.0151
3144.00,0.0151
3143.00,0.0150
3142.00,0.0150
3141.00,0.0149
3140.00,0.0149
3139.00,0.0149
3138.00,0.0149
3137.00,0.0148
3136.00,0.0148
3135.00,0.0148
3134.00,0.0147
3133.00,0.0147
3132.00,0.0147
3131.00,0.0146
3130.00,0.0146
3129.00,0.0146
3128.00,0.0145
3127.00,0.0145
3126.00,0.0145
3125.00,0.0145
3124.00,0.0145
3123.00,0.0145
3122.00,0.0145
3121.00,0.0144
3120.00,0.0144
3119.00,0.0144
3118.00,0.0144
3117.00,0.0144
3116.00,0.0144
3115.00,0.0143
3114.00,0.0143
3113.00,0.0143
3112.00,0.0143
3111.00,0.0143
3110.00,0.0143
3109.00,0.0143
3108.00,0.0143
3107.00,0.0143
3106.00,0.0143
3105.00,0.0143
3104.00,0.0143
3103.00,0.0143
3102.00,0.0143
3101.00,0.0143
3100.00,0.0143
3099.00,0.0143
3098.00,0.0143
3097.00,0.0143
3096.00,0.0143
3095.00,0.0143
3094.00,0.0143
3093.00,0.0143
3092.00,0.0143
3091.00,0.0143
3090.00,0.0144
3089.00,0.0144
3088.00,0.0144
3087.00,0.0144
3086.00,0.0144
3085.00,0.0144
3084.00,0.0144
3083.00,0.0144
3082.00,0.0144
3081.00,0.0144
3080.00,0.0144
3079.00,0.0144
3078.00,0.0145
3077.00,0.0145
3076.00,0.0145
3075.00,0.0145
3074.00,0.0145
3073.00,0.0145
3072.00,0.0145
3071.00,0.0145
3070.00,0.0145
3069.00,0.0145
3068.00,0.0145
3067.00,0.0144
3066.00,0.0144
3065.00,0.0144
3064.00,0.0144
3063.00,0.0144
3062.00,0.0144
3061.00,0.0144
3060.00,0.0144
3059.00,0.0144
3058.00,0.0144
3057.00,0.0143
3056.00,0.0143
3055.00,0.0143
3054.00,0.0143
3053.00,0.0143
3052.00,0.0142
3051.00,0.0142
3050.00,0.0142
3049.00,0.0142
3048.00,0.0141
3047.00,0.0141
3046.00,0.0140
3045.00,0.0140
3044.00,0.0140
3043.00,0.0140
3042.00,0.0140
3041.00,0.0139
3040.00,0.0139
3039.00,0.0139
3038.00,0.0138
3037.00,0.0138
3036.00,0.0138
3035.00,0.0137
3034.00,0.0137
3033.00,0.0137
3032.00,0.0136
3031.00,0.0136
3030.00,0.0136
3029.00,0.0136
3028.00,0.0136
3027.00,0.0136
3026.00,0.0135
3025.00,0.0135
3024.00,0.0135
3023.00,0.0134
3022.00,0.0134
3021.00,0.0134
3020.00,0.0133
3019.00,0.0133
3018.00,0.0133
3017.00,0.0133
3016.00,0.0133
3015.00,0.0132
3014.00,0.0132
3013.00,0.0132
3012.00,0.0132
3011.00,0.0132
3010.00,0.0131
3009.00,0.0131
3008.00,0.0131
3007.00,0.0131
3006.00,0.0131
3005.00,0.0131
3004.00,0.0131
3003.00,0.0131
3002.00,0.0131
3001.00,0.0131
3000.00,0.0131
2999.00,0.0131
2998.00,0.0131
2997.00,0.0131
2996.00,0.0131
2995.00,0.0131
2994.00,0.0131
2993.00,0.0132
2992.00,0.0132
2991.00,0.0132
2990.00,0.0133
2989.00,0.0133
2988.00,0.0134
2987.00,0.0134
2986.00,0.0135
2985.00,0.0135
2984.00,0.0136
2983.00,0.0136
2982.00,0.0137
2981.00,0.0138
2980.00,0.0138
2979.00,0.0139
2978.00,0.0139
2977.00,0.0140
2976.00,0.0141
2975.00,0.0142
2974.00,0.0143
2973.00,0.0143
2972.00,0.0144
2971.00,0.0145
2970.00,0.0146
2969.00,0.0147
2968.00,0.0148
2967.00,0.0149
2966.00,0.0149
2965.00,0.0150
2964.00,0.0151
2963.00,0.0152
2962.00,0.0153
2961.00,0.0153
2960.00,0.0154
2959.00,0.0154
2958.00,0.0154
2957.00,0.0155
2956.00,0.0155
2955.00,0.0155
2954.00,0.0156
2953.00,0.0156
2952.00,0.0155
2951.00,0.0155
2950.00,0.0155
2949.00,0.0155
2948.00,0.0156
2947.00,0.0156
2946.00,0.0156
2945.00,0.0157
2944.00,0.0158
2943.00,0.0159
2942.00,0.0160
2941.00,0.0162
2940.00,0.0164
2939.00,0.0165
2938.00,0.0168
2937.00,0.0170
2936.00,0.0172
2935.00,0.0174
2934.00,0.0177
2933.00,0.0179
2932.00,0.0181
2931.00,0.0184
2930.00,0.0186
2929.00,0.0188
2928.00,0.0189
2927.00,0.0191
2926.00,0.0192
2925.00,0.0193
2924.00,0.0193
2923.00,0.0192
2922.00,0.0191
2921.00,0.0189
2920.00,0.0186
2919.00,0.0183
2918.00,0.0179
2917.00,0.0175
2916.00,0.0172
2915.00,0.0169
2914.00,0.0167
2913.00,0.0166
2912.00,0.0165
2911.00,0.0164
2910.00,0.0163
2909.00,0.0161
2908.00,0.0160
2907.00,0.0159
2906.00,0.0158
2905.00,0.0157
2904.00,0.0156
2903.00,0.0155
2902.00,0.0155
2901.00,0.0154
2900.00,0.0153
2899.00,0.0152
2898.00,0.0151
2897.00,0.0151
2896.00,0.0150
2895.00,0.0149
2894.00,0.0149
2893.00,0.0148
2892.00,0.0147
2891.00,0.0146
2890.00,0.0146
2889.00,0.0145
2888.00,0.0145
2887.00,0.0145
2886.00,0.0144
2885.00,0.0144
2884.00,0.0144
2883.00,0.0144
2882.00,0.0144
2881.00,0.0144
2880.00,0.0144
2879.00,0.0144
2878.00,0.0144
2877.00,0.0144
2876.00,0.0145
2875.00,0.0145
2874.00,0.0146
2873.00,0.0146
2872.00,0.0146
2871.00,0.0146
2870.00,0.0146
2869.00,0.0146
2868.00,0.0145
2867.00,0.0145
2866.00,0.0145
2865.00,0.0145
2864.00,0.0146
2863.00,0.0146
2862.00,0.0147
2861.00,0.0149
2860.00,0.0150
2859.00,0.0152
2858.00,0.0154
2857.00,0.0156
2856.00,0.0157
2855.00,0.0158
2854.00,0.0159
2853.00,0.0158
2852.00,0.0157
2851.00,0.0154
2850.00,0.0150
2849.00,0.0147
2848.00,0.0144
2847.00,0.0141
2846.00,0.0140
2845.00,0.0139
2844.00,0.0138
2843.00,0.0137
2842.00,0.0135
2841.00,0.0134
2840.00,0.0133
2839.00,0.0132
2838.00,0.0131
2837.00,0.0130
2836.00,0.0129
2835.00,0.0129
2834.00,0.0128
2833.00,0.0127
2832.00,0.0127
2831.00,0.0126
2830.00,0.0126
2829.00,0.0125
2828.00,0.0125
2827.00,0.0125
2826.00,0.0124
2825.00,0.0124
2824.00,0.0124
2823.00,0.0124
2822.00,0.0123
2821.00,0.0123
2820.00,0.0123
2819.00,0.0123
2818.00,0.0122
2817.00,0.0122
2816.00,0.0122
2815.00,0.0122
2814.00,0.0121
2813.00,0.0121
2812.00,0.0121
2811.00,0.0121
2810.00,0.0121
2809.00,0.0121
2808.00,0.0120
2807.00,0.0120
2806.00,0.0120
2805.00,0.0120
2804.00,0.0120
2803.00,0.0119
2802.00,0.0119
2801.00,0.0119
2800.00,0.0119
2799.00,0.0119
2798.00,0.0119
2797.00,0.0119
2796.00,0.0118
2795.00,0.0118
2794.00,0.0118
2793.00,0.0118
2792.00,0.0118
2791.00,0.0117
2790.00,0.0117
2789.00,0.0117
2788.00,0.0117
2787.00,0.0117
2786.00,0.0117
2785.00,0.0117
2784.00,0.0117
2783.00,0.0116
2782.00,0.0116
2781.00,0.0116
2780.00,0.0116
2779.00,0.0116
2778.00,0.0116
2777.00,0.0116
2776.00,0.0116
2775.00,0.0115
2774.00,0.0115
2773.00,0.0115
2772.00,0.0115
2771.00,0.0115
2770.00,0.0115
2769.00,0.0115
2768.00,0.0114
2767.00,0.0114
2766.00,0.0114
2765.00,0.0114
2764.00,0.0114
2763.00,0.0114
2762.00,0.0114
2761.00,0.0114
2760.00,0.0114
2759.00,0.0113
2758.00,0.0113
2757.00,0.0113
