Created as New Dataset,Sample 207 By YargerLab Date Monday, June 10 2024
cm-1,A
4000.00,0.0025
3999.00,0.0025
3998.00,0.0024
3997.00,0.0024
3996.00,0.0024
3995.00,0.0024
3994.00,0.0024
3993.00,0.0024
3992.00,0.0024
3991.00,0.0024
3990.00,0.0024
3989.00,0.0024
3988.00,0.0024
3987.00,0.0024
3986.00,0.0024
3985.00,0.0024
3984.00,0.0024
3983.00,0.0024
3982.00,0.0024
3981.00,0.0024
3980.00,0.0024
3979.00,0.0024
3978.00,0.0024
3977.00,0.0024
3976.00,0.0024
3975.00,0.0024
3974.00,0.0024
3973.00,0.0024
3972.00,0.0024
3971.00,0.0024
3970.00,0.0024
3969.00,0.0024
3968.00,0.0024
3967.00,0.0024
3966.00,0.0024
3965.00,0.0024
3964.00,0.0024
3963.00,0.0024
3962.00,0.0024
3961.00,0.0024
3960.00,0.0024
3959.00,0.0024
3958.00,0.0024
3957.00,0.0024
3956.00,0.0024
3955.00,0.0024
3954.00,0.0024
3953.00,0.0024
3952.00,0.0024
3951.00,0.0024
3950.00,0.0024
3949.00,0.0024
3948.00,0.0025
3947.00,0.0025
3946.00,0.0025
3945.00,0.0024
3944.00,0.0024
3943.00,0.0024
3942.00,0.0024
3941.00,0.0024
3940.00,0.0024
3939.00,0.0024
3938.00,0.0024
3937.00,0.0024
3936.00,0.0024
3935.00,0.0025
3934.00,0.0025
3933.00,0.0025
3932.00,0.0025
3931.00,0.0025
3930.00,0.0024
3929.00,0.0024
3928.00,0.0024
3927.00,0.0024
3926.00,0.0024
3925.00,0.0024
3924.00,0.0024
3923.00,0.0024
3922.00,0.0024
3921.00,0.0025
3920.00,0.0025
3919.00,0.0025
3918.00,0.0025
3917.00,0.0025
3916.00,0.0025
3915.00,0.0024
3914.00,0.0024
3913.00,0.0024
3912.00,0.0024
3911.00,0.0024
3910.00,0.0024
3909.00,0.0024
3908.00,0.0024
3907.00,0.0024
3906.00,0.0024
3905.00,0.0025
3904.00,0.0025
3903.00,0.0026
3902.00,0.0026
3901.00,0.0026
3900.00,0.0026
3899.00,0.0025
3898.00,0.0025
3897.00,0.0025
3896.00,0.0025
3895.00,0.0025
3894.00,0.0024
3893.00,0.0024
3892.00,0.0024
3891.00,0.0024
3890.00,0.0024
3889.00,0.0025
3888.00,0.0025
3887.00,0.0025
3886.00,0.0025
3885.00,0.0025
3884.00,0.0025
3883.00,0.0025
3882.00,0.0025
3881.00,0.0025
3880.00,0.0025
3879.00,0.0025
3878.00,0.0025
3877.00,0.0025
3876.00,0.0025
3875.00,0.0025
3874.00,0.0025
3873.00,0.0025
3872.00,0.0025
3871.00,0.0025
3870.00,0.0026
3869.00,0.0025
3868.00,0.0025
3867.00,0.0025
3866.00,0.0025
3865.00,0.0025
3864.00,0.0025
3863.00,0.0025
3862.00,0.0025
3861.00,0.0025
3860.00,0.0025
3859.00,0.0025
3858.00,0.0024
3857.00,0.0023
3856.00,0.0023
3855.00,0.0023
3854.00,0.0023
3853.00,0.0024
3852.00,0.0024
3851.00,0.0024
3850.00,0.0025
3849.00,0.0025
3848.00,0.0025
3847.00,0.0025
3846.00,0.0025
3845.00,0.0025
3844.00,0.0025
3843.00,0.0025
3842.00,0.0025
3841.00,0.0025
3840.00,0.0025
3839.00,0.0025
3838.00,0.0025
3837.00,0.0025
3836.00,0.0024
3835.00,0.0024
3834.00,0.0024
3833.00,0.0025
3832.00,0.0025
3831.00,0.0024
3830.00,0.0024
3829.00,0.0024
3828.00,0.0025
3827.00,0.0025
3826.00,0.0024
3825.00,0.0024
3824.00,0.0025
3823.00,0.0025
3822.00,0.0025
3821.00,0.0025
3820.00,0.0024
3819.00,0.0024
3818.00,0.0025
3817.00,0.0025
3816.00,0.0025
3815.00,0.0025
3814.00,0.0024
3813.00,0.0024
3812.00,0.0024
3811.00,0.0024
3810.00,0.0023
3809.00,0.0023
3808.00,0.0024
3807.00,0.0024
3806.00,0.0024
3805.00,0.0024
3804.00,0.0024
3803.00,0.0025
3802.00,0.0025
3801.00,0.0024
3800.00,0.0024
3799.00,0.0024
3798.00,0.0024
3797.00,0.0024
3796.00,0.0024
3795.00,0.0023
3794.00,0.0023
3793.00,0.0023
3792.00,0.0023
3791.00,0.0023
3790.00,0.0022
3789.00,0.0022
3788.00,0.0022
3787.00,0.0023
3786.00,0.0023
3785.00,0.0023
3784.00,0.0023
3783.00,0.0023
3782.00,0.0023
3781.00,0.0023
3780.00,0.0023
3779.00,0.0023
3778.00,0.0023
3777.00,0.0023
3776.00,0.0022
3775.00,0.0022
3774.00,0.0022
3773.00,0.0022
3772.00,0.0022
3771.00,0.0022
3770.00,0.0023
3769.00,0.0023
3768.00,0.0023
3767.00,0.0023
3766.00,0.0023
3765.00,0.0023
3764.00,0.0023
3763.00,0.0023
3762.00,0.0023
3761.00,0.0023
3760.00,0.0023
3759.00,0.0023
3758.00,0.0023
3757.00,0.0023
3756.00,0.0023
3755.00,0.0024
3754.00,0.0024
3753.00,0.0024
3752.00,0.0024
3751.00,0.0024
3750.00,0.0025
3749.00,0.0025
3748.00,0.0024
3747.00,0.0024
3746.00,0.0025
3745.00,0.0025
3744.00,0.0025
3743.00,0.0025
3742.00,0.0025
3741.00,0.0025
3740.00,0.0025
3739.00,0.0026
3738.00,0.0026
3737.00,0.0026
3736.00,0.0026
3735.00,0.0025
3734.00,0.0025
3733.00,0.0025
3732.00,0.0025
3731.00,0.0025
3730.00,0.0024
3729.00,0.0024
3728.00,0.0024
3727.00,0.0024
3726.00,0.0024
3725.00,0.0024
3724.00,0.0024
3723.00,0.0024
3722.00,0.0024
3721.00,0.0023
3720.00,0.0023
3719.00,0.0023
3718.00,0.0023
3717.00,0.0023
3716.00,0.0023
3715.00,0.0023
3714.00,0.0023
3713.00,0.0024
3712.00,0.0024
3711.00,0.0024
3710.00,0.0024
3709.00,0.0024
3708.00,0.0024
3707.00,0.0024
3706.00,0.0023
3705.00,0.0023
3704.00,0.0023
3703.00,0.0023
3702.00,0.0023
3701.00,0.0023
3700.00,0.0023
3699.00,0.0023
3698.00,0.0023
3697.00,0.0024
3696.00,0.0024
3695.00,0.0024
3694.00,0.0024
3693.00,0.0025
3692.00,0.0025
3691.00,0.0026
3690.00,0.0027
3689.00,0.0028
3688.00,0.0029
3687.00,0.0030
3686.00,0.0031
3685.00,0.0032
3684.00,0.0033
3683.00,0.0034
3682.00,0.0036
3681.00,0.0037
3680.00,0.0039
3679.00,0.0040
3678.00,0.0042
3677.00,0.0045
3676.00,0.0047
3675.00,0.0049
3674.00,0.0051
3673.00,0.0052
3672.00,0.0053
3671.00,0.0054
3670.00,0.0055
3669.00,0.0055
3668.00,0.0056
3667.00,0.0056
3666.00,0.0057
3665.00,0.0058
3664.00,0.0058
3663.00,0.0059
3662.00,0.0060
3661.00,0.0060
3660.00,0.0061
3659.00,0.0061
3658.00,0.0061
3657.00,0.0062
3656.00,0.0062
3655.00,0.0062
3654.00,0.0061
3653.00,0.0062
3652.00,0.0062
3651.00,0.0062
3650.00,0.0062
3649.00,0.0062
3648.00,0.0062
3647.00,0.0061
3646.00,0.0060
3645.00,0.0059
3644.00,0.0057
3643.00,0.0056
3642.00,0.0055
3641.00,0.0054
3640.00,0.0053
3639.00,0.0054
3638.00,0.0054
3637.00,0.0053
3636.00,0.0052
3635.00,0.0049
3634.00,0.0046
3633.00,0.0044
3632.00,0.0043
3631.00,0.0042
3630.00,0.0042
3629.00,0.0041
3628.00,0.0041
3627.00,0.0040
3626.00,0.0040
3625.00,0.0040
3624.00,0.0040
3623.00,0.0040
3622.00,0.0039
3621.00,0.0039
3620.00,0.0039
3619.00,0.0039
3618.00,0.0039
3617.00,0.0039
3616.00,0.0039
3615.00,0.0040
3614.00,0.0039
3613.00,0.0039
3612.00,0.0039
3611.00,0.0040
3610.00,0.0040
3609.00,0.0039
3608.00,0.0039
3607.00,0.0039
3606.00,0.0039
3605.00,0.0039
3604.00,0.0039
3603.00,0.0039
3602.00,0.0039
3601.00,0.0040
3600.00,0.0040
3599.00,0.0040
3598.00,0.0041
3597.00,0.0041
3596.00,0.0041
3595.00,0.0041
3594.00,0.0041
3593.00,0.0042
3592.00,0.0042
3591.00,0.0043
3590.00,0.0043
3589.00,0.0043
3588.00,0.0043
3587.00,0.0043
3586.00,0.0043
3585.00,0.0043
3584.00,0.0044
3583.00,0.0044
3582.00,0.0044
3581.00,0.0044
3580.00,0.0044
3579.00,0.0045
3578.00,0.0045
3577.00,0.0045
3576.00,0.0045
3575.00,0.0046
3574.00,0.0046
3573.00,0.0047
3572.00,0.0048
3571.00,0.0048
3570.00,0.0049
3569.00,0.0050
3568.00,0.0050
3567.00,0.0050
3566.00,0.0050
3565.00,0.0050
3564.00,0.0050
3563.00,0.0051
3562.00,0.0051
3561.00,0.0051
3560.00,0.0051
3559.00,0.0052
3558.00,0.0052
3557.00,0.0052
3556.00,0.0052
3555.00,0.0053
3554.00,0.0053
3553.00,0.0053
3552.00,0.0054
3551.00,0.0054
3550.00,0.0055
3549.00,0.0055
3548.00,0.0056
3547.00,0.0056
3546.00,0.0057
3545.00,0.0057
3544.00,0.0057
3543.00,0.0057
3542.00,0.0057
3541.00,0.0058
3540.00,0.0058
3539.00,0.0058
3538.00,0.0058
3537.00,0.0058
3536.00,0.0059
3535.00,0.0059
3534.00,0.0059
3533.00,0.0060
3532.00,0.0060
3531.00,0.0060
3530.00,0.0061
3529.00,0.0061
3528.00,0.0062
3527.00,0.0062
3526.00,0.0063
3525.00,0.0063
3524.00,0.0063
3523.00,0.0063
3522.00,0.0063
3521.00,0.0063
3520.00,0.0063
3519.00,0.0064
3518.00,0.0064
3517.00,0.0064
3516.00,0.0065
3515.00,0.0065
3514.00,0.0066
3513.00,0.0066
3512.00,0.0066
3511.00,0.0066
3510.00,0.0066
3509.00,0.0067
3508.00,0.0067
3507.00,0.0068
3506.00,0.0068
3505.00,0.0069
3504.00,0.0069
3503.00,0.0069
3502.00,0.0069
3501.00,0.0070
3500.00,0.0070
3499.00,0.0070
3498.00,0.0070
3497.00,0.0071
3496.00,0.0071
3495.00,0.0071
3494.00,0.0071
3493.00,0.0072
3492.00,0.0072
3491.00,0.0072
3490.00,0.0073
3489.00,0.0073
3488.00,0.0073
3487.00,0.0073
3486.00,0.0074
3485.00,0.0074
3484.00,0.0075
3483.00,0.0075
3482.00,0.0075
3481.00,0.0076
3480.00,0.0076
3479.00,0.0076
3478.00,0.0077
3477.00,0.0077
3476.00,0.0077
3475.00,0.0077
3474.00,0.0077
3473.00,0.0078
3472.00,0.0078
3471.00,0.0079
3470.00,0.0079
3469.00,0.0079
3468.00,0.0080
3467.00,0.0080
3466.00,0.0080
3465.00,0.0080
3464.00,0.0080
3463.00,0.0080
3462.00,0.0081
3461.00,0.0081
3460.00,0.0081
3459.00,0.0081
3458.00,0.0082
3457.00,0.0082
3456.00,0.0082
3455.00,0.0082
3454.00,0.0083
3453.00,0.0083
3452.00,0.0084
3451.00,0.0084
3450.00,0.0084
3449.00,0.0085
3448.00,0.0085
3447.00,0.0085
3446.00,0.0085
3445.00,0.0085
3444.00,0.0086
3443.00,0.0086
3442.00,0.0086
3441.00,0.0087
3440.00,0.0087
3439.00,0.0088
3438.00,0.0088
3437.00,0.0088
3436.00,0.0089
3435.00,0.0089
3434.00,0.0090
3433.00,0.0090
3432.00,0.0090
3431.00,0.0090
3430.00,0.0091
3429.00,0.0091
3428.00,0.0092
3427.00,0.0092
3426.00,0.0092
3425.00,0.0093
3424.00,0.0093
3423.00,0.0094
3422.00,0.0094
3421.00,0.0095
3420.00,0.0095
3419.00,0.0095
3418.00,0.0096
3417.00,0.0096
3416.00,0.0097
3415.00,0.0097
3414.00,0.0098
3413.00,0.0098
3412.00,0.0099
3411.00,0.0099
3410.00,0.0099
3409.00,0.0100
3408.00,0.0100
3407.00,0.0100
3406.00,0.0101
3405.00,0.0101
3404.00,0.0102
3403.00,0.0102
3402.00,0.0103
3401.00,0.0103
3400.00,0.0104
3399.00,0.0104
3398.00,0.0104
3397.00,0.0105
3396.00,0.0105
3395.00,0.0106
3394.00,0.0106
3393.00,0.0106
3392.00,0.0107
3391.00,0.0107
3390.00,0.0108
3389.00,0.0108
3388.00,0.0108
3387.00,0.0109
3386.00,0.0109
3385.00,0.0110
3384.00,0.0110
3383.00,0.0111
3382.00,0.0111
3381.00,0.0112
3380.00,0.0112
3379.00,0.0113
3378.00,0.0113
3377.00,0.0114
3376.00,0.0114
3375.00,0.0115
3374.00,0.0115
3373.00,0.0116
3372.00,0.0117
3371.00,0.0118
3370.00,0.0119
3369.00,0.0119
3368.00,0.0120
3367.00,0.0120
3366.00,0.0121
3365.00,0.0122
3364.00,0.0122
3363.00,0.0123
3362.00,0.0124
3361.00,0.0125
3360.00,0.0126
3359.00,0.0126
3358.00,0.0127
3357.00,0.0128
3356.00,0.0128
3355.00,0.0129
3354.00,0.0130
3353.00,0.0131
3352.00,0.0132
3351.00,0.0133
3350.00,0.0134
3349.00,0.0135
3348.00,0.0136
3347.00,0.0137
3346.00,0.0138
3345.00,0.0140
3344.00,0.0141
3343.00,0.0142
3342.00,0.0143
3341.00,0.0144
3340.00,0.0145
3339.00,0.0146
3338.00,0.0147
3337.00,0.0149
3336.00,0.0150
3335.00,0.0151
3334.00,0.0152
3333.00,0.0153
3332.00,0.0155
3331.00,0.0156
3330.00,0.0157
3329.00,0.0159
3328.00,0.0160
3327.00,0.0162
3326.00,0.0163
3325.00,0.0164
3324.00,0.0165
3323.00,0.0167
3322.00,0.0168
3321.00,0.0170
3320.00,0.0171
3319.00,0.0173
3318.00,0.0174
3317.00,0.0176
3316.00,0.0178
3315.00,0.0179
3314.00,0.0181
3313.00,0.0183
3312.00,0.0184
3311.00,0.0186
3310.00,0.0188
3309.00,0.0189
3308.00,0.0191
3307.00,0.0192
3306.00,0.0194
3305.00,0.0195
3304.00,0.0197
3303.00,0.0198
3302.00,0.0199
3301.00,0.0201
3300.00,0.0202
3299.00,0.0203
3298.00,0.0205
3297.00,0.0206
3296.00,0.0207
3295.00,0.0208
3294.00,0.0209
3293.00,0.0210
3292.00,0.0211
3291.00,0.0211
3290.00,0.0212
3289.00,0.0212
3288.00,0.0213
3287.00,0.0213
3286.00,0.0213
3285.00,0.0214
3284.00,0.0214
3283.00,0.0214
3282.00,0.0213
3281.00,0.0213
3280.00,0.0213
3279.00,0.0212
3278.00,0.0212
3277.00,0.0211
3276.00,0.0210
3275.00,0.0209
3274.00,0.0209
3273.00,0.0207
3272.00,0.0206
3271.00,0.0205
3270.00,0.0204
3269.00,0.0203
3268.00,0.0201
3267.00,0.0200
3266.00,0.0198
3265.00,0.0197
3264.00,0.0195
3263.00,0.0194
3262.00,0.0192
3261.00,0.0191
3260.00,0.0190
3259.00,0.0188
3258.00,0.0187
3257.00,0.0185
3256.00,0.0184
3255.00,0.0182
3254.00,0.0181
3253.00,0.0180
3252.00,0.0178
3251.00,0.0177
3250.00,0.0176
3249.00,0.0175
3248.00,0.0174
3247.00,0.0173
3246.00,0.0172
3245.00,0.0170
3244.00,0.0169
3243.00,0.0168
3242.00,0.0167
3241.00,0.0166
3240.00,0.0165
3239.00,0.0164
3238.00,0.0163
3237.00,0.0162
3236.00,0.0161
3235.00,0.0161
3234.00,0.0160
3233.00,0.0159
3232.00,0.0158
3231.00,0.0157
3230.00,0.0156
3229.00,0.0155
3228.00,0.0154
3227.00,0.0153
3226.00,0.0153
3225.00,0.0152
3224.00,0.0151
3223.00,0.0151
3222.00,0.0150
3221.00,0.0149
3220.00,0.0148
3219.00,0.0147
3218.00,0.0147
3217.00,0.0146
3216.00,0.0145
3215.00,0.0145
3214.00,0.0144
3213.00,0.0143
3212.00,0.0142
3211.00,0.0141
3210.00,0.0141
3209.00,0.0140
3208.00,0.0139
3207.00,0.0139
3206.00,0.0138
3205.00,0.0137
3204.00,0.0137
3203.00,0.0136
3202.00,0.0136
3201.00,0.0135
3200.00,0.0134
3199.00,0.0133
3198.00,0.0133
3197.00,0.0132
3196.00,0.0131
3195.00,0.0130
3194.00,0.0129
3193.00,0.0128
3192.00,0.0127
3191.00,0.0127
3190.00,0.0126
3189.00,0.0125
3188.00,0.0125
3187.00,0.0124
3186.00,0.0123
3185.00,0.0122
3184.00,0.0121
3183.00,0.0120
3182.00,0.0120
3181.00,0.0119
3180.00,0.0118
3179.00,0.0117
3178.00,0.0116
3177.00,0.0115
3176.00,0.0115
3175.00,0.0114
3174.00,0.0113
3173.00,0.0112
3172.00,0.0111
3171.00,0.0110
3170.00,0.0110
3169.00,0.0109
3168.00,0.0108
3167.00,0.0107
3166.00,0.0106
3165.00,0.0105
3164.00,0.0105
3163.00,0.0104
3162.00,0.0103
3161.00,0.0103
3160.00,0.0102
3159.00,0.0101
3158.00,0.0101
3157.00,0.0100
3156.00,0.0099
3155.00,0.0099
3154.00,0.0098
3153.00,0.0097
3152.00,0.0097
3151.00,0.0096
3150.00,0.0095
3149.00,0.0095
3148.00,0.0094
3147.00,0.0094
3146.00,0.0093
3145.00,0.0093
3144.00,0.0092
3143.00,0.0092
3142.00,0.0091
3141.00,0.0091
3140.00,0.0091
3139.00,0.0090
3138.00,0.0090
3137.00,0.0089
3136.00,0.0089
3135.00,0.0089
3134.00,0.0088
3133.00,0.0088
3132.00,0.0088
3131.00,0.0087
3130.00,0.0087
3129.00,0.0087
3128.00,0.0086
3127.00,0.0086
3126.00,0.0086
3125.00,0.0086
3124.00,0.0086
3123.00,0.0086
3122.00,0.0086
3121.00,0.0086
3120.00,0.0086
3119.00,0.0086
3118.00,0.0086
3117.00,0.0086
3116.00,0.0086
3115.00,0.0085
3114.00,0.0085
3113.00,0.0085
3112.00,0.0085
3111.00,0.0086
3110.00,0.0086
3109.00,0.0086
3108.00,0.0086
3107.00,0.0086
3106.00,0.0086
3105.00,0.0086
3104.00,0.0086
3103.00,0.0086
3102.00,0.0086
3101.00,0.0086
3100.00,0.0087
3099.00,0.0087
3098.00,0.0087
3097.00,0.0087
3096.00,0.0087
3095.00,0.0087
3094.00,0.0088
3093.00,0.0088
3092.00,0.0088
3091.00,0.0088
3090.00,0.0088
3089.00,0.0089
3088.00,0.0089
3087.00,0.0089
3086.00,0.0090
3085.00,0.0090
3084.00,0.0090
3083.00,0.0090
3082.00,0.0090
3081.00,0.0090
3080.00,0.0090
3079.00,0.0090
3078.00,0.0091
3077.00,0.0091
3076.00,0.0091
3075.00,0.0091
3074.00,0.0091
3073.00,0.0091
3072.00,0.0091
3071.00,0.0091
3070.00,0.0091
3069.00,0.0091
3068.00,0.0091
3067.00,0.0091
3066.00,0.0090
3065.00,0.0090
3064.00,0.0090
3063.00,0.0089
3062.00,0.0089
3061.00,0.0089
3060.00,0.0089
3059.00,0.0089
3058.00,0.0088
3057.00,0.0088
3056.00,0.0088
3055.00,0.0087
3054.00,0.0087
3053.00,0.0086
3052.00,0.0086
3051.00,0.0086
3050.00,0.0085
3049.00,0.0085
3048.00,0.0084
3047.00,0.0084
3046.00,0.0083
3045.00,0.0083
3044.00,0.0082
3043.00,0.0082
3042.00,0.0081
3041.00,0.0081
3040.00,0.0080
3039.00,0.0080
3038.00,0.0079
3037.00,0.0079
3036.00,0.0079
3035.00,0.0078
3034.00,0.0078
3033.00,0.0078
3032.00,0.0078
3031.00,0.0077
3030.00,0.0077
3029.00,0.0077
3028.00,0.0077
3027.00,0.0077
3026.00,0.0077
3025.00,0.0077
3024.00,0.0077
3023.00,0.0078
3022.00,0.0078
3021.00,0.0079
3020.00,0.0080
3019.00,0.0082
3018.00,0.0084
3017.00,0.0086
3016.00,0.0089
3015.00,0.0092
3014.00,0.0096
3013.00,0.0101
3012.00,0.0106
3011.00,0.0112
3010.00,0.0119
3009.00,0.0127
3008.00,0.0135
3007.00,0.0144
3006.00,0.0153
3005.00,0.0163
3004.00,0.0174
3003.00,0.0184
3002.00,0.0194
3001.00,0.0204
3000.00,0.0214
2999.00,0.0223
2998.00,0.0231
2997.00,0.0238
2996.00,0.0245
2995.00,0.0251
2994.00,0.0257
2993.00,0.0263
2992.00,0.0268
2991.00,0.0273
2990.00,0.0278
2989.00,0.0284
2988.00,0.0291
2987.00,0.0300
2986.00,0.0316
2985.00,0.0340
2984.00,0.0371
2983.00,0.0402
2982.00,0.0424
2981.00,0.0432
2980.00,0.0426
2979.00,0.0411
2978.00,0.0394
2977.00,0.0379
2976.00,0.0368
2975.00,0.0363
2974.00,0.0364
2973.00,0.0367
2972.00,0.0370
2971.00,0.0367
2970.00,0.0358
2969.00,0.0345
2968.00,0.0332
2967.00,0.0320
2966.00,0.0311
2965.00,0.0302
2964.00,0.0294
2963.00,0.0287
2962.00,0.0280
2961.00,0.0274
2960.00,0.0268
2959.00,0.0262
2958.00,0.0257
2957.00,0.0251
2956.00,0.0246
2955.00,0.0240
2954.00,0.0234
2953.00,0.0228
2952.00,0.0222
2951.00,0.0217
2950.00,0.0212
2949.00,0.0207
2948.00,0.0203
2947.00,0.0198
2946.00,0.0193
2945.00,0.0189
2944.00,0.0185
2943.00,0.0182
2942.00,0.0180
2941.00,0.0180
2940.00,0.0179
2939.00,0.0180
2938.00,0.0180
2937.00,0.0180
2936.00,0.0180
2935.00,0.0181
2934.00,0.0182
2933.00,0.0184
2932.00,0.0185
2931.00,0.0186
2930.00,0.0186
2929.00,0.0185
2928.00,0.0184
2927.00,0.0183
2926.00,0.0181
2925.00,0.0180
2924.00,0.0179
2923.00,0.0178
2922.00,0.0177
2921.00,0.0177
2920.00,0.0176
2919.00,0.0176
2918.00,0.0175
2917.00,0.0174
2916.00,0.0173
2915.00,0.0172
2914.00,0.0171
2913.00,0.0170
2912.00,0.0169
2911.00,0.0169
2910.00,0.0169
2909.00,0.0169
2908.00,0.0169
2907.00,0.0169
2906.00,0.0169
2905.00,0.0169
2904.00,0.0169
2903.00,0.0169
2902.00,0.0169
2901.00,0.0168
2900.00,0.0168
2899.00,0.0168
2898.00,0.0169
2897.00,0.0169
2896.00,0.0170
2895.00,0.0171
2894.00,0.0173
2893.00,0.0175
2892.00,0.0177
2891.00,0.0179
2890.00,0.0180
2889.00,0.0180
2888.00,0.0179
2887.00,0.0178
2886.00,0.0178
2885.00,0.0177
2884.00,0.0176
2883.00,0.0174
2882.00,0.0170
2881.00,0.0164
2880.00,0.0158
2879.00,0.0153
2878.00,0.0149
2877.00,0.0146
2876.00,0.0143
2875.00,0.0141
2874.00,0.0139
2873.00,0.0137
2872.00,0.0135
2871.00,0.0133
2870.00,0.0131
2869.00,0.0128
2868.00,0.0126
2867.00,0.0123
2866.00,0.0120
2865.00,0.0118
2864.00,0.0115
2863.00,0.0113
2862.00,0.0111
2861.00,0.0109
2860.00,0.0107
2859.00,0.0105
2858.00,0.0104
2857.00,0.0103
2856.00,0.0102
2855.00,0.0101
2854.00,0.0100
2853.00,0.0100
2852.00,0.0098
2851.00,0.0096
2850.00,0.0094
2849.00,0.0091
2848.00,0.0088
2847.00,0.0085
2846.00,0.0082
2845.00,0.0079
2844.00,0.0077
2843.00,0.0075
2842.00,0.0073
2841.00,0.0072
2840.00,0.0070
2839.00,0.0069
2838.00,0.0069
2837.00,0.0068
2836.00,0.0067
2835.00,0.0066
2834.00,0.0066
2833.00,0.0065
2832.00,0.0065
2831.00,0.0064
2830.00,0.0064
2829.00,0.0063
2828.00,0.0063
2827.00,0.0063
2826.00,0.0062
2825.00,0.0062
2824.00,0.0061
2823.00,0.0061
2822.00,0.0061
2821.00,0.0060
2820.00,0.0060
2819.00,0.0059
2818.00,0.0059
2817.00,0.0059
2816.00,0.0058
2815.00,0.0058
2814.00,0.0058
2813.00,0.0057
2812.00,0.0057
2811.00,0.0057
2810.00,0.0056
2809.00,0.0056
2808.00,0.0056
2807.00,0.0055
2806.00,0.0055
2805.00,0.0055
2804.00,0.0055
2803.00,0.0054
2802.00,0.0054
2801.00,0.0054
2800.00,0.0054
2799.00,0.0054
2798.00,0.0053
2797.00,0.0053
2796.00,0.0053
2795.00,0.0053
2794.00,0.0052
2793.00,0.0052
2792.00,0.0052
2791.00,0.0052
2790.00,0.0051
2789.00,0.0051
2788.00,0.0051
2787.00,0.0051
2786.00,0.0051
2785.00,0.0050
2784.00,0.0050
2783.00,0.0050
2782.00,0.0050
2781.00,0.0049
2780.00,0.0049
2779.00,0.0049
2778.00,0.0048
2777.00,0.0048
2776.00,0.0048
2775.00,0.0048
2774.00,0.0048
2773.00,0.0048
2772.00,0.0048
2771.00,0.0047
2770.00,0.0047
2769.00,0.0047
2768.00,0.0046
2767.00,0.0046
2766.00,0.0046
2765.00,0.0046
2764.00,0.0046
2763.00,0.0046
2762.00,0.0045
2761.00,0.0045
2760.00,0.0045
2759.00,0.0045
2758.00,0.0044
2757.00,0.0044
