Created as New Dataset,Sample 375 By YargerLab Date Wednesday, October 23 2024
cm-1,A
4000.00,0.0021
3999.00,0.0021
3998.00,0.0021
3997.00,0.0021
3996.00,0.0021
3995.00,0.0022
3994.00,0.0022
3993.00,0.0022
3992.00,0.0022
3991.00,0.0022
3990.00,0.0022
3989.00,0.0022
3988.00,0.0022
3987.00,0.0022
3986.00,0.0022
3985.00,0.0022
3984.00,0.0022
3983.00,0.0022
3982.00,0.0022
3981.00,0.0022
3980.00,0.0021
3979.00,0.0021
3978.00,0.0021
3977.00,0.0021
3976.00,0.0021
3975.00,0.0021
3974.00,0.0021
3973.00,0.0021
3972.00,0.0021
3971.00,0.0021
3970.00,0.0021
3969.00,0.0021
3968.00,0.0021
3967.00,0.0021
3966.00,0.0021
3965.00,0.0021
3964.00,0.0021
3963.00,0.0021
3962.00,0.0021
3961.00,0.0021
3960.00,0.0021
3959.00,0.0021
3958.00,0.0021
3957.00,0.0021
3956.00,0.0021
3955.00,0.0021
3954.00,0.0021
3953.00,0.0021
3952.00,0.0021
3951.00,0.0021
3950.00,0.0022
3949.00,0.0022
3948.00,0.0022
3947.00,0.0021
3946.00,0.0021
3945.00,0.0021
3944.00,0.0021
3943.00,0.0021
3942.00,0.0021
3941.00,0.0021
3940.00,0.0021
3939.00,0.0021
3938.00,0.0021
3937.00,0.0021
3936.00,0.0021
3935.00,0.0021
3934.00,0.0021
3933.00,0.0021
3932.00,0.0021
3931.00,0.0021
3930.00,0.0021
3929.00,0.0021
3928.00,0.0021
3927.00,0.0021
3926.00,0.0021
3925.00,0.0021
3924.00,0.0021
3923.00,0.0021
3922.00,0.0021
3921.00,0.0021
3920.00,0.0021
3919.00,0.0021
3918.00,0.0021
3917.00,0.0021
3916.00,0.0021
3915.00,0.0021
3914.00,0.0021
3913.00,0.0020
3912.00,0.0020
3911.00,0.0020
3910.00,0.0020
3909.00,0.0020
3908.00,0.0020
3907.00,0.0020
3906.00,0.0021
3905.00,0.0021
3904.00,0.0021
3903.00,0.0021
3902.00,0.0021
3901.00,0.0021
3900.00,0.0021
3899.00,0.0021
3898.00,0.0021
3897.00,0.0020
3896.00,0.0020
3895.00,0.0020
3894.00,0.0020
3893.00,0.0020
3892.00,0.0020
3891.00,0.0020
3890.00,0.0020
3889.00,0.0020
3888.00,0.0020
3887.00,0.0020
3886.00,0.0020
3885.00,0.0020
3884.00,0.0020
3883.00,0.0020
3882.00,0.0020
3881.00,0.0020
3880.00,0.0020
3879.00,0.0020
3878.00,0.0020
3877.00,0.0020
3876.00,0.0020
3875.00,0.0020
3874.00,0.0020
3873.00,0.0020
3872.00,0.0020
3871.00,0.0020
3870.00,0.0020
3869.00,0.0019
3868.00,0.0020
3867.00,0.0020
3866.00,0.0020
3865.00,0.0020
3864.00,0.0020
3863.00,0.0020
3862.00,0.0020
3861.00,0.0020
3860.00,0.0019
3859.00,0.0019
3858.00,0.0019
3857.00,0.0020
3856.00,0.0020
3855.00,0.0019
3854.00,0.0019
3853.00,0.0019
3852.00,0.0019
3851.00,0.0019
3850.00,0.0019
3849.00,0.0019
3848.00,0.0019
3847.00,0.0019
3846.00,0.0019
3845.00,0.0019
3844.00,0.0019
3843.00,0.0019
3842.00,0.0019
3841.00,0.0019
3840.00,0.0019
3839.00,0.0019
3838.00,0.0019
3837.00,0.0019
3836.00,0.0019
3835.00,0.0019
3834.00,0.0019
3833.00,0.0019
3832.00,0.0019
3831.00,0.0019
3830.00,0.0019
3829.00,0.0019
3828.00,0.0019
3827.00,0.0019
3826.00,0.0019
3825.00,0.0019
3824.00,0.0019
3823.00,0.0019
3822.00,0.0019
3821.00,0.0018
3820.00,0.0018
3819.00,0.0019
3818.00,0.0019
3817.00,0.0019
3816.00,0.0019
3815.00,0.0019
3814.00,0.0019
3813.00,0.0019
3812.00,0.0019
3811.00,0.0018
3810.00,0.0018
3809.00,0.0018
3808.00,0.0018
3807.00,0.0018
3806.00,0.0018
3805.00,0.0018
3804.00,0.0019
3803.00,0.0019
3802.00,0.0018
3801.00,0.0018
3800.00,0.0018
3799.00,0.0019
3798.00,0.0019
3797.00,0.0019
3796.00,0.0019
3795.00,0.0018
3794.00,0.0018
3793.00,0.0018
3792.00,0.0018
3791.00,0.0018
3790.00,0.0018
3789.00,0.0018
3788.00,0.0018
3787.00,0.0018
3786.00,0.0018
3785.00,0.0018
3784.00,0.0018
3783.00,0.0018
3782.00,0.0018
3781.00,0.0018
3780.00,0.0018
3779.00,0.0018
3778.00,0.0018
3777.00,0.0019
3776.00,0.0019
3775.00,0.0019
3774.00,0.0019
3773.00,0.0019
3772.00,0.0019
3771.00,0.0019
3770.00,0.0019
3769.00,0.0019
3768.00,0.0019
3767.00,0.0019
3766.00,0.0019
3765.00,0.0019
3764.00,0.0018
3763.00,0.0018
3762.00,0.0018
3761.00,0.0018
3760.00,0.0018
3759.00,0.0018
3758.00,0.0018
3757.00,0.0018
3756.00,0.0018
3755.00,0.0018
3754.00,0.0019
3753.00,0.0019
3752.00,0.0019
3751.00,0.0019
3750.00,0.0019
3749.00,0.0019
3748.00,0.0019
3747.00,0.0020
3746.00,0.0020
3745.00,0.0020
3744.00,0.0019
3743.00,0.0019
3742.00,0.0019
3741.00,0.0019
3740.00,0.0019
3739.00,0.0019
3738.00,0.0019
3737.00,0.0019
3736.00,0.0020
3735.00,0.0020
3734.00,0.0020
3733.00,0.0020
3732.00,0.0020
3731.00,0.0019
3730.00,0.0019
3729.00,0.0018
3728.00,0.0018
3727.00,0.0018
3726.00,0.0018
3725.00,0.0019
3724.00,0.0019
3723.00,0.0019
3722.00,0.0019
3721.00,0.0019
3720.00,0.0019
3719.00,0.0019
3718.00,0.0019
3717.00,0.0019
3716.00,0.0019
3715.00,0.0019
3714.00,0.0019
3713.00,0.0018
3712.00,0.0018
3711.00,0.0018
3710.00,0.0019
3709.00,0.0019
3708.00,0.0019
3707.00,0.0019
3706.00,0.0019
3705.00,0.0019
3704.00,0.0019
3703.00,0.0019
3702.00,0.0019
3701.00,0.0019
3700.00,0.0019
3699.00,0.0019
3698.00,0.0019
3697.00,0.0019
3696.00,0.0019
3695.00,0.0019
3694.00,0.0019
3693.00,0.0019
3692.00,0.0020
3691.00,0.0020
3690.00,0.0020
3689.00,0.0020
3688.00,0.0021
3687.00,0.0021
3686.00,0.0021
3685.00,0.0021
3684.00,0.0021
3683.00,0.0021
3682.00,0.0022
3681.00,0.0022
3680.00,0.0022
3679.00,0.0022
3678.00,0.0022
3677.00,0.0022
3676.00,0.0022
3675.00,0.0023
3674.00,0.0024
3673.00,0.0024
3672.00,0.0025
3671.00,0.0025
3670.00,0.0025
3669.00,0.0025
3668.00,0.0025
3667.00,0.0026
3666.00,0.0026
3665.00,0.0026
3664.00,0.0026
3663.00,0.0026
3662.00,0.0027
3661.00,0.0027
3660.00,0.0027
3659.00,0.0027
3658.00,0.0028
3657.00,0.0028
3656.00,0.0028
3655.00,0.0029
3654.00,0.0029
3653.00,0.0030
3652.00,0.0030
3651.00,0.0031
3650.00,0.0031
3649.00,0.0032
3648.00,0.0033
3647.00,0.0033
3646.00,0.0033
3645.00,0.0033
3644.00,0.0033
3643.00,0.0034
3642.00,0.0034
3641.00,0.0035
3640.00,0.0035
3639.00,0.0036
3638.00,0.0036
3637.00,0.0037
3636.00,0.0037
3635.00,0.0038
3634.00,0.0038
3633.00,0.0039
3632.00,0.0039
3631.00,0.0040
3630.00,0.0040
3629.00,0.0041
3628.00,0.0042
3627.00,0.0043
3626.00,0.0043
3625.00,0.0043
3624.00,0.0044
3623.00,0.0044
3622.00,0.0044
3621.00,0.0045
3620.00,0.0046
3619.00,0.0047
3618.00,0.0047
3617.00,0.0048
3616.00,0.0049
3615.00,0.0049
3614.00,0.0050
3613.00,0.0050
3612.00,0.0051
3611.00,0.0052
3610.00,0.0053
3609.00,0.0054
3608.00,0.0054
3607.00,0.0055
3606.00,0.0055
3605.00,0.0055
3604.00,0.0056
3603.00,0.0056
3602.00,0.0057
3601.00,0.0057
3600.00,0.0058
3599.00,0.0059
3598.00,0.0059
3597.00,0.0060
3596.00,0.0061
3595.00,0.0062
3594.00,0.0063
3593.00,0.0064
3592.00,0.0064
3591.00,0.0065
3590.00,0.0066
3589.00,0.0067
3588.00,0.0068
3587.00,0.0069
3586.00,0.0070
3585.00,0.0071
3584.00,0.0071
3583.00,0.0072
3582.00,0.0072
3581.00,0.0073
3580.00,0.0073
3579.00,0.0074
3578.00,0.0075
3577.00,0.0076
3576.00,0.0077
3575.00,0.0078
3574.00,0.0079
3573.00,0.0079
3572.00,0.0080
3571.00,0.0081
3570.00,0.0082
3569.00,0.0083
3568.00,0.0084
3567.00,0.0086
3566.00,0.0087
3565.00,0.0088
3564.00,0.0088
3563.00,0.0088
3562.00,0.0088
3561.00,0.0089
3560.00,0.0090
3559.00,0.0091
3558.00,0.0092
3557.00,0.0092
3556.00,0.0093
3555.00,0.0094
3554.00,0.0095
3553.00,0.0096
3552.00,0.0097
3551.00,0.0098
3550.00,0.0099
3549.00,0.0099
3548.00,0.0100
3547.00,0.0101
3546.00,0.0102
3545.00,0.0103
3544.00,0.0104
3543.00,0.0105
3542.00,0.0106
3541.00,0.0106
3540.00,0.0107
3539.00,0.0108
3538.00,0.0108
3537.00,0.0109
3536.00,0.0110
3535.00,0.0111
3534.00,0.0112
3533.00,0.0113
3532.00,0.0114
3531.00,0.0114
3530.00,0.0115
3529.00,0.0116
3528.00,0.0117
3527.00,0.0118
3526.00,0.0120
3525.00,0.0121
3524.00,0.0122
3523.00,0.0122
3522.00,0.0123
3521.00,0.0124
3520.00,0.0124
3519.00,0.0125
3518.00,0.0126
3517.00,0.0127
3516.00,0.0128
3515.00,0.0129
3514.00,0.0130
3513.00,0.0131
3512.00,0.0132
3511.00,0.0133
3510.00,0.0134
3509.00,0.0135
3508.00,0.0136
3507.00,0.0137
3506.00,0.0138
3505.00,0.0139
3504.00,0.0140
3503.00,0.0141
3502.00,0.0143
3501.00,0.0144
3500.00,0.0145
3499.00,0.0145
3498.00,0.0146
3497.00,0.0147
3496.00,0.0148
3495.00,0.0149
3494.00,0.0150
3493.00,0.0151
3492.00,0.0152
3491.00,0.0153
3490.00,0.0154
3489.00,0.0156
3488.00,0.0157
3487.00,0.0158
3486.00,0.0159
3485.00,0.0160
3484.00,0.0162
3483.00,0.0163
3482.00,0.0164
3481.00,0.0165
3480.00,0.0166
3479.00,0.0167
3478.00,0.0168
3477.00,0.0169
3476.00,0.0170
3475.00,0.0171
3474.00,0.0172
3473.00,0.0173
3472.00,0.0174
3471.00,0.0175
3470.00,0.0176
3469.00,0.0177
3468.00,0.0178
3467.00,0.0180
3466.00,0.0181
3465.00,0.0182
3464.00,0.0183
3463.00,0.0184
3462.00,0.0185
3461.00,0.0186
3460.00,0.0187
3459.00,0.0188
3458.00,0.0189
3457.00,0.0190
3456.00,0.0191
3455.00,0.0192
3454.00,0.0193
3453.00,0.0194
3452.00,0.0195
3451.00,0.0196
3450.00,0.0198
3449.00,0.0199
3448.00,0.0200
3447.00,0.0202
3446.00,0.0203
3445.00,0.0204
3444.00,0.0205
3443.00,0.0207
3442.00,0.0208
3441.00,0.0210
3440.00,0.0211
3439.00,0.0212
3438.00,0.0214
3437.00,0.0215
3436.00,0.0216
3435.00,0.0218
3434.00,0.0219
3433.00,0.0220
3432.00,0.0222
3431.00,0.0223
3430.00,0.0225
3429.00,0.0226
3428.00,0.0228
3427.00,0.0229
3426.00,0.0231
3425.00,0.0232
3424.00,0.0234
3423.00,0.0235
3422.00,0.0236
3421.00,0.0238
3420.00,0.0239
3419.00,0.0241
3418.00,0.0242
3417.00,0.0244
3416.00,0.0245
3415.00,0.0246
3414.00,0.0248
3413.00,0.0249
3412.00,0.0250
3411.00,0.0252
3410.00,0.0253
3409.00,0.0255
3408.00,0.0256
3407.00,0.0258
3406.00,0.0259
3405.00,0.0260
3404.00,0.0261
3403.00,0.0262
3402.00,0.0263
3401.00,0.0265
3400.00,0.0266
3399.00,0.0268
3398.00,0.0269
3397.00,0.0270
3396.00,0.0272
3395.00,0.0273
3394.00,0.0274
3393.00,0.0275
3392.00,0.0277
3391.00,0.0278
3390.00,0.0280
3389.00,0.0282
3388.00,0.0284
3387.00,0.0285
3386.00,0.0286
3385.00,0.0288
3384.00,0.0289
3383.00,0.0290
3382.00,0.0292
3381.00,0.0293
3380.00,0.0295
3379.00,0.0296
3378.00,0.0298
3377.00,0.0300
3376.00,0.0301
3375.00,0.0303
3374.00,0.0304
3373.00,0.0306
3372.00,0.0307
3371.00,0.0309
3370.00,0.0310
3369.00,0.0312
3368.00,0.0314
3367.00,0.0316
3366.00,0.0318
3365.00,0.0320
3364.00,0.0323
3363.00,0.0325
3362.00,0.0326
3361.00,0.0328
3360.00,0.0330
3359.00,0.0332
3358.00,0.0335
3357.00,0.0337
3356.00,0.0339
3355.00,0.0341
3354.00,0.0343
3353.00,0.0344
3352.00,0.0346
3351.00,0.0348
3350.00,0.0351
3349.00,0.0353
3348.00,0.0355
3347.00,0.0358
3346.00,0.0360
3345.00,0.0362
3344.00,0.0364
3343.00,0.0366
3342.00,0.0368
3341.00,0.0370
3340.00,0.0372
3339.00,0.0374
3338.00,0.0377
3337.00,0.0379
3336.00,0.0382
3335.00,0.0385
3334.00,0.0388
3333.00,0.0391
3332.00,0.0394
3331.00,0.0396
3330.00,0.0398
3329.00,0.0401
3328.00,0.0403
3327.00,0.0405
3326.00,0.0408
3325.00,0.0411
3324.00,0.0414
3323.00,0.0417
3322.00,0.0420
3321.00,0.0423
3320.00,0.0425
3319.00,0.0428
3318.00,0.0431
3317.00,0.0434
3316.00,0.0437
3315.00,0.0439
3314.00,0.0442
3313.00,0.0445
3312.00,0.0447
3311.00,0.0449
3310.00,0.0451
3309.00,0.0453
3308.00,0.0455
3307.00,0.0458
3306.00,0.0461
3305.00,0.0464
3304.00,0.0468
3303.00,0.0471
3302.00,0.0475
3301.00,0.0478
3300.00,0.0481
3299.00,0.0483
3298.00,0.0485
3297.00,0.0486
3296.00,0.0488
3295.00,0.0490
3294.00,0.0492
3293.00,0.0494
3292.00,0.0497
3291.00,0.0499
3290.00,0.0501
3289.00,0.0504
3288.00,0.0506
3287.00,0.0507
3286.00,0.0508
3285.00,0.0510
3284.00,0.0511
3283.00,0.0511
3282.00,0.0512
3281.00,0.0512
3280.00,0.0513
3279.00,0.0513
3278.00,0.0513
3277.00,0.0512
3276.00,0.0511
3275.00,0.0510
3274.00,0.0509
3273.00,0.0507
3272.00,0.0506
3271.00,0.0505
3270.00,0.0504
3269.00,0.0503
3268.00,0.0502
3267.00,0.0501
3266.00,0.0499
3265.00,0.0496
3264.00,0.0494
3263.00,0.0492
3262.00,0.0489
3261.00,0.0487
3260.00,0.0484
3259.00,0.0481
3258.00,0.0478
3257.00,0.0475
3256.00,0.0472
3255.00,0.0470
3254.00,0.0467
3253.00,0.0465
3252.00,0.0463
3251.00,0.0460
3250.00,0.0457
3249.00,0.0453
3248.00,0.0450
3247.00,0.0448
3246.00,0.0445
3245.00,0.0444
3244.00,0.0442
3243.00,0.0440
3242.00,0.0438
3241.00,0.0436
3240.00,0.0434
3239.00,0.0431
3238.00,0.0429
3237.00,0.0426
3236.00,0.0424
3235.00,0.0421
3234.00,0.0419
3233.00,0.0417
3232.00,0.0416
3231.00,0.0415
3230.00,0.0414
3229.00,0.0413
3228.00,0.0412
3227.00,0.0410
3226.00,0.0408
3225.00,0.0407
3224.00,0.0406
3223.00,0.0404
3222.00,0.0402
3221.00,0.0401
3220.00,0.0399
3219.00,0.0398
3218.00,0.0397
3217.00,0.0396
3216.00,0.0394
3215.00,0.0393
3214.00,0.0392
3213.00,0.0390
3212.00,0.0389
3211.00,0.0388
3210.00,0.0387
3209.00,0.0385
3208.00,0.0384
3207.00,0.0383
3206.00,0.0382
3205.00,0.0380
3204.00,0.0379
3203.00,0.0378
3202.00,0.0377
3201.00,0.0376
3200.00,0.0374
3199.00,0.0372
3198.00,0.0371
3197.00,0.0370
3196.00,0.0368
3195.00,0.0367
3194.00,0.0366
3193.00,0.0364
3192.00,0.0363
3191.00,0.0362
3190.00,0.0360
3189.00,0.0359
3188.00,0.0357
3187.00,0.0356
3186.00,0.0354
3185.00,0.0353
3184.00,0.0352
3183.00,0.0350
3182.00,0.0349
3181.00,0.0347
3180.00,0.0346
3179.00,0.0344
3178.00,0.0343
3177.00,0.0341
3176.00,0.0340
3175.00,0.0339
3174.00,0.0337
3173.00,0.0336
3172.00,0.0334
3171.00,0.0332
3170.00,0.0331
3169.00,0.0329
3168.00,0.0328
3167.00,0.0326
3166.00,0.0325
3165.00,0.0324
3164.00,0.0322
3163.00,0.0321
3162.00,0.0319
3161.00,0.0318
3160.00,0.0316
3159.00,0.0315
3158.00,0.0313
3157.00,0.0312
3156.00,0.0310
3155.00,0.0309
3154.00,0.0307
3153.00,0.0306
3152.00,0.0305
3151.00,0.0304
3150.00,0.0303
3149.00,0.0303
3148.00,0.0302
3147.00,0.0301
3146.00,0.0299
3145.00,0.0298
3144.00,0.0297
3143.00,0.0295
3142.00,0.0294
3141.00,0.0293
3140.00,0.0291
3139.00,0.0291
3138.00,0.0290
3137.00,0.0290
3136.00,0.0289
3135.00,0.0288
3134.00,0.0287
3133.00,0.0286
3132.00,0.0286
3131.00,0.0285
3130.00,0.0284
3129.00,0.0284
3128.00,0.0283
3127.00,0.0283
3126.00,0.0282
3125.00,0.0281
3124.00,0.0280
3123.00,0.0279
3122.00,0.0278
3121.00,0.0277
3120.00,0.0276
3119.00,0.0276
3118.00,0.0276
3117.00,0.0276
3116.00,0.0276
3115.00,0.0276
3114.00,0.0277
3113.00,0.0278
3112.00,0.0278
3111.00,0.0278
3110.00,0.0277
3109.00,0.0277
3108.00,0.0277
3107.00,0.0278
3106.00,0.0279
3105.00,0.0279
3104.00,0.0279
3103.00,0.0279
3102.00,0.0278
3101.00,0.0279
3100.00,0.0279
3099.00,0.0280
3098.00,0.0281
3097.00,0.0282
3096.00,0.0282
3095.00,0.0283
3094.00,0.0283
3093.00,0.0283
3092.00,0.0282
3091.00,0.0282
3090.00,0.0283
3089.00,0.0283
3088.00,0.0284
3087.00,0.0284
3086.00,0.0284
3085.00,0.0284
3084.00,0.0284
3083.00,0.0284
3082.00,0.0284
3081.00,0.0283
3080.00,0.0283
3079.00,0.0284
3078.00,0.0285
3077.00,0.0286
3076.00,0.0287
3075.00,0.0288
3074.00,0.0288
3073.00,0.0288
3072.00,0.0288
3071.00,0.0287
3070.00,0.0286
3069.00,0.0285
3068.00,0.0285
3067.00,0.0285
3066.00,0.0285
3065.00,0.0285
3064.00,0.0285
3063.00,0.0285
3062.00,0.0285
3061.00,0.0284
3060.00,0.0284
3059.00,0.0282
3058.00,0.0281
3057.00,0.0280
3056.00,0.0279
3055.00,0.0277
3054.00,0.0276
3053.00,0.0275
3052.00,0.0274
3051.00,0.0273
3050.00,0.0272
3049.00,0.0271
3048.00,0.0269
3047.00,0.0268
3046.00,0.0266
3045.00,0.0264
3044.00,0.0263
3043.00,0.0262
3042.00,0.0261
3041.00,0.0261
3040.00,0.0260
3039.00,0.0260
3038.00,0.0259
3037.00,0.0257
3036.00,0.0256
3035.00,0.0254
3034.00,0.0253
3033.00,0.0253
3032.00,0.0253
3031.00,0.0252
3030.00,0.0251
3029.00,0.0250
3028.00,0.0249
3027.00,0.0248
3026.00,0.0246
3025.00,0.0245
3024.00,0.0244
3023.00,0.0243
3022.00,0.0242
3021.00,0.0241
3020.00,0.0239
3019.00,0.0238
3018.00,0.0236
3017.00,0.0235
3016.00,0.0234
3015.00,0.0233
3014.00,0.0232
3013.00,0.0231
3012.00,0.0231
3011.00,0.0231
3010.00,0.0231
3009.00,0.0232
3008.00,0.0232
3007.00,0.0231
3006.00,0.0231
3005.00,0.0230
3004.00,0.0230
3003.00,0.0230
3002.00,0.0230
3001.00,0.0230
3000.00,0.0230
2999.00,0.0230
2998.00,0.0230
2997.00,0.0231
2996.00,0.0232
2995.00,0.0233
2994.00,0.0234
2993.00,0.0235
2992.00,0.0237
2991.00,0.0239
2990.00,0.0242
2989.00,0.0244
2988.00,0.0247
2987.00,0.0250
2986.00,0.0253
2985.00,0.0256
2984.00,0.0259
2983.00,0.0262
2982.00,0.0266
2981.00,0.0270
2980.00,0.0274
2979.00,0.0279
2978.00,0.0284
2977.00,0.0288
2976.00,0.0293
2975.00,0.0298
2974.00,0.0303
2973.00,0.0307
2972.00,0.0312
2971.00,0.0317
2970.00,0.0321
2969.00,0.0325
2968.00,0.0329
2967.00,0.0333
2966.00,0.0336
2965.00,0.0338
2964.00,0.0340
2963.00,0.0342
2962.00,0.0343
2961.00,0.0344
2960.00,0.0344
2959.00,0.0344
2958.00,0.0344
2957.00,0.0343
2956.00,0.0341
2955.00,0.0339
2954.00,0.0336
2953.00,0.0334
2952.00,0.0332
2951.00,0.0330
2950.00,0.0328
2949.00,0.0327
2948.00,0.0326
2947.00,0.0326
2946.00,0.0327
2945.00,0.0328
2944.00,0.0330
2943.00,0.0332
2942.00,0.0336
2941.00,0.0339
2940.00,0.0343
2939.00,0.0347
2938.00,0.0351
2937.00,0.0355
2936.00,0.0358
2935.00,0.0362
2934.00,0.0365
2933.00,0.0368
2932.00,0.0370
2931.00,0.0372
2930.00,0.0373
2929.00,0.0375
2928.00,0.0376
2927.00,0.0376
2926.00,0.0376
2925.00,0.0376
2924.00,0.0375
2923.00,0.0374
2922.00,0.0371
2921.00,0.0368
2920.00,0.0365
2919.00,0.0360
2918.00,0.0355
2917.00,0.0350
2916.00,0.0345
2915.00,0.0339
2914.00,0.0334
2913.00,0.0329
2912.00,0.0325
2911.00,0.0321
2910.00,0.0317
2909.00,0.0313
2908.00,0.0309
2907.00,0.0306
2906.00,0.0302
2905.00,0.0299
2904.00,0.0296
2903.00,0.0293
2902.00,0.0291
2901.00,0.0289
2900.00,0.0286
2899.00,0.0284
2898.00,0.0282
2897.00,0.0280
2896.00,0.0278
2895.00,0.0276
2894.00,0.0274
2893.00,0.0273
2892.00,0.0272
2891.00,0.0270
2890.00,0.0269
2889.00,0.0269
2888.00,0.0268
2887.00,0.0268
2886.00,0.0268
2885.00,0.0268
2884.00,0.0268
2883.00,0.0269
2882.00,0.0270
2881.00,0.0271
2880.00,0.0273
2879.00,0.0274
2878.00,0.0275
2877.00,0.0276
2876.00,0.0277
2875.00,0.0277
2874.00,0.0276
2873.00,0.0276
2872.00,0.0276
2871.00,0.0275
2870.00,0.0273
2869.00,0.0271
2868.00,0.0269
2867.00,0.0267
2866.00,0.0264
2865.00,0.0263
2864.00,0.0261
2863.00,0.0260
2862.00,0.0260
2861.00,0.0259
2860.00,0.0259
2859.00,0.0260
2858.00,0.0260
2857.00,0.0261
2856.00,0.0261
2855.00,0.0260
2854.00,0.0260
2853.00,0.0258
2852.00,0.0256
2851.00,0.0253
2850.00,0.0249
2849.00,0.0244
2848.00,0.0239
2847.00,0.0234
2846.00,0.0229
2845.00,0.0224
2844.00,0.0220
2843.00,0.0216
2842.00,0.0212
2841.00,0.0209
2840.00,0.0206
2839.00,0.0203
2838.00,0.0201
2837.00,0.0199
2836.00,0.0198
2835.00,0.0196
2834.00,0.0194
2833.00,0.0193
2832.00,0.0192
2831.00,0.0190
2830.00,0.0189
2829.00,0.0188
2828.00,0.0187
2827.00,0.0186
2826.00,0.0185
2825.00,0.0185
2824.00,0.0184
2823.00,0.0183
2822.00,0.0183
2821.00,0.0182
2820.00,0.0181
2819.00,0.0180
2818.00,0.0179
2817.00,0.0178
2816.00,0.0177
2815.00,0.0177
2814.00,0.0176
2813.00,0.0175
2812.00,0.0174
2811.00,0.0174
2810.00,0.0173
2809.00,0.0173
2808.00,0.0172
2807.00,0.0172
2806.00,0.0171
2805.00,0.0170
2804.00,0.0170
2803.00,0.0169
2802.00,0.0168
2801.00,0.0167
2800.00,0.0166
2799.00,0.0166
2798.00,0.0165
2797.00,0.0165
2796.00,0.0165
2795.00,0.0164
2794.00,0.0164
2793.00,0.0163
2792.00,0.0162
2791.00,0.0161
2790.00,0.0161
2789.00,0.0160
2788.00,0.0160
2787.00,0.0160
2786.00,0.0160
2785.00,0.0159
2784.00,0.0159
2783.00,0.0158
2782.00,0.0158
2781.00,0.0157
2780.00,0.0157
2779.00,0.0156
2778.00,0.0156
2777.00,0.0155
2776.00,0.0154
2775.00,0.0154
2774.00,0.0153
2773.00,0.0153
2772.00,0.0152
2771.00,0.0152
2770.00,0.0152
2769.00,0.0151
2768.00,0.0150
2767.00,0.0150
2766.00,0.0149
2765.00,0.0149
2764.00,0.0148
2763.00,0.0148
2762.00,0.0148
2761.00,0.0147
2760.00,0.0147
2759.00,0.0146
2758.00,0.0145
2757.00,0.0145
