Created as New Dataset,Sample 360 By YargerLab Date Wednesday, September 25 2024
cm-1,A
4000.00,0.0013
3999.00,0.0013
3998.00,0.0013
3997.00,0.0013
3996.00,0.0013
3995.00,0.0013
3994.00,0.0013
3993.00,0.0012
3992.00,0.0012
3991.00,0.0012
3990.00,0.0012
3989.00,0.0012
3988.00,0.0012
3987.00,0.0012
3986.00,0.0012
3985.00,0.0013
3984.00,0.0013
3983.00,0.0013
3982.00,0.0013
3981.00,0.0013
3980.00,0.0012
3979.00,0.0012
3978.00,0.0012
3977.00,0.0011
3976.00,0.0012
3975.00,0.0012
3974.00,0.0012
3973.00,0.0012
3972.00,0.0012
3971.00,0.0012
3970.00,0.0012
3969.00,0.0012
3968.00,0.0012
3967.00,0.0012
3966.00,0.0012
3965.00,0.0011
3964.00,0.0011
3963.00,0.0011
3962.00,0.0011
3961.00,0.0011
3960.00,0.0011
3959.00,0.0011
3958.00,0.0012
3957.00,0.0012
3956.00,0.0012
3955.00,0.0012
3954.00,0.0012
3953.00,0.0012
3952.00,0.0011
3951.00,0.0010
3950.00,0.0008
3949.00,0.0006
3948.00,0.0005
3947.00,0.0004
3946.00,0.0004
3945.00,0.0005
3944.00,0.0007
3943.00,0.0009
3942.00,0.0010
3941.00,0.0010
3940.00,0.0009
3939.00,0.0009
3938.00,0.0009
3937.00,0.0009
3936.00,0.0007
3935.00,0.0005
3934.00,0.0003
3933.00,0.0002
3932.00,0.0003
3931.00,0.0005
3930.00,0.0006
3929.00,0.0007
3928.00,0.0008
3927.00,0.0009
3926.00,0.0010
3925.00,0.0011
3924.00,0.0011
3923.00,0.0008
3922.00,0.0005
3921.00,0.0001
3920.00,-0.0001
3919.00,-0.0002
3918.00,-0.0002
3917.00,-0.0001
3916.00,0.0001
3915.00,0.0004
3914.00,0.0006
3913.00,0.0008
3912.00,0.0009
3911.00,0.0010
3910.00,0.0011
3909.00,0.0011
3908.00,0.0010
3907.00,0.0009
3906.00,0.0007
3905.00,0.0001
3904.00,-0.0006
3903.00,-0.0014
3902.00,-0.0019
3901.00,-0.0018
3900.00,-0.0014
3899.00,-0.0008
3898.00,-0.0004
3897.00,-0.0002
3896.00,-0.0002
3895.00,-0.0000
3894.00,0.0002
3893.00,0.0004
3892.00,0.0005
3891.00,0.0004
3890.00,0.0002
3889.00,-0.0002
3888.00,-0.0007
3887.00,-0.0010
3886.00,-0.0009
3885.00,-0.0006
3884.00,-0.0004
3883.00,-0.0005
3882.00,-0.0006
3881.00,-0.0005
3880.00,-0.0003
3879.00,-0.0003
3878.00,-0.0004
3877.00,-0.0006
3876.00,-0.0006
3875.00,-0.0003
3874.00,0.0000
3873.00,-0.0000
3872.00,-0.0006
3871.00,-0.0012
3870.00,-0.0014
3869.00,-0.0012
3868.00,-0.0011
3867.00,-0.0014
3866.00,-0.0015
3865.00,-0.0013
3864.00,-0.0009
3863.00,-0.0009
3862.00,-0.0011
3861.00,-0.0013
3860.00,-0.0012
3859.00,-0.0007
3858.00,-0.0000
3857.00,0.0007
3856.00,0.0010
3855.00,0.0009
3854.00,0.0005
3853.00,-0.0001
3852.00,-0.0007
3851.00,-0.0010
3850.00,-0.0012
3849.00,-0.0012
3848.00,-0.0011
3847.00,-0.0010
3846.00,-0.0008
3845.00,-0.0007
3844.00,-0.0007
3843.00,-0.0008
3842.00,-0.0009
3841.00,-0.0011
3840.00,-0.0012
3839.00,-0.0013
3838.00,-0.0012
3837.00,-0.0012
3836.00,-0.0011
3835.00,-0.0010
3834.00,-0.0010
3833.00,-0.0011
3832.00,-0.0010
3831.00,-0.0009
3830.00,-0.0008
3829.00,-0.0007
3828.00,-0.0006
3827.00,-0.0005
3826.00,-0.0004
3825.00,-0.0005
3824.00,-0.0009
3823.00,-0.0014
3822.00,-0.0015
3821.00,-0.0012
3820.00,-0.0010
3819.00,-0.0011
3818.00,-0.0015
3817.00,-0.0016
3816.00,-0.0013
3815.00,-0.0006
3814.00,-0.0002
3813.00,-0.0001
3812.00,-0.0000
3811.00,0.0001
3810.00,0.0002
3809.00,0.0001
3808.00,-0.0002
3807.00,-0.0004
3806.00,-0.0005
3805.00,-0.0008
3804.00,-0.0011
3803.00,-0.0014
3802.00,-0.0012
3801.00,-0.0008
3800.00,-0.0006
3799.00,-0.0008
3798.00,-0.0010
3797.00,-0.0009
3796.00,-0.0006
3795.00,-0.0002
3794.00,0.0001
3793.00,0.0003
3792.00,0.0005
3791.00,0.0008
3790.00,0.0010
3789.00,0.0010
3788.00,0.0010
3787.00,0.0010
3786.00,0.0010
3785.00,0.0009
3784.00,0.0008
3783.00,0.0006
3782.00,0.0004
3781.00,0.0002
3780.00,0.0003
3779.00,0.0004
3778.00,0.0005
3777.00,0.0005
3776.00,0.0004
3775.00,0.0004
3774.00,0.0005
3773.00,0.0005
3772.00,0.0002
3771.00,-0.0000
3770.00,-0.0002
3769.00,-0.0003
3768.00,-0.0005
3767.00,-0.0007
3766.00,-0.0007
3765.00,-0.0006
3764.00,-0.0004
3763.00,-0.0005
3762.00,-0.0007
3761.00,-0.0008
3760.00,-0.0007
3759.00,-0.0007
3758.00,-0.0009
3757.00,-0.0011
3756.00,-0.0013
3755.00,-0.0016
3754.00,-0.0020
3753.00,-0.0024
3752.00,-0.0027
3751.00,-0.0032
3750.00,-0.0038
3749.00,-0.0039
3748.00,-0.0037
3747.00,-0.0036
3746.00,-0.0037
3745.00,-0.0037
3744.00,-0.0033
3743.00,-0.0029
3742.00,-0.0029
3741.00,-0.0033
3740.00,-0.0038
3739.00,-0.0041
3738.00,-0.0044
3737.00,-0.0045
3736.00,-0.0042
3735.00,-0.0038
3734.00,-0.0036
3733.00,-0.0035
3732.00,-0.0032
3731.00,-0.0027
3730.00,-0.0022
3729.00,-0.0020
3728.00,-0.0020
3727.00,-0.0019
3726.00,-0.0017
3725.00,-0.0014
3724.00,-0.0014
3723.00,-0.0013
3722.00,-0.0011
3721.00,-0.0009
3720.00,-0.0007
3719.00,-0.0006
3718.00,-0.0005
3717.00,-0.0005
3716.00,-0.0006
3715.00,-0.0008
3714.00,-0.0011
3713.00,-0.0013
3712.00,-0.0012
3711.00,-0.0012
3710.00,-0.0013
3709.00,-0.0013
3708.00,-0.0012
3707.00,-0.0010
3706.00,-0.0007
3705.00,-0.0004
3704.00,-0.0001
3703.00,0.0001
3702.00,0.0004
3701.00,0.0005
3700.00,0.0005
3699.00,0.0004
3698.00,0.0003
3697.00,0.0003
3696.00,0.0004
3695.00,0.0003
3694.00,0.0002
3693.00,0.0000
3692.00,0.0001
3691.00,0.0001
3690.00,-0.0002
3689.00,-0.0007
3688.00,-0.0011
3687.00,-0.0010
3686.00,-0.0007
3685.00,-0.0005
3684.00,-0.0004
3683.00,-0.0003
3682.00,-0.0002
3681.00,-0.0001
3680.00,-0.0000
3679.00,-0.0001
3678.00,-0.0005
3677.00,-0.0010
3676.00,-0.0013
3675.00,-0.0012
3674.00,-0.0012
3673.00,-0.0014
3672.00,-0.0017
3671.00,-0.0016
3670.00,-0.0009
3669.00,-0.0003
3668.00,0.0000
3667.00,0.0002
3666.00,0.0004
3665.00,0.0007
3664.00,0.0011
3663.00,0.0014
3662.00,0.0015
3661.00,0.0016
3660.00,0.0016
3659.00,0.0014
3658.00,0.0011
3657.00,0.0008
3656.00,0.0007
3655.00,0.0005
3654.00,0.0001
3653.00,-0.0005
3652.00,-0.0011
3651.00,-0.0015
3650.00,-0.0017
3649.00,-0.0020
3648.00,-0.0021
3647.00,-0.0019
3646.00,-0.0013
3645.00,-0.0008
3644.00,-0.0003
3643.00,0.0001
3642.00,0.0006
3641.00,0.0010
3640.00,0.0012
3639.00,0.0013
3638.00,0.0013
3637.00,0.0012
3636.00,0.0010
3635.00,0.0007
3634.00,0.0005
3633.00,0.0003
3632.00,-0.0001
3631.00,-0.0007
3630.00,-0.0012
3629.00,-0.0013
3628.00,-0.0013
3627.00,-0.0012
3626.00,-0.0012
3625.00,-0.0011
3624.00,-0.0009
3623.00,-0.0006
3622.00,-0.0004
3621.00,-0.0001
3620.00,0.0000
3619.00,-0.0000
3618.00,-0.0003
3617.00,-0.0008
3616.00,-0.0012
3615.00,-0.0014
3614.00,-0.0014
3613.00,-0.0014
3612.00,-0.0015
3611.00,-0.0017
3610.00,-0.0019
3609.00,-0.0016
3608.00,-0.0011
3607.00,-0.0006
3606.00,-0.0002
3605.00,-0.0000
3604.00,0.0002
3603.00,0.0004
3602.00,0.0006
3601.00,0.0007
3600.00,0.0007
3599.00,0.0006
3598.00,0.0004
3597.00,0.0004
3596.00,0.0004
3595.00,0.0005
3594.00,0.0005
3593.00,0.0004
3592.00,0.0002
3591.00,-0.0001
3590.00,-0.0004
3589.00,-0.0004
3588.00,-0.0001
3587.00,0.0001
3586.00,0.0002
3585.00,0.0003
3584.00,0.0005
3583.00,0.0008
3582.00,0.0011
3581.00,0.0015
3580.00,0.0017
3579.00,0.0019
3578.00,0.0020
3577.00,0.0021
3576.00,0.0021
3575.00,0.0021
3574.00,0.0020
3573.00,0.0019
3572.00,0.0017
3571.00,0.0014
3570.00,0.0009
3569.00,0.0005
3568.00,0.0004
3567.00,0.0005
3566.00,0.0007
3565.00,0.0008
3564.00,0.0009
3563.00,0.0011
3562.00,0.0014
3561.00,0.0018
3560.00,0.0021
3559.00,0.0023
3558.00,0.0024
3557.00,0.0025
3556.00,0.0025
3555.00,0.0025
3554.00,0.0026
3553.00,0.0026
3552.00,0.0026
3551.00,0.0024
3550.00,0.0022
3549.00,0.0019
3548.00,0.0017
3547.00,0.0017
3546.00,0.0018
3545.00,0.0020
3544.00,0.0022
3543.00,0.0024
3542.00,0.0026
3541.00,0.0028
3540.00,0.0030
3539.00,0.0031
3538.00,0.0033
3537.00,0.0034
3536.00,0.0034
3535.00,0.0034
3534.00,0.0034
3533.00,0.0034
3532.00,0.0034
3531.00,0.0034
3530.00,0.0034
3529.00,0.0033
3528.00,0.0032
3527.00,0.0030
3526.00,0.0028
3525.00,0.0028
3524.00,0.0029
3523.00,0.0032
3522.00,0.0034
3521.00,0.0036
3520.00,0.0037
3519.00,0.0038
3518.00,0.0040
3517.00,0.0041
3516.00,0.0041
3515.00,0.0041
3514.00,0.0041
3513.00,0.0042
3512.00,0.0042
3511.00,0.0042
3510.00,0.0042
3509.00,0.0042
3508.00,0.0042
3507.00,0.0041
3506.00,0.0040
3505.00,0.0040
3504.00,0.0041
3503.00,0.0041
3502.00,0.0041
3501.00,0.0042
3500.00,0.0042
3499.00,0.0043
3498.00,0.0044
3497.00,0.0046
3496.00,0.0047
3495.00,0.0048
3494.00,0.0048
3493.00,0.0049
3492.00,0.0049
3491.00,0.0050
3490.00,0.0050
3489.00,0.0051
3488.00,0.0051
3487.00,0.0051
3486.00,0.0051
3485.00,0.0052
3484.00,0.0052
3483.00,0.0053
3482.00,0.0053
3481.00,0.0054
3480.00,0.0054
3479.00,0.0054
3478.00,0.0055
3477.00,0.0056
3476.00,0.0058
3475.00,0.0059
3474.00,0.0059
3473.00,0.0059
3472.00,0.0059
3471.00,0.0060
3470.00,0.0060
3469.00,0.0060
3468.00,0.0060
3467.00,0.0061
3466.00,0.0061
3465.00,0.0062
3464.00,0.0063
3463.00,0.0064
3462.00,0.0064
3461.00,0.0065
3460.00,0.0065
3459.00,0.0066
3458.00,0.0067
3457.00,0.0068
3456.00,0.0069
3455.00,0.0069
3454.00,0.0070
3453.00,0.0070
3452.00,0.0070
3451.00,0.0070
3450.00,0.0070
3449.00,0.0070
3448.00,0.0071
3447.00,0.0071
3446.00,0.0071
3445.00,0.0071
3444.00,0.0071
3443.00,0.0072
3442.00,0.0073
3441.00,0.0074
3440.00,0.0074
3439.00,0.0074
3438.00,0.0075
3437.00,0.0075
3436.00,0.0076
3435.00,0.0077
3434.00,0.0077
3433.00,0.0078
3432.00,0.0078
3431.00,0.0079
3430.00,0.0080
3429.00,0.0080
3428.00,0.0081
3427.00,0.0082
3426.00,0.0082
3425.00,0.0083
3424.00,0.0083
3423.00,0.0083
3422.00,0.0084
3421.00,0.0084
3420.00,0.0085
3419.00,0.0085
3418.00,0.0085
3417.00,0.0086
3416.00,0.0087
3415.00,0.0087
3414.00,0.0088
3413.00,0.0088
3412.00,0.0089
3411.00,0.0089
3410.00,0.0090
3409.00,0.0091
3408.00,0.0091
3407.00,0.0092
3406.00,0.0092
3405.00,0.0093
3404.00,0.0093
3403.00,0.0094
3402.00,0.0094
3401.00,0.0094
3400.00,0.0095
3399.00,0.0095
3398.00,0.0095
3397.00,0.0095
3396.00,0.0096
3395.00,0.0096
3394.00,0.0096
3393.00,0.0097
3392.00,0.0098
3391.00,0.0099
3390.00,0.0099
3389.00,0.0100
3388.00,0.0101
3387.00,0.0102
3386.00,0.0103
3385.00,0.0104
3384.00,0.0104
3383.00,0.0104
3382.00,0.0105
3381.00,0.0105
3380.00,0.0106
3379.00,0.0106
3378.00,0.0107
3377.00,0.0108
3376.00,0.0108
3375.00,0.0109
3374.00,0.0110
3373.00,0.0110
3372.00,0.0110
3371.00,0.0111
3370.00,0.0111
3369.00,0.0112
3368.00,0.0113
3367.00,0.0113
3366.00,0.0114
3365.00,0.0115
3364.00,0.0116
3363.00,0.0117
3362.00,0.0118
3361.00,0.0119
3360.00,0.0120
3359.00,0.0121
3358.00,0.0122
3357.00,0.0124
3356.00,0.0125
3355.00,0.0125
3354.00,0.0126
3353.00,0.0126
3352.00,0.0127
3351.00,0.0128
3350.00,0.0129
3349.00,0.0131
3348.00,0.0132
3347.00,0.0133
3346.00,0.0134
3345.00,0.0135
3344.00,0.0135
3343.00,0.0136
3342.00,0.0137
3341.00,0.0138
3340.00,0.0138
3339.00,0.0139
3338.00,0.0140
3337.00,0.0142
3336.00,0.0143
3335.00,0.0145
3334.00,0.0146
3333.00,0.0147
3332.00,0.0149
3331.00,0.0150
3330.00,0.0151
3329.00,0.0152
3328.00,0.0152
3327.00,0.0153
3326.00,0.0154
3325.00,0.0155
3324.00,0.0156
3323.00,0.0158
3322.00,0.0159
3321.00,0.0161
3320.00,0.0162
3319.00,0.0163
3318.00,0.0165
3317.00,0.0166
3316.00,0.0167
3315.00,0.0168
3314.00,0.0169
3313.00,0.0170
3312.00,0.0170
3311.00,0.0171
3310.00,0.0172
3309.00,0.0173
3308.00,0.0174
3307.00,0.0176
3306.00,0.0177
3305.00,0.0179
3304.00,0.0181
3303.00,0.0183
3302.00,0.0185
3301.00,0.0186
3300.00,0.0188
3299.00,0.0189
3298.00,0.0190
3297.00,0.0190
3296.00,0.0191
3295.00,0.0192
3294.00,0.0193
3293.00,0.0194
3292.00,0.0196
3291.00,0.0198
3290.00,0.0200
3289.00,0.0201
3288.00,0.0203
3287.00,0.0205
3286.00,0.0206
3285.00,0.0207
3284.00,0.0208
3283.00,0.0209
3282.00,0.0209
3281.00,0.0209
3280.00,0.0210
3279.00,0.0210
3278.00,0.0209
3277.00,0.0209
3276.00,0.0209
3275.00,0.0208
3274.00,0.0208
3273.00,0.0208
3272.00,0.0208
3271.00,0.0208
3270.00,0.0208
3269.00,0.0208
3268.00,0.0209
3267.00,0.0209
3266.00,0.0208
3265.00,0.0208
3264.00,0.0207
3263.00,0.0206
3262.00,0.0205
3261.00,0.0204
3260.00,0.0202
3259.00,0.0201
3258.00,0.0199
3257.00,0.0197
3256.00,0.0196
3255.00,0.0195
3254.00,0.0194
3253.00,0.0193
3252.00,0.0192
3251.00,0.0191
3250.00,0.0189
3249.00,0.0188
3248.00,0.0186
3247.00,0.0184
3246.00,0.0183
3245.00,0.0183
3244.00,0.0182
3243.00,0.0182
3242.00,0.0181
3241.00,0.0180
3240.00,0.0179
3239.00,0.0178
3238.00,0.0177
3237.00,0.0175
3236.00,0.0174
3235.00,0.0172
3234.00,0.0171
3233.00,0.0170
3232.00,0.0170
3231.00,0.0170
3230.00,0.0170
3229.00,0.0170
3228.00,0.0170
3227.00,0.0169
3226.00,0.0168
3225.00,0.0168
3224.00,0.0167
3223.00,0.0166
3222.00,0.0165
3221.00,0.0164
3220.00,0.0163
3219.00,0.0162
3218.00,0.0162
3217.00,0.0161
3216.00,0.0160
3215.00,0.0160
3214.00,0.0160
3213.00,0.0159
3212.00,0.0159
3211.00,0.0159
3210.00,0.0158
3209.00,0.0157
3208.00,0.0157
3207.00,0.0156
3206.00,0.0156
3205.00,0.0156
3204.00,0.0155
3203.00,0.0155
3202.00,0.0154
3201.00,0.0154
3200.00,0.0153
3199.00,0.0152
3198.00,0.0151
3197.00,0.0151
3196.00,0.0150
3195.00,0.0150
3194.00,0.0149
3193.00,0.0149
3192.00,0.0148
3191.00,0.0147
3190.00,0.0147
3189.00,0.0146
3188.00,0.0145
3187.00,0.0145
3186.00,0.0144
3185.00,0.0144
3184.00,0.0143
3183.00,0.0142
3182.00,0.0141
3181.00,0.0140
3180.00,0.0139
3179.00,0.0138
3178.00,0.0138
3177.00,0.0137
3176.00,0.0137
3175.00,0.0136
3174.00,0.0135
3173.00,0.0135
3172.00,0.0134
3171.00,0.0134
3170.00,0.0133
3169.00,0.0132
3168.00,0.0131
3167.00,0.0130
3166.00,0.0130
3165.00,0.0129
3164.00,0.0128
3163.00,0.0127
3162.00,0.0127
3161.00,0.0126
3160.00,0.0125
3159.00,0.0124
3158.00,0.0123
3157.00,0.0122
3156.00,0.0121
3155.00,0.0120
3154.00,0.0119
3153.00,0.0118
3152.00,0.0117
3151.00,0.0117
3150.00,0.0117
3149.00,0.0117
3148.00,0.0117
3147.00,0.0116
3146.00,0.0116
3145.00,0.0115
3144.00,0.0115
3143.00,0.0114
3142.00,0.0113
3141.00,0.0112
3140.00,0.0111
3139.00,0.0110
3138.00,0.0110
3137.00,0.0110
3136.00,0.0110
3135.00,0.0110
3134.00,0.0110
3133.00,0.0109
3132.00,0.0108
3131.00,0.0108
3130.00,0.0107
3129.00,0.0107
3128.00,0.0107
3127.00,0.0107
3126.00,0.0107
3125.00,0.0106
3124.00,0.0105
3123.00,0.0104
3122.00,0.0104
3121.00,0.0103
3120.00,0.0102
3119.00,0.0102
3118.00,0.0102
3117.00,0.0102
3116.00,0.0102
3115.00,0.0102
3114.00,0.0102
3113.00,0.0103
3112.00,0.0103
3111.00,0.0103
3110.00,0.0103
3109.00,0.0103
3108.00,0.0104
3107.00,0.0104
3106.00,0.0105
3105.00,0.0105
3104.00,0.0105
3103.00,0.0104
3102.00,0.0104
3101.00,0.0103
3100.00,0.0103
3099.00,0.0104
3098.00,0.0104
3097.00,0.0105
3096.00,0.0106
3095.00,0.0106
3094.00,0.0106
3093.00,0.0106
3092.00,0.0106
3091.00,0.0106
3090.00,0.0106
3089.00,0.0106
3088.00,0.0106
3087.00,0.0107
3086.00,0.0107
3085.00,0.0107
3084.00,0.0107
3083.00,0.0106
3082.00,0.0106
3081.00,0.0106
3080.00,0.0106
3079.00,0.0107
3078.00,0.0107
3077.00,0.0108
3076.00,0.0109
3075.00,0.0110
3074.00,0.0110
3073.00,0.0110
3072.00,0.0110
3071.00,0.0110
3070.00,0.0110
3069.00,0.0109
3068.00,0.0108
3067.00,0.0108
3066.00,0.0108
3065.00,0.0108
3064.00,0.0109
3063.00,0.0109
3062.00,0.0110
3061.00,0.0110
3060.00,0.0110
3059.00,0.0109
3058.00,0.0108
3057.00,0.0107
3056.00,0.0107
3055.00,0.0107
3054.00,0.0106
3053.00,0.0106
3052.00,0.0105
3051.00,0.0105
3050.00,0.0105
3049.00,0.0105
3048.00,0.0104
3047.00,0.0103
3046.00,0.0103
3045.00,0.0102
3044.00,0.0101
3043.00,0.0101
3042.00,0.0100
3041.00,0.0100
3040.00,0.0100
3039.00,0.0100
3038.00,0.0100
3037.00,0.0099
3036.00,0.0098
3035.00,0.0097
3034.00,0.0096
3033.00,0.0096
3032.00,0.0096
3031.00,0.0096
3030.00,0.0096
3029.00,0.0096
3028.00,0.0096
3027.00,0.0096
3026.00,0.0096
3025.00,0.0095
3024.00,0.0095
3023.00,0.0095
3022.00,0.0094
3021.00,0.0094
3020.00,0.0094
3019.00,0.0093
3018.00,0.0093
3017.00,0.0093
3016.00,0.0093
3015.00,0.0094
3014.00,0.0094
3013.00,0.0095
3012.00,0.0097
3011.00,0.0099
3010.00,0.0101
3009.00,0.0104
3008.00,0.0106
3007.00,0.0109
3006.00,0.0112
3005.00,0.0115
3004.00,0.0117
3003.00,0.0120
3002.00,0.0123
3001.00,0.0125
3000.00,0.0128
2999.00,0.0130
2998.00,0.0132
2997.00,0.0135
2996.00,0.0137
2995.00,0.0138
2994.00,0.0140
2993.00,0.0142
2992.00,0.0144
2991.00,0.0146
2990.00,0.0148
2989.00,0.0151
2988.00,0.0153
2987.00,0.0157
2986.00,0.0162
2985.00,0.0168
2984.00,0.0177
2983.00,0.0186
2982.00,0.0193
2981.00,0.0195
2980.00,0.0194
2979.00,0.0191
2978.00,0.0187
2977.00,0.0183
2976.00,0.0181
2975.00,0.0180
2974.00,0.0181
2973.00,0.0183
2972.00,0.0184
2971.00,0.0184
2970.00,0.0182
2969.00,0.0179
2968.00,0.0175
2967.00,0.0171
2966.00,0.0168
2965.00,0.0165
2964.00,0.0162
2963.00,0.0159
2962.00,0.0157
2961.00,0.0154
2960.00,0.0152
2959.00,0.0150
2958.00,0.0147
2957.00,0.0145
2956.00,0.0143
2955.00,0.0141
2954.00,0.0140
2953.00,0.0138
2952.00,0.0137
2951.00,0.0137
2950.00,0.0136
2949.00,0.0136
2948.00,0.0135
2947.00,0.0133
2946.00,0.0132
2945.00,0.0131
2944.00,0.0130
2943.00,0.0130
2942.00,0.0130
2941.00,0.0130
2940.00,0.0130
2939.00,0.0129
2938.00,0.0128
2937.00,0.0127
2936.00,0.0126
2935.00,0.0124
2934.00,0.0123
2933.00,0.0120
2932.00,0.0118
2931.00,0.0114
2930.00,0.0110
2929.00,0.0106
2928.00,0.0101
2927.00,0.0096
2926.00,0.0089
2925.00,0.0081
2924.00,0.0073
2923.00,0.0063
2922.00,0.0052
2921.00,0.0040
2920.00,0.0027
2919.00,0.0015
2918.00,0.0005
2917.00,-0.0000
2916.00,0.0000
2915.00,0.0007
2914.00,0.0019
2913.00,0.0033
2912.00,0.0047
2911.00,0.0060
2910.00,0.0070
2909.00,0.0078
2908.00,0.0084
2907.00,0.0088
2906.00,0.0091
2905.00,0.0093
2904.00,0.0095
2903.00,0.0096
2902.00,0.0097
2901.00,0.0098
2900.00,0.0099
2899.00,0.0100
2898.00,0.0100
2897.00,0.0100
2896.00,0.0101
2895.00,0.0102
2894.00,0.0104
2893.00,0.0105
2892.00,0.0107
2891.00,0.0108
2890.00,0.0109
2889.00,0.0110
2888.00,0.0111
2887.00,0.0112
2886.00,0.0113
2885.00,0.0113
2884.00,0.0114
2883.00,0.0114
2882.00,0.0114
2881.00,0.0113
2880.00,0.0112
2879.00,0.0111
2878.00,0.0110
2877.00,0.0109
2876.00,0.0109
2875.00,0.0108
2874.00,0.0107
2873.00,0.0107
2872.00,0.0106
2871.00,0.0106
2870.00,0.0106
2869.00,0.0105
2868.00,0.0104
2867.00,0.0102
2866.00,0.0100
2865.00,0.0098
2864.00,0.0096
2863.00,0.0094
2862.00,0.0091
2861.00,0.0088
2860.00,0.0085
2859.00,0.0082
2858.00,0.0079
2857.00,0.0075
2856.00,0.0070
2855.00,0.0064
2854.00,0.0055
2853.00,0.0044
2852.00,0.0030
2851.00,0.0017
2850.00,0.0006
2849.00,0.0001
2848.00,0.0004
2847.00,0.0014
2846.00,0.0027
2845.00,0.0040
2844.00,0.0050
2843.00,0.0058
2842.00,0.0063
2841.00,0.0067
2840.00,0.0069
2839.00,0.0070
2838.00,0.0072
2837.00,0.0073
2836.00,0.0074
2835.00,0.0074
2834.00,0.0075
2833.00,0.0075
2832.00,0.0076
2831.00,0.0076
2830.00,0.0076
2829.00,0.0076
2828.00,0.0076
2827.00,0.0076
2826.00,0.0076
2825.00,0.0076
2824.00,0.0076
2823.00,0.0076
2822.00,0.0076
2821.00,0.0076
2820.00,0.0076
2819.00,0.0075
2818.00,0.0075
2817.00,0.0075
2816.00,0.0075
2815.00,0.0075
2814.00,0.0074
2813.00,0.0074
2812.00,0.0074
2811.00,0.0073
2810.00,0.0073
2809.00,0.0073
2808.00,0.0073
2807.00,0.0073
2806.00,0.0073
2805.00,0.0073
2804.00,0.0073
2803.00,0.0073
2802.00,0.0072
2801.00,0.0072
2800.00,0.0072
2799.00,0.0071
2798.00,0.0071
2797.00,0.0071
2796.00,0.0071
2795.00,0.0071
2794.00,0.0071
2793.00,0.0071
2792.00,0.0070
2791.00,0.0070
2790.00,0.0070
2789.00,0.0070
2788.00,0.0070
2787.00,0.0070
2786.00,0.0070
2785.00,0.0070
2784.00,0.0070
2783.00,0.0070
2782.00,0.0070
2781.00,0.0070
2780.00,0.0070
2779.00,0.0069
2778.00,0.0069
2777.00,0.0068
2776.00,0.0068
2775.00,0.0068
2774.00,0.0068
2773.00,0.0068
2772.00,0.0068
