Created as New Dataset,Sample 277 By YargerLab Date Wednesday, July 24 2024
cm-1,A
4000.00,0.0024
3999.00,0.0024
3998.00,0.0024
3997.00,0.0025
3996.00,0.0025
3995.00,0.0024
3994.00,0.0024
3993.00,0.0024
3992.00,0.0024
3991.00,0.0024
3990.00,0.0024
3989.00,0.0024
3988.00,0.0024
3987.00,0.0024
3986.00,0.0024
3985.00,0.0024
3984.00,0.0024
3983.00,0.0024
3982.00,0.0024
3981.00,0.0024
3980.00,0.0024
3979.00,0.0024
3978.00,0.0024
3977.00,0.0024
3976.00,0.0024
3975.00,0.0024
3974.00,0.0024
3973.00,0.0024
3972.00,0.0024
3971.00,0.0024
3970.00,0.0024
3969.00,0.0024
3968.00,0.0024
3967.00,0.0024
3966.00,0.0024
3965.00,0.0024
3964.00,0.0024
3963.00,0.0024
3962.00,0.0024
3961.00,0.0024
3960.00,0.0024
3959.00,0.0024
3958.00,0.0024
3957.00,0.0024
3956.00,0.0024
3955.00,0.0024
3954.00,0.0024
3953.00,0.0024
3952.00,0.0024
3951.00,0.0024
3950.00,0.0024
3949.00,0.0024
3948.00,0.0024
3947.00,0.0024
3946.00,0.0024
3945.00,0.0024
3944.00,0.0024
3943.00,0.0024
3942.00,0.0024
3941.00,0.0024
3940.00,0.0024
3939.00,0.0024
3938.00,0.0024
3937.00,0.0024
3936.00,0.0024
3935.00,0.0024
3934.00,0.0024
3933.00,0.0024
3932.00,0.0024
3931.00,0.0024
3930.00,0.0024
3929.00,0.0024
3928.00,0.0024
3927.00,0.0023
3926.00,0.0023
3925.00,0.0023
3924.00,0.0023
3923.00,0.0024
3922.00,0.0024
3921.00,0.0024
3920.00,0.0024
3919.00,0.0024
3918.00,0.0024
3917.00,0.0024
3916.00,0.0024
3915.00,0.0024
3914.00,0.0023
3913.00,0.0023
3912.00,0.0023
3911.00,0.0023
3910.00,0.0023
3909.00,0.0023
3908.00,0.0023
3907.00,0.0023
3906.00,0.0023
3905.00,0.0023
3904.00,0.0023
3903.00,0.0023
3902.00,0.0023
3901.00,0.0023
3900.00,0.0023
3899.00,0.0023
3898.00,0.0023
3897.00,0.0023
3896.00,0.0023
3895.00,0.0023
3894.00,0.0023
3893.00,0.0023
3892.00,0.0023
3891.00,0.0023
3890.00,0.0023
3889.00,0.0023
3888.00,0.0023
3887.00,0.0023
3886.00,0.0023
3885.00,0.0023
3884.00,0.0022
3883.00,0.0022
3882.00,0.0022
3881.00,0.0023
3880.00,0.0023
3879.00,0.0023
3878.00,0.0023
3877.00,0.0023
3876.00,0.0022
3875.00,0.0022
3874.00,0.0022
3873.00,0.0022
3872.00,0.0022
3871.00,0.0022
3870.00,0.0022
3869.00,0.0022
3868.00,0.0022
3867.00,0.0022
3866.00,0.0022
3865.00,0.0023
3864.00,0.0023
3863.00,0.0023
3862.00,0.0023
3861.00,0.0023
3860.00,0.0023
3859.00,0.0023
3858.00,0.0022
3857.00,0.0022
3856.00,0.0021
3855.00,0.0021
3854.00,0.0021
3853.00,0.0021
3852.00,0.0021
3851.00,0.0021
3850.00,0.0022
3849.00,0.0022
3848.00,0.0022
3847.00,0.0022
3846.00,0.0022
3845.00,0.0022
3844.00,0.0022
3843.00,0.0022
3842.00,0.0022
3841.00,0.0022
3840.00,0.0021
3839.00,0.0021
3838.00,0.0021
3837.00,0.0021
3836.00,0.0021
3835.00,0.0021
3834.00,0.0021
3833.00,0.0021
3832.00,0.0022
3831.00,0.0022
3830.00,0.0022
3829.00,0.0022
3828.00,0.0022
3827.00,0.0022
3826.00,0.0022
3825.00,0.0022
3824.00,0.0022
3823.00,0.0022
3822.00,0.0021
3821.00,0.0021
3820.00,0.0021
3819.00,0.0021
3818.00,0.0021
3817.00,0.0021
3816.00,0.0021
3815.00,0.0021
3814.00,0.0021
3813.00,0.0021
3812.00,0.0022
3811.00,0.0022
3810.00,0.0022
3809.00,0.0022
3808.00,0.0022
3807.00,0.0022
3806.00,0.0021
3805.00,0.0021
3804.00,0.0021
3803.00,0.0021
3802.00,0.0021
3801.00,0.0021
3800.00,0.0021
3799.00,0.0021
3798.00,0.0021
3797.00,0.0022
3796.00,0.0022
3795.00,0.0022
3794.00,0.0022
3793.00,0.0022
3792.00,0.0022
3791.00,0.0022
3790.00,0.0022
3789.00,0.0022
3788.00,0.0022
3787.00,0.0022
3786.00,0.0022
3785.00,0.0022
3784.00,0.0022
3783.00,0.0022
3782.00,0.0022
3781.00,0.0022
3780.00,0.0022
3779.00,0.0022
3778.00,0.0022
3777.00,0.0022
3776.00,0.0022
3775.00,0.0022
3774.00,0.0022
3773.00,0.0022
3772.00,0.0022
3771.00,0.0022
3770.00,0.0022
3769.00,0.0022
3768.00,0.0022
3767.00,0.0022
3766.00,0.0022
3765.00,0.0022
3764.00,0.0022
3763.00,0.0022
3762.00,0.0022
3761.00,0.0022
3760.00,0.0022
3759.00,0.0022
3758.00,0.0022
3757.00,0.0022
3756.00,0.0022
3755.00,0.0022
3754.00,0.0022
3753.00,0.0022
3752.00,0.0022
3751.00,0.0022
3750.00,0.0022
3749.00,0.0022
3748.00,0.0021
3747.00,0.0021
3746.00,0.0021
3745.00,0.0021
3744.00,0.0022
3743.00,0.0022
3742.00,0.0022
3741.00,0.0022
3740.00,0.0022
3739.00,0.0022
3738.00,0.0023
3737.00,0.0023
3736.00,0.0022
3735.00,0.0023
3734.00,0.0023
3733.00,0.0023
3732.00,0.0022
3731.00,0.0022
3730.00,0.0022
3729.00,0.0022
3728.00,0.0022
3727.00,0.0022
3726.00,0.0022
3725.00,0.0022
3724.00,0.0022
3723.00,0.0022
3722.00,0.0022
3721.00,0.0022
3720.00,0.0022
3719.00,0.0022
3718.00,0.0022
3717.00,0.0022
3716.00,0.0022
3715.00,0.0022
3714.00,0.0022
3713.00,0.0022
3712.00,0.0022
3711.00,0.0022
3710.00,0.0022
3709.00,0.0021
3708.00,0.0021
3707.00,0.0021
3706.00,0.0022
3705.00,0.0022
3704.00,0.0022
3703.00,0.0022
3702.00,0.0022
3701.00,0.0022
3700.00,0.0022
3699.00,0.0022
3698.00,0.0022
3697.00,0.0022
3696.00,0.0022
3695.00,0.0021
3694.00,0.0021
3693.00,0.0021
3692.00,0.0020
3691.00,0.0020
3690.00,0.0020
3689.00,0.0020
3688.00,0.0020
3687.00,0.0020
3686.00,0.0020
3685.00,0.0020
3684.00,0.0020
3683.00,0.0020
3682.00,0.0020
3681.00,0.0019
3680.00,0.0019
3679.00,0.0018
3678.00,0.0018
3677.00,0.0017
3676.00,0.0017
3675.00,0.0016
3674.00,0.0016
3673.00,0.0016
3672.00,0.0016
3671.00,0.0016
3670.00,0.0016
3669.00,0.0016
3668.00,0.0017
3667.00,0.0017
3666.00,0.0017
3665.00,0.0017
3664.00,0.0017
3663.00,0.0017
3662.00,0.0017
3661.00,0.0017
3660.00,0.0017
3659.00,0.0017
3658.00,0.0017
3657.00,0.0017
3656.00,0.0017
3655.00,0.0017
3654.00,0.0018
3653.00,0.0018
3652.00,0.0018
3651.00,0.0018
3650.00,0.0019
3649.00,0.0019
3648.00,0.0020
3647.00,0.0021
3646.00,0.0021
3645.00,0.0022
3644.00,0.0023
3643.00,0.0023
3642.00,0.0024
3641.00,0.0024
3640.00,0.0025
3639.00,0.0025
3638.00,0.0025
3637.00,0.0026
3636.00,0.0027
3635.00,0.0028
3634.00,0.0029
3633.00,0.0030
3632.00,0.0031
3631.00,0.0031
3630.00,0.0032
3629.00,0.0032
3628.00,0.0033
3627.00,0.0033
3626.00,0.0034
3625.00,0.0034
3624.00,0.0035
3623.00,0.0035
3622.00,0.0036
3621.00,0.0036
3620.00,0.0037
3619.00,0.0037
3618.00,0.0037
3617.00,0.0038
3616.00,0.0039
3615.00,0.0039
3614.00,0.0040
3613.00,0.0040
3612.00,0.0040
3611.00,0.0041
3610.00,0.0041
3609.00,0.0041
3608.00,0.0041
3607.00,0.0042
3606.00,0.0042
3605.00,0.0043
3604.00,0.0043
3603.00,0.0044
3602.00,0.0044
3601.00,0.0045
3600.00,0.0045
3599.00,0.0046
3598.00,0.0046
3597.00,0.0047
3596.00,0.0047
3595.00,0.0047
3594.00,0.0048
3593.00,0.0048
3592.00,0.0049
3591.00,0.0050
3590.00,0.0050
3589.00,0.0050
3588.00,0.0050
3587.00,0.0051
3586.00,0.0051
3585.00,0.0051
3584.00,0.0052
3583.00,0.0052
3582.00,0.0053
3581.00,0.0053
3580.00,0.0054
3579.00,0.0054
3578.00,0.0055
3577.00,0.0055
3576.00,0.0056
3575.00,0.0056
3574.00,0.0057
3573.00,0.0057
3572.00,0.0058
3571.00,0.0059
3570.00,0.0059
3569.00,0.0060
3568.00,0.0060
3567.00,0.0060
3566.00,0.0061
3565.00,0.0061
3564.00,0.0061
3563.00,0.0062
3562.00,0.0063
3561.00,0.0063
3560.00,0.0064
3559.00,0.0064
3558.00,0.0064
3557.00,0.0065
3556.00,0.0066
3555.00,0.0066
3554.00,0.0067
3553.00,0.0067
3552.00,0.0068
3551.00,0.0068
3550.00,0.0069
3549.00,0.0070
3548.00,0.0070
3547.00,0.0071
3546.00,0.0071
3545.00,0.0072
3544.00,0.0072
3543.00,0.0072
3542.00,0.0073
3541.00,0.0073
3540.00,0.0074
3539.00,0.0075
3538.00,0.0075
3537.00,0.0076
3536.00,0.0076
3535.00,0.0077
3534.00,0.0077
3533.00,0.0077
3532.00,0.0078
3531.00,0.0078
3530.00,0.0079
3529.00,0.0080
3528.00,0.0080
3527.00,0.0081
3526.00,0.0081
3525.00,0.0082
3524.00,0.0082
3523.00,0.0082
3522.00,0.0083
3521.00,0.0083
3520.00,0.0084
3519.00,0.0084
3518.00,0.0085
3517.00,0.0085
3516.00,0.0086
3515.00,0.0087
3514.00,0.0087
3513.00,0.0088
3512.00,0.0088
3511.00,0.0089
3510.00,0.0089
3509.00,0.0090
3508.00,0.0090
3507.00,0.0091
3506.00,0.0091
3505.00,0.0092
3504.00,0.0093
3503.00,0.0093
3502.00,0.0093
3501.00,0.0094
3500.00,0.0094
3499.00,0.0095
3498.00,0.0096
3497.00,0.0096
3496.00,0.0097
3495.00,0.0097
3494.00,0.0097
3493.00,0.0098
3492.00,0.0099
3491.00,0.0099
3490.00,0.0100
3489.00,0.0101
3488.00,0.0101
3487.00,0.0102
3486.00,0.0102
3485.00,0.0103
3484.00,0.0104
3483.00,0.0104
3482.00,0.0104
3481.00,0.0105
3480.00,0.0105
3479.00,0.0106
3478.00,0.0106
3477.00,0.0107
3476.00,0.0108
3475.00,0.0108
3474.00,0.0109
3473.00,0.0110
3472.00,0.0110
3471.00,0.0111
3470.00,0.0112
3469.00,0.0112
3468.00,0.0113
3467.00,0.0113
3466.00,0.0114
3465.00,0.0114
3464.00,0.0115
3463.00,0.0115
3462.00,0.0116
3461.00,0.0117
3460.00,0.0117
3459.00,0.0118
3458.00,0.0118
3457.00,0.0119
3456.00,0.0119
3455.00,0.0120
3454.00,0.0120
3453.00,0.0121
3452.00,0.0121
3451.00,0.0122
3450.00,0.0122
3449.00,0.0123
3448.00,0.0124
3447.00,0.0124
3446.00,0.0125
3445.00,0.0125
3444.00,0.0126
3443.00,0.0126
3442.00,0.0127
3441.00,0.0127
3440.00,0.0128
3439.00,0.0129
3438.00,0.0129
3437.00,0.0130
3436.00,0.0131
3435.00,0.0131
3434.00,0.0132
3433.00,0.0132
3432.00,0.0133
3431.00,0.0133
3430.00,0.0134
3429.00,0.0134
3428.00,0.0135
3427.00,0.0135
3426.00,0.0136
3425.00,0.0137
3424.00,0.0137
3423.00,0.0138
3422.00,0.0139
3421.00,0.0139
3420.00,0.0139
3419.00,0.0140
3418.00,0.0141
3417.00,0.0141
3416.00,0.0142
3415.00,0.0143
3414.00,0.0143
3413.00,0.0144
3412.00,0.0145
3411.00,0.0145
3410.00,0.0146
3409.00,0.0146
3408.00,0.0147
3407.00,0.0147
3406.00,0.0148
3405.00,0.0148
3404.00,0.0149
3403.00,0.0150
3402.00,0.0150
3401.00,0.0151
3400.00,0.0151
3399.00,0.0152
3398.00,0.0152
3397.00,0.0153
3396.00,0.0153
3395.00,0.0154
3394.00,0.0154
3393.00,0.0155
3392.00,0.0155
3391.00,0.0156
3390.00,0.0156
3389.00,0.0157
3388.00,0.0157
3387.00,0.0158
3386.00,0.0158
3385.00,0.0159
3384.00,0.0160
3383.00,0.0160
3382.00,0.0161
3381.00,0.0161
3380.00,0.0162
3379.00,0.0163
3378.00,0.0164
3377.00,0.0164
3376.00,0.0165
3375.00,0.0166
3374.00,0.0166
3373.00,0.0167
3372.00,0.0168
3371.00,0.0169
3370.00,0.0169
3369.00,0.0170
3368.00,0.0171
3367.00,0.0172
3366.00,0.0172
3365.00,0.0173
3364.00,0.0174
3363.00,0.0175
3362.00,0.0176
3361.00,0.0177
3360.00,0.0178
3359.00,0.0179
3358.00,0.0180
3357.00,0.0181
3356.00,0.0182
3355.00,0.0183
3354.00,0.0184
3353.00,0.0185
3352.00,0.0186
3351.00,0.0187
3350.00,0.0188
3349.00,0.0189
3348.00,0.0190
3347.00,0.0191
3346.00,0.0192
3345.00,0.0193
3344.00,0.0194
3343.00,0.0195
3342.00,0.0196
3341.00,0.0197
3340.00,0.0198
3339.00,0.0200
3338.00,0.0201
3337.00,0.0202
3336.00,0.0203
3335.00,0.0204
3334.00,0.0206
3333.00,0.0207
3332.00,0.0208
3331.00,0.0210
3330.00,0.0211
3329.00,0.0212
3328.00,0.0214
3327.00,0.0215
3326.00,0.0216
3325.00,0.0218
3324.00,0.0219
3323.00,0.0221
3322.00,0.0222
3321.00,0.0223
3320.00,0.0225
3319.00,0.0227
3318.00,0.0228
3317.00,0.0230
3316.00,0.0231
3315.00,0.0233
3314.00,0.0235
3313.00,0.0236
3312.00,0.0238
3311.00,0.0239
3310.00,0.0241
3309.00,0.0242
3308.00,0.0244
3307.00,0.0245
3306.00,0.0247
3305.00,0.0249
3304.00,0.0251
3303.00,0.0253
3302.00,0.0255
3301.00,0.0256
3300.00,0.0258
3299.00,0.0260
3298.00,0.0261
3297.00,0.0263
3296.00,0.0264
3295.00,0.0266
3294.00,0.0268
3293.00,0.0269
3292.00,0.0271
3291.00,0.0272
3290.00,0.0274
3289.00,0.0275
3288.00,0.0277
3287.00,0.0278
3286.00,0.0279
3285.00,0.0280
3284.00,0.0281
3283.00,0.0282
3282.00,0.0283
3281.00,0.0284
3280.00,0.0285
3279.00,0.0285
3278.00,0.0286
3277.00,0.0286
3276.00,0.0286
3275.00,0.0286
3274.00,0.0286
3273.00,0.0285
3272.00,0.0285
3271.00,0.0285
3270.00,0.0284
3269.00,0.0284
3268.00,0.0283
3267.00,0.0282
3266.00,0.0281
3265.00,0.0280
3264.00,0.0279
3263.00,0.0278
3262.00,0.0276
3261.00,0.0275
3260.00,0.0274
3259.00,0.0273
3258.00,0.0271
3257.00,0.0270
3256.00,0.0268
3255.00,0.0267
3254.00,0.0265
3253.00,0.0264
3252.00,0.0262
3251.00,0.0261
3250.00,0.0259
3249.00,0.0258
3248.00,0.0256
3247.00,0.0255
3246.00,0.0254
3245.00,0.0252
3244.00,0.0251
3243.00,0.0250
3242.00,0.0249
3241.00,0.0247
3240.00,0.0246
3239.00,0.0245
3238.00,0.0243
3237.00,0.0242
3236.00,0.0241
3235.00,0.0240
3234.00,0.0238
3233.00,0.0237
3232.00,0.0237
3231.00,0.0236
3230.00,0.0235
3229.00,0.0234
3228.00,0.0233
3227.00,0.0232
3226.00,0.0231
3225.00,0.0230
3224.00,0.0229
3223.00,0.0229
3222.00,0.0228
3221.00,0.0227
3220.00,0.0226
3219.00,0.0225
3218.00,0.0224
3217.00,0.0224
3216.00,0.0223
3215.00,0.0222
3214.00,0.0221
3213.00,0.0221
3212.00,0.0220
3211.00,0.0219
3210.00,0.0218
3209.00,0.0218
3208.00,0.0217
3207.00,0.0216
3206.00,0.0215
3205.00,0.0215
3204.00,0.0214
3203.00,0.0213
3202.00,0.0212
3201.00,0.0212
3200.00,0.0211
3199.00,0.0210
3198.00,0.0209
3197.00,0.0209
3196.00,0.0208
3195.00,0.0207
3194.00,0.0206
3193.00,0.0205
3192.00,0.0204
3191.00,0.0204
3190.00,0.0203
3189.00,0.0202
3188.00,0.0201
3187.00,0.0200
3186.00,0.0199
3185.00,0.0198
3184.00,0.0197
3183.00,0.0196
3182.00,0.0195
3181.00,0.0194
3180.00,0.0193
3179.00,0.0192
3178.00,0.0191
3177.00,0.0190
3176.00,0.0189
3175.00,0.0188
3174.00,0.0187
3173.00,0.0186
3172.00,0.0185
3171.00,0.0184
3170.00,0.0183
3169.00,0.0182
3168.00,0.0181
3167.00,0.0180
3166.00,0.0180
3165.00,0.0179
3164.00,0.0178
3163.00,0.0177
3162.00,0.0176
3161.00,0.0175
3160.00,0.0174
3159.00,0.0173
3158.00,0.0172
3157.00,0.0171
3156.00,0.0170
3155.00,0.0169
3154.00,0.0168
3153.00,0.0167
3152.00,0.0166
3151.00,0.0166
3150.00,0.0165
3149.00,0.0164
3148.00,0.0163
3147.00,0.0163
3146.00,0.0162
3145.00,0.0161
3144.00,0.0160
3143.00,0.0160
3142.00,0.0159
3141.00,0.0158
3140.00,0.0157
3139.00,0.0157
3138.00,0.0156
3137.00,0.0155
3136.00,0.0155
3135.00,0.0154
3134.00,0.0154
3133.00,0.0153
3132.00,0.0153
3131.00,0.0152
3130.00,0.0151
3129.00,0.0151
3128.00,0.0151
3127.00,0.0150
3126.00,0.0150
3125.00,0.0149
3124.00,0.0149
3123.00,0.0148
3122.00,0.0148
3121.00,0.0147
3120.00,0.0147
3119.00,0.0147
3118.00,0.0147
3117.00,0.0146
3116.00,0.0146
3115.00,0.0146
3114.00,0.0146
3113.00,0.0146
3112.00,0.0146
3111.00,0.0145
3110.00,0.0145
3109.00,0.0145
3108.00,0.0145
3107.00,0.0145
3106.00,0.0145
3105.00,0.0146
3104.00,0.0146
3103.00,0.0146
3102.00,0.0146
3101.00,0.0146
3100.00,0.0146
3099.00,0.0146
3098.00,0.0146
3097.00,0.0146
3096.00,0.0147
3095.00,0.0147
3094.00,0.0147
3093.00,0.0147
3092.00,0.0147
3091.00,0.0147
3090.00,0.0147
3089.00,0.0148
3088.00,0.0148
3087.00,0.0148
3086.00,0.0148
3085.00,0.0149
3084.00,0.0149
3083.00,0.0149
3082.00,0.0149
3081.00,0.0149
3080.00,0.0150
3079.00,0.0150
3078.00,0.0150
3077.00,0.0150
3076.00,0.0150
3075.00,0.0151
3074.00,0.0151
3073.00,0.0151
3072.00,0.0151
3071.00,0.0151
3070.00,0.0151
3069.00,0.0151
3068.00,0.0150
3067.00,0.0150
3066.00,0.0150
3065.00,0.0150
3064.00,0.0150
3063.00,0.0149
3062.00,0.0149
3061.00,0.0149
3060.00,0.0148
3059.00,0.0148
3058.00,0.0148
3057.00,0.0147
3056.00,0.0146
3055.00,0.0146
3054.00,0.0145
3053.00,0.0145
3052.00,0.0144
3051.00,0.0143
3050.00,0.0143
3049.00,0.0142
3048.00,0.0141
3047.00,0.0141
3046.00,0.0140
3045.00,0.0140
3044.00,0.0139
3043.00,0.0138
3042.00,0.0138
3041.00,0.0137
3040.00,0.0137
3039.00,0.0137
3038.00,0.0136
3037.00,0.0135
3036.00,0.0135
3035.00,0.0134
3034.00,0.0133
3033.00,0.0133
3032.00,0.0132
3031.00,0.0132
3030.00,0.0131
3029.00,0.0130
3028.00,0.0130
3027.00,0.0129
3026.00,0.0128
3025.00,0.0127
3024.00,0.0126
3023.00,0.0125
3022.00,0.0124
3021.00,0.0123
3020.00,0.0122
3019.00,0.0121
3018.00,0.0120
3017.00,0.0118
3016.00,0.0117
3015.00,0.0115
3014.00,0.0114
3013.00,0.0112
3012.00,0.0110
3011.00,0.0109
3010.00,0.0107
3009.00,0.0105
3008.00,0.0103
3007.00,0.0100
3006.00,0.0098
3005.00,0.0095
3004.00,0.0092
3003.00,0.0090
3002.00,0.0087
3001.00,0.0085
3000.00,0.0083
2999.00,0.0081
2998.00,0.0079
2997.00,0.0078
2996.00,0.0076
2995.00,0.0075
2994.00,0.0074
2993.00,0.0074
2992.00,0.0073
2991.00,0.0073
2990.00,0.0073
2989.00,0.0072
2988.00,0.0072
2987.00,0.0070
2986.00,0.0068
2985.00,0.0063
2984.00,0.0057
2983.00,0.0050
2982.00,0.0046
2981.00,0.0045
2980.00,0.0048
2979.00,0.0053
2978.00,0.0058
2977.00,0.0063
2976.00,0.0067
2975.00,0.0070
2974.00,0.0071
2973.00,0.0071
2972.00,0.0072
2971.00,0.0074
2970.00,0.0078
2969.00,0.0083
2968.00,0.0087
2967.00,0.0091
2966.00,0.0095
2965.00,0.0098
2964.00,0.0101
2963.00,0.0103
2962.00,0.0105
2961.00,0.0107
2960.00,0.0109
2959.00,0.0111
2958.00,0.0112
2957.00,0.0113
2956.00,0.0114
2955.00,0.0115
2954.00,0.0116
2953.00,0.0117
2952.00,0.0118
2951.00,0.0119
2950.00,0.0121
2949.00,0.0122
2948.00,0.0123
2947.00,0.0125
2946.00,0.0126
2945.00,0.0128
2944.00,0.0130
2943.00,0.0132
2942.00,0.0134
2941.00,0.0136
2940.00,0.0138
2939.00,0.0140
2938.00,0.0142
2937.00,0.0143
2936.00,0.0145
2935.00,0.0147
2934.00,0.0148
2933.00,0.0149
2932.00,0.0150
2931.00,0.0151
2930.00,0.0152
2929.00,0.0153
2928.00,0.0153
2927.00,0.0154
2926.00,0.0155
2925.00,0.0155
2924.00,0.0155
2923.00,0.0155
2922.00,0.0155
2921.00,0.0154
2920.00,0.0154
2919.00,0.0153
2918.00,0.0151
2917.00,0.0149
2916.00,0.0146
2915.00,0.0144
2914.00,0.0140
2913.00,0.0137
2912.00,0.0134
2911.00,0.0131
2910.00,0.0129
2909.00,0.0126
2908.00,0.0124
2907.00,0.0122
2906.00,0.0121
2905.00,0.0119
2904.00,0.0118
2903.00,0.0117
2902.00,0.0115
2901.00,0.0114
2900.00,0.0113
2899.00,0.0112
2898.00,0.0111
2897.00,0.0110
2896.00,0.0109
2895.00,0.0108
2894.00,0.0107
2893.00,0.0105
2892.00,0.0104
2891.00,0.0103
2890.00,0.0103
2889.00,0.0102
2888.00,0.0102
2887.00,0.0102
2886.00,0.0102
2885.00,0.0102
2884.00,0.0102
2883.00,0.0103
2882.00,0.0104
2881.00,0.0106
2880.00,0.0108
2879.00,0.0109
2878.00,0.0111
2877.00,0.0112
2876.00,0.0113
2875.00,0.0114
2874.00,0.0114
2873.00,0.0115
2872.00,0.0115
2871.00,0.0115
2870.00,0.0115
2869.00,0.0115
2868.00,0.0115
2867.00,0.0114
2866.00,0.0114
2865.00,0.0114
2864.00,0.0114
2863.00,0.0114
2862.00,0.0114
2861.00,0.0115
2860.00,0.0116
2859.00,0.0116
2858.00,0.0117
2857.00,0.0118
2856.00,0.0119
2855.00,0.0120
2854.00,0.0121
2853.00,0.0122
2852.00,0.0123
2851.00,0.0123
2850.00,0.0123
2849.00,0.0121
2848.00,0.0120
2847.00,0.0117
2846.00,0.0115
2845.00,0.0112
2844.00,0.0110
2843.00,0.0108
2842.00,0.0106
2841.00,0.0105
2840.00,0.0103
2839.00,0.0102
2838.00,0.0101
2837.00,0.0100
2836.00,0.0100
2835.00,0.0099
2834.00,0.0098
2833.00,0.0098
2832.00,0.0097
2831.00,0.0097
2830.00,0.0096
2829.00,0.0096
2828.00,0.0096
2827.00,0.0095
2826.00,0.0095
2825.00,0.0095
2824.00,0.0094
2823.00,0.0094
2822.00,0.0094
2821.00,0.0093
2820.00,0.0093
2819.00,0.0093
2818.00,0.0093
2817.00,0.0092
2816.00,0.0092
2815.00,0.0092
2814.00,0.0092
2813.00,0.0091
2812.00,0.0091
2811.00,0.0091
2810.00,0.0090
2809.00,0.0090
2808.00,0.0090
2807.00,0.0090
2806.00,0.0090
2805.00,0.0089
2804.00,0.0089
2803.00,0.0089
2802.00,0.0089
2801.00,0.0089
2800.00,0.0088
2799.00,0.0088
2798.00,0.0088
2797.00,0.0088
2796.00,0.0087
2795.00,0.0087
2794.00,0.0087
2793.00,0.0087
2792.00,0.0086
2791.00,0.0086
2790.00,0.0086
2789.00,0.0086
2788.00,0.0086
2787.00,0.0085
2786.00,0.0085
2785.00,0.0085
2784.00,0.0085
2783.00,0.0084
2782.00,0.0084
2781.00,0.0084
2780.00,0.0084
2779.00,0.0084
2778.00,0.0083
2777.00,0.0083
2776.00,0.0083
2775.00,0.0083
2774.00,0.0083
2773.00,0.0082
2772.00,0.0082
2771.00,0.0082
2770.00,0.0082
2769.00,0.0082
2768.00,0.0082
2767.00,0.0081
2766.00,0.0081
2765.00,0.0081
2764.00,0.0081
2763.00,0.0081
2762.00,0.0081
2761.00,0.0080
2760.00,0.0080
2759.00,0.0080
2758.00,0.0080
2757.00,0.0080
