Created as New Dataset,Sample 020 By YargerLab Date Friday, November 01 2024
cm-1,A
4000.00,0.0096
3999.00,0.0096
3998.00,0.0096
3997.00,0.0096
3996.00,0.0096
3995.00,0.0096
3994.00,0.0096
3993.00,0.0096
3992.00,0.0096
3991.00,0.0096
3990.00,0.0096
3989.00,0.0096
3988.00,0.0096
3987.00,0.0096
3986.00,0.0096
3985.00,0.0096
3984.00,0.0096
3983.00,0.0096
3982.00,0.0096
3981.00,0.0096
3980.00,0.0096
3979.00,0.0096
3978.00,0.0096
3977.00,0.0096
3976.00,0.0096
3975.00,0.0096
3974.00,0.0096
3973.00,0.0096
3972.00,0.0097
3971.00,0.0097
3970.00,0.0097
3969.00,0.0097
3968.00,0.0097
3967.00,0.0097
3966.00,0.0097
3965.00,0.0097
3964.00,0.0097
3963.00,0.0097
3962.00,0.0097
3961.00,0.0097
3960.00,0.0097
3959.00,0.0097
3958.00,0.0097
3957.00,0.0097
3956.00,0.0097
3955.00,0.0097
3954.00,0.0097
3953.00,0.0097
3952.00,0.0097
3951.00,0.0097
3950.00,0.0097
3949.00,0.0097
3948.00,0.0097
3947.00,0.0097
3946.00,0.0097
3945.00,0.0097
3944.00,0.0097
3943.00,0.0097
3942.00,0.0097
3941.00,0.0097
3940.00,0.0096
3939.00,0.0097
3938.00,0.0097
3937.00,0.0097
3936.00,0.0097
3935.00,0.0097
3934.00,0.0097
3933.00,0.0097
3932.00,0.0097
3931.00,0.0097
3930.00,0.0097
3929.00,0.0097
3928.00,0.0097
3927.00,0.0097
3926.00,0.0097
3925.00,0.0097
3924.00,0.0097
3923.00,0.0097
3922.00,0.0097
3921.00,0.0097
3920.00,0.0097
3919.00,0.0097
3918.00,0.0097
3917.00,0.0097
3916.00,0.0097
3915.00,0.0097
3914.00,0.0096
3913.00,0.0096
3912.00,0.0096
3911.00,0.0096
3910.00,0.0096
3909.00,0.0096
3908.00,0.0096
3907.00,0.0096
3906.00,0.0096
3905.00,0.0096
3904.00,0.0096
3903.00,0.0096
3902.00,0.0095
3901.00,0.0095
3900.00,0.0095
3899.00,0.0095
3898.00,0.0095
3897.00,0.0095
3896.00,0.0095
3895.00,0.0095
3894.00,0.0095
3893.00,0.0095
3892.00,0.0095
3891.00,0.0095
3890.00,0.0095
3889.00,0.0095
3888.00,0.0095
3887.00,0.0095
3886.00,0.0095
3885.00,0.0095
3884.00,0.0095
3883.00,0.0095
3882.00,0.0095
3881.00,0.0095
3880.00,0.0095
3879.00,0.0095
3878.00,0.0095
3877.00,0.0095
3876.00,0.0095
3875.00,0.0095
3874.00,0.0095
3873.00,0.0094
3872.00,0.0094
3871.00,0.0094
3870.00,0.0094
3869.00,0.0094
3868.00,0.0094
3867.00,0.0094
3866.00,0.0095
3865.00,0.0095
3864.00,0.0095
3863.00,0.0095
3862.00,0.0095
3861.00,0.0095
3860.00,0.0094
3859.00,0.0094
3858.00,0.0094
3857.00,0.0094
3856.00,0.0094
3855.00,0.0094
3854.00,0.0094
3853.00,0.0094
3852.00,0.0094
3851.00,0.0094
3850.00,0.0094
3849.00,0.0094
3848.00,0.0094
3847.00,0.0094
3846.00,0.0094
3845.00,0.0094
3844.00,0.0094
3843.00,0.0094
3842.00,0.0094
3841.00,0.0093
3840.00,0.0093
3839.00,0.0093
3838.00,0.0093
3837.00,0.0093
3836.00,0.0093
3835.00,0.0093
3834.00,0.0093
3833.00,0.0093
3832.00,0.0093
3831.00,0.0093
3830.00,0.0093
3829.00,0.0093
3828.00,0.0093
3827.00,0.0093
3826.00,0.0093
3825.00,0.0093
3824.00,0.0093
3823.00,0.0093
3822.00,0.0093
3821.00,0.0093
3820.00,0.0093
3819.00,0.0093
3818.00,0.0093
3817.00,0.0093
3816.00,0.0093
3815.00,0.0093
3814.00,0.0093
3813.00,0.0093
3812.00,0.0092
3811.00,0.0092
3810.00,0.0092
3809.00,0.0092
3808.00,0.0092
3807.00,0.0092
3806.00,0.0092
3805.00,0.0092
3804.00,0.0092
3803.00,0.0092
3802.00,0.0092
3801.00,0.0092
3800.00,0.0092
3799.00,0.0092
3798.00,0.0092
3797.00,0.0092
3796.00,0.0092
3795.00,0.0092
3794.00,0.0092
3793.00,0.0092
3792.00,0.0092
3791.00,0.0092
3790.00,0.0092
3789.00,0.0092
3788.00,0.0092
3787.00,0.0092
3786.00,0.0092
3785.00,0.0092
3784.00,0.0092
3783.00,0.0092
3782.00,0.0092
3781.00,0.0092
3780.00,0.0092
3779.00,0.0092
3778.00,0.0092
3777.00,0.0092
3776.00,0.0092
3775.00,0.0092
3774.00,0.0092
3773.00,0.0092
3772.00,0.0092
3771.00,0.0092
3770.00,0.0092
3769.00,0.0092
3768.00,0.0092
3767.00,0.0092
3766.00,0.0092
3765.00,0.0092
3764.00,0.0092
3763.00,0.0092
3762.00,0.0092
3761.00,0.0091
3760.00,0.0091
3759.00,0.0091
3758.00,0.0091
3757.00,0.0091
3756.00,0.0091
3755.00,0.0091
3754.00,0.0091
3753.00,0.0091
3752.00,0.0091
3751.00,0.0091
3750.00,0.0091
3749.00,0.0091
3748.00,0.0091
3747.00,0.0091
3746.00,0.0091
3745.00,0.0091
3744.00,0.0091
3743.00,0.0091
3742.00,0.0091
3741.00,0.0091
3740.00,0.0091
3739.00,0.0091
3738.00,0.0090
3737.00,0.0090
3736.00,0.0090
3735.00,0.0090
3734.00,0.0090
3733.00,0.0090
3732.00,0.0090
3731.00,0.0090
3730.00,0.0090
3729.00,0.0090
3728.00,0.0090
3727.00,0.0090
3726.00,0.0090
3725.00,0.0090
3724.00,0.0090
3723.00,0.0090
3722.00,0.0090
3721.00,0.0090
3720.00,0.0090
3719.00,0.0090
3718.00,0.0090
3717.00,0.0090
3716.00,0.0090
3715.00,0.0090
3714.00,0.0090
3713.00,0.0090
3712.00,0.0090
3711.00,0.0090
3710.00,0.0090
3709.00,0.0090
3708.00,0.0090
3707.00,0.0090
3706.00,0.0090
3705.00,0.0090
3704.00,0.0089
3703.00,0.0089
3702.00,0.0089
3701.00,0.0089
3700.00,0.0089
3699.00,0.0089
3698.00,0.0089
3697.00,0.0089
3696.00,0.0089
3695.00,0.0089
3694.00,0.0088
3693.00,0.0088
3692.00,0.0088
3691.00,0.0088
3690.00,0.0088
3689.00,0.0087
3688.00,0.0087
3687.00,0.0087
3686.00,0.0086
3685.00,0.0086
3684.00,0.0085
3683.00,0.0085
3682.00,0.0084
3681.00,0.0084
3680.00,0.0083
3679.00,0.0082
3678.00,0.0081
3677.00,0.0080
3676.00,0.0079
3675.00,0.0079
3674.00,0.0078
3673.00,0.0078
3672.00,0.0077
3671.00,0.0077
3670.00,0.0077
3669.00,0.0077
3668.00,0.0076
3667.00,0.0076
3666.00,0.0076
3665.00,0.0075
3664.00,0.0075
3663.00,0.0075
3662.00,0.0074
3661.00,0.0074
3660.00,0.0074
3659.00,0.0074
3658.00,0.0073
3657.00,0.0073
3656.00,0.0074
3655.00,0.0074
3654.00,0.0074
3653.00,0.0074
3652.00,0.0074
3651.00,0.0074
3650.00,0.0075
3649.00,0.0075
3648.00,0.0075
3647.00,0.0075
3646.00,0.0076
3645.00,0.0076
3644.00,0.0076
3643.00,0.0076
3642.00,0.0077
3641.00,0.0077
3640.00,0.0078
3639.00,0.0078
3638.00,0.0078
3637.00,0.0078
3636.00,0.0079
3635.00,0.0080
3634.00,0.0081
3633.00,0.0082
3632.00,0.0083
3631.00,0.0083
3630.00,0.0084
3629.00,0.0084
3628.00,0.0084
3627.00,0.0085
3626.00,0.0085
3625.00,0.0085
3624.00,0.0085
3623.00,0.0085
3622.00,0.0085
3621.00,0.0085
3620.00,0.0085
3619.00,0.0085
3618.00,0.0085
3617.00,0.0085
3616.00,0.0085
3615.00,0.0086
3614.00,0.0086
3613.00,0.0086
3612.00,0.0086
3611.00,0.0086
3610.00,0.0086
3609.00,0.0086
3608.00,0.0087
3607.00,0.0087
3606.00,0.0087
3605.00,0.0087
3604.00,0.0087
3603.00,0.0087
3602.00,0.0087
3601.00,0.0087
3600.00,0.0087
3599.00,0.0087
3598.00,0.0087
3597.00,0.0087
3596.00,0.0087
3595.00,0.0087
3594.00,0.0087
3593.00,0.0087
3592.00,0.0087
3591.00,0.0087
3590.00,0.0087
3589.00,0.0088
3588.00,0.0088
3587.00,0.0088
3586.00,0.0088
3585.00,0.0088
3584.00,0.0088
3583.00,0.0088
3582.00,0.0088
3581.00,0.0089
3580.00,0.0089
3579.00,0.0089
3578.00,0.0089
3577.00,0.0089
3576.00,0.0089
3575.00,0.0090
3574.00,0.0090
3573.00,0.0090
3572.00,0.0090
3571.00,0.0090
3570.00,0.0090
3569.00,0.0091
3568.00,0.0091
3567.00,0.0091
3566.00,0.0092
3565.00,0.0092
3564.00,0.0093
3563.00,0.0093
3562.00,0.0094
3561.00,0.0094
3560.00,0.0095
3559.00,0.0095
3558.00,0.0096
3557.00,0.0096
3556.00,0.0097
3555.00,0.0098
3554.00,0.0098
3553.00,0.0099
3552.00,0.0100
3551.00,0.0101
3550.00,0.0103
3549.00,0.0104
3548.00,0.0106
3547.00,0.0107
3546.00,0.0109
3545.00,0.0112
3544.00,0.0114
3543.00,0.0117
3542.00,0.0120
3541.00,0.0124
3540.00,0.0128
3539.00,0.0132
3538.00,0.0137
3537.00,0.0143
3536.00,0.0149
3535.00,0.0157
3534.00,0.0166
3533.00,0.0177
3532.00,0.0189
3531.00,0.0204
3530.00,0.0222
3529.00,0.0242
3528.00,0.0264
3527.00,0.0288
3526.00,0.0311
3525.00,0.0334
3524.00,0.0355
3523.00,0.0373
3522.00,0.0385
3521.00,0.0393
3520.00,0.0395
3519.00,0.0392
3518.00,0.0385
3517.00,0.0373
3516.00,0.0359
3515.00,0.0343
3514.00,0.0327
3513.00,0.0310
3512.00,0.0293
3511.00,0.0277
3510.00,0.0262
3509.00,0.0250
3508.00,0.0238
3507.00,0.0229
3506.00,0.0221
3505.00,0.0215
3504.00,0.0210
3503.00,0.0206
3502.00,0.0202
3501.00,0.0200
3500.00,0.0198
3499.00,0.0197
3498.00,0.0196
3497.00,0.0195
3496.00,0.0195
3495.00,0.0195
3494.00,0.0195
3493.00,0.0195
3492.00,0.0196
3491.00,0.0197
3490.00,0.0198
3489.00,0.0199
3488.00,0.0201
3487.00,0.0202
3486.00,0.0204
3485.00,0.0205
3484.00,0.0207
3483.00,0.0209
3482.00,0.0212
3481.00,0.0214
3480.00,0.0216
3479.00,0.0219
3478.00,0.0222
3477.00,0.0225
3476.00,0.0228
3475.00,0.0231
3474.00,0.0235
3473.00,0.0238
3472.00,0.0242
3471.00,0.0246
3470.00,0.0250
3469.00,0.0254
3468.00,0.0258
3467.00,0.0262
3466.00,0.0267
3465.00,0.0271
3464.00,0.0276
3463.00,0.0281
3462.00,0.0285
3461.00,0.0290
3460.00,0.0295
3459.00,0.0300
3458.00,0.0305
3457.00,0.0310
3456.00,0.0315
3455.00,0.0320
3454.00,0.0325
3453.00,0.0330
3452.00,0.0334
3451.00,0.0339
3450.00,0.0344
3449.00,0.0348
3448.00,0.0353
3447.00,0.0357
3446.00,0.0362
3445.00,0.0366
3444.00,0.0371
3443.00,0.0375
3442.00,0.0379
3441.00,0.0384
3440.00,0.0388
3439.00,0.0393
3438.00,0.0397
3437.00,0.0401
3436.00,0.0405
3435.00,0.0409
3434.00,0.0413
3433.00,0.0417
3432.00,0.0421
3431.00,0.0425
3430.00,0.0428
3429.00,0.0433
3428.00,0.0437
3427.00,0.0441
3426.00,0.0445
3425.00,0.0450
3424.00,0.0455
3423.00,0.0460
3422.00,0.0466
3421.00,0.0473
3420.00,0.0480
3419.00,0.0487
3418.00,0.0495
3417.00,0.0503
3416.00,0.0511
3415.00,0.0519
3414.00,0.0527
3413.00,0.0535
3412.00,0.0541
3411.00,0.0547
3410.00,0.0551
3409.00,0.0553
3408.00,0.0554
3407.00,0.0552
3406.00,0.0549
3405.00,0.0544
3404.00,0.0537
3403.00,0.0528
3402.00,0.0517
3401.00,0.0504
3400.00,0.0490
3399.00,0.0474
3398.00,0.0458
3397.00,0.0442
3396.00,0.0426
3395.00,0.0411
3394.00,0.0396
3393.00,0.0381
3392.00,0.0368
3391.00,0.0355
3390.00,0.0342
3389.00,0.0331
3388.00,0.0321
3387.00,0.0311
3386.00,0.0302
3385.00,0.0294
3384.00,0.0286
3383.00,0.0279
3382.00,0.0273
3381.00,0.0266
3380.00,0.0260
3379.00,0.0255
3378.00,0.0250
3377.00,0.0245
3376.00,0.0240
3375.00,0.0235
3374.00,0.0231
3373.00,0.0227
3372.00,0.0223
3371.00,0.0219
3370.00,0.0215
3369.00,0.0211
3368.00,0.0208
3367.00,0.0205
3366.00,0.0201
3365.00,0.0198
3364.00,0.0195
3363.00,0.0192
3362.00,0.0189
3361.00,0.0186
3360.00,0.0184
3359.00,0.0181
3358.00,0.0179
3357.00,0.0177
3356.00,0.0174
3355.00,0.0172
3354.00,0.0170
3353.00,0.0168
3352.00,0.0166
3351.00,0.0164
3350.00,0.0162
3349.00,0.0161
3348.00,0.0159
3347.00,0.0158
3346.00,0.0156
3345.00,0.0155
3344.00,0.0153
3343.00,0.0152
3342.00,0.0150
3341.00,0.0149
3340.00,0.0148
3339.00,0.0147
3338.00,0.0146
3337.00,0.0144
3336.00,0.0143
3335.00,0.0142
3334.00,0.0141
3333.00,0.0140
3332.00,0.0139
3331.00,0.0139
3330.00,0.0138
3329.00,0.0137
3328.00,0.0136
3327.00,0.0135
3326.00,0.0134
3325.00,0.0133
3324.00,0.0133
3323.00,0.0132
3322.00,0.0131
3321.00,0.0131
3320.00,0.0130
3319.00,0.0129
3318.00,0.0129
3317.00,0.0128
3316.00,0.0127
3315.00,0.0127
3314.00,0.0126
3313.00,0.0126
3312.00,0.0125
3311.00,0.0125
3310.00,0.0124
3309.00,0.0124
3308.00,0.0123
3307.00,0.0123
3306.00,0.0122
3305.00,0.0122
3304.00,0.0121
3303.00,0.0121
3302.00,0.0120
3301.00,0.0120
3300.00,0.0119
3299.00,0.0119
3298.00,0.0118
3297.00,0.0118
3296.00,0.0117
3295.00,0.0117
3294.00,0.0117
3293.00,0.0116
3292.00,0.0116
3291.00,0.0116
3290.00,0.0116
3289.00,0.0115
3288.00,0.0115
3287.00,0.0115
3286.00,0.0114
3285.00,0.0114
3284.00,0.0114
3283.00,0.0113
3282.00,0.0113
3281.00,0.0112
3280.00,0.0112
3279.00,0.0112
3278.00,0.0111
3277.00,0.0111
3276.00,0.0111
3275.00,0.0110
3274.00,0.0110
3273.00,0.0110
3272.00,0.0109
3271.00,0.0109
3270.00,0.0110
3269.00,0.0110
3268.00,0.0110
3267.00,0.0110
3266.00,0.0110
3265.00,0.0110
3264.00,0.0110
3263.00,0.0110
3262.00,0.0110
3261.00,0.0110
3260.00,0.0110
3259.00,0.0110
3258.00,0.0110
3257.00,0.0109
3256.00,0.0109
3255.00,0.0109
3254.00,0.0109
3253.00,0.0109
3252.00,0.0109
3251.00,0.0109
3250.00,0.0109
3249.00,0.0108
3248.00,0.0108
3247.00,0.0108
3246.00,0.0108
3245.00,0.0108
3244.00,0.0108
3243.00,0.0108
3242.00,0.0108
3241.00,0.0108
3240.00,0.0108
3239.00,0.0107
3238.00,0.0107
3237.00,0.0107
3236.00,0.0106
3235.00,0.0105
3234.00,0.0105
3233.00,0.0105
3232.00,0.0105
3231.00,0.0105
3230.00,0.0105
3229.00,0.0105
3228.00,0.0105
3227.00,0.0105
3226.00,0.0105
3225.00,0.0105
3224.00,0.0105
3223.00,0.0104
3222.00,0.0104
3221.00,0.0104
3220.00,0.0104
3219.00,0.0104
3218.00,0.0104
3217.00,0.0104
3216.00,0.0104
3215.00,0.0104
3214.00,0.0104
3213.00,0.0104
3212.00,0.0104
3211.00,0.0104
3210.00,0.0104
3209.00,0.0104
3208.00,0.0104
3207.00,0.0104
3206.00,0.0104
3205.00,0.0104
3204.00,0.0104
3203.00,0.0104
3202.00,0.0104
3201.00,0.0103
3200.00,0.0103
3199.00,0.0103
3198.00,0.0103
3197.00,0.0103
3196.00,0.0103
3195.00,0.0103
3194.00,0.0103
3193.00,0.0103
3192.00,0.0102
3191.00,0.0102
3190.00,0.0102
3189.00,0.0103
3188.00,0.0103
3187.00,0.0103
3186.00,0.0103
3185.00,0.0103
3184.00,0.0103
3183.00,0.0103
3182.00,0.0103
3181.00,0.0103
3180.00,0.0103
3179.00,0.0104
3178.00,0.0104
3177.00,0.0104
3176.00,0.0104
3175.00,0.0105
3174.00,0.0105
3173.00,0.0105
3172.00,0.0105
3171.00,0.0105
3170.00,0.0105
3169.00,0.0105
3168.00,0.0106
3167.00,0.0106
3166.00,0.0106
3165.00,0.0106
3164.00,0.0106
3163.00,0.0106
3162.00,0.0106
3161.00,0.0106
3160.00,0.0106
3159.00,0.0106
3158.00,0.0106
3157.00,0.0106
3156.00,0.0105
3155.00,0.0104
3154.00,0.0104
3153.00,0.0103
3152.00,0.0103
3151.00,0.0104
3150.00,0.0104
3149.00,0.0104
3148.00,0.0105
3147.00,0.0105
3146.00,0.0105
3145.00,0.0104
3144.00,0.0104
3143.00,0.0104
3142.00,0.0104
3141.00,0.0103
3140.00,0.0103
3139.00,0.0103
3138.00,0.0103
3137.00,0.0104
3136.00,0.0104
3135.00,0.0104
3134.00,0.0104
3133.00,0.0103
3132.00,0.0103
3131.00,0.0103
3130.00,0.0103
3129.00,0.0103
3128.00,0.0103
3127.00,0.0103
3126.00,0.0103
3125.00,0.0103
3124.00,0.0103
3123.00,0.0103
3122.00,0.0103
3121.00,0.0103
3120.00,0.0102
3119.00,0.0102
3118.00,0.0102
3117.00,0.0102
3116.00,0.0102
3115.00,0.0102
3114.00,0.0102
3113.00,0.0102
3112.00,0.0102
3111.00,0.0102
3110.00,0.0102
3109.00,0.0102
3108.00,0.0102
3107.00,0.0102
3106.00,0.0102
3105.00,0.0102
3104.00,0.0102
3103.00,0.0102
3102.00,0.0103
3101.00,0.0103
3100.00,0.0103
3099.00,0.0103
3098.00,0.0103
3097.00,0.0103
3096.00,0.0104
3095.00,0.0104
3094.00,0.0104
3093.00,0.0103
3092.00,0.0104
3091.00,0.0104
3090.00,0.0104
3089.00,0.0104
3088.00,0.0105
3087.00,0.0105
3086.00,0.0106
3085.00,0.0107
3084.00,0.0108
3083.00,0.0110
3082.00,0.0113
3081.00,0.0117
3080.00,0.0123
3079.00,0.0130
3078.00,0.0140
3077.00,0.0150
3076.00,0.0160
3075.00,0.0166
3074.00,0.0168
3073.00,0.0166
3072.00,0.0160
3071.00,0.0152
3070.00,0.0143
3069.00,0.0135
3068.00,0.0129
3067.00,0.0124
3066.00,0.0120
3065.00,0.0117
3064.00,0.0115
3063.00,0.0114
3062.00,0.0113
3061.00,0.0112
3060.00,0.0111
3059.00,0.0110
3058.00,0.0110
3057.00,0.0109
3056.00,0.0109
3055.00,0.0108
3054.00,0.0108
3053.00,0.0108
3052.00,0.0108
3051.00,0.0108
3050.00,0.0108
3049.00,0.0108
3048.00,0.0109
3047.00,0.0110
3046.00,0.0110
3045.00,0.0111
3044.00,0.0112
3043.00,0.0112
3042.00,0.0113
3041.00,0.0114
3040.00,0.0115
3039.00,0.0115
3038.00,0.0116
3037.00,0.0118
3036.00,0.0119
3035.00,0.0120
3034.00,0.0122
3033.00,0.0123
3032.00,0.0123
3031.00,0.0123
3030.00,0.0122
3029.00,0.0121
3028.00,0.0120
3027.00,0.0118
3026.00,0.0116
3025.00,0.0115
3024.00,0.0113
3023.00,0.0112
3022.00,0.0111
3021.00,0.0110
3020.00,0.0109
3019.00,0.0108
3018.00,0.0107
3017.00,0.0105
3016.00,0.0104
3015.00,0.0103
3014.00,0.0101
3013.00,0.0100
3012.00,0.0098
3011.00,0.0096
3010.00,0.0094
3009.00,0.0092
3008.00,0.0089
3007.00,0.0086
3006.00,0.0083
3005.00,0.0079
3004.00,0.0075
3003.00,0.0072
3002.00,0.0069
3001.00,0.0065
3000.00,0.0063
2999.00,0.0060
2998.00,0.0058
2997.00,0.0056
2996.00,0.0054
2995.00,0.0053
2994.00,0.0052
2993.00,0.0052
2992.00,0.0052
2991.00,0.0053
2990.00,0.0053
2989.00,0.0053
2988.00,0.0052
2987.00,0.0050
2986.00,0.0045
2985.00,0.0037
2984.00,0.0026
2983.00,0.0016
2982.00,0.0010
2981.00,0.0011
2980.00,0.0018
2979.00,0.0029
2978.00,0.0043
2977.00,0.0058
2976.00,0.0073
2975.00,0.0088
2974.00,0.0102
2973.00,0.0117
2972.00,0.0134
2971.00,0.0153
2970.00,0.0175
2969.00,0.0197
2968.00,0.0218
2967.00,0.0234
2966.00,0.0246
2965.00,0.0254
2964.00,0.0259
2963.00,0.0262
2962.00,0.0263
2961.00,0.0263
2960.00,0.0262
2959.00,0.0258
2958.00,0.0253
2957.00,0.0246
2956.00,0.0238
2955.00,0.0229
2954.00,0.0222
2953.00,0.0215
2952.00,0.0210
2951.00,0.0207
2950.00,0.0207
2949.00,0.0210
2948.00,0.0217
2947.00,0.0228
2946.00,0.0242
2945.00,0.0259
2944.00,0.0277
2943.00,0.0295
2942.00,0.0310
2941.00,0.0324
2940.00,0.0335
2939.00,0.0346
2938.00,0.0358
2937.00,0.0370
2936.00,0.0384
2935.00,0.0400
2934.00,0.0417
2933.00,0.0435
2932.00,0.0454
2931.00,0.0474
2930.00,0.0495
2929.00,0.0516
2928.00,0.0536
2927.00,0.0553
2926.00,0.0566
2925.00,0.0574
2924.00,0.0576
2923.00,0.0575
2922.00,0.0571
2921.00,0.0565
2920.00,0.0560
2919.00,0.0556
2918.00,0.0552
2917.00,0.0548
2916.00,0.0543
2915.00,0.0536
2914.00,0.0527
2913.00,0.0515
2912.00,0.0500
2911.00,0.0484
2910.00,0.0466
2909.00,0.0449
2908.00,0.0431
2907.00,0.0415
2906.00,0.0399
2905.00,0.0386
2904.00,0.0374
2903.00,0.0365
2902.00,0.0356
2901.00,0.0349
2900.00,0.0341
2899.00,0.0333
2898.00,0.0323
2897.00,0.0312
2896.00,0.0301
2895.00,0.0290
2894.00,0.0279
2893.00,0.0270
2892.00,0.0261
2891.00,0.0255
2890.00,0.0249
2889.00,0.0246
2888.00,0.0243
2887.00,0.0241
2886.00,0.0240
2885.00,0.0239
2884.00,0.0238
2883.00,0.0239
2882.00,0.0240
2881.00,0.0243
2880.00,0.0247
2879.00,0.0251
2878.00,0.0256
2877.00,0.0261
2876.00,0.0266
2875.00,0.0272
2874.00,0.0277
2873.00,0.0282
2872.00,0.0285
2871.00,0.0286
2870.00,0.0285
2869.00,0.0283
2868.00,0.0279
2867.00,0.0277
2866.00,0.0277
2865.00,0.0280
2864.00,0.0286
2863.00,0.0298
2862.00,0.0314
2861.00,0.0336
2860.00,0.0363
2859.00,0.0392
2858.00,0.0420
2857.00,0.0444
2856.00,0.0459
2855.00,0.0462
2854.00,0.0454
2853.00,0.0436
2852.00,0.0411
2851.00,0.0385
2850.00,0.0357
2849.00,0.0332
2848.00,0.0308
2847.00,0.0287
2846.00,0.0269
2845.00,0.0253
2844.00,0.0240
2843.00,0.0229
2842.00,0.0220
2841.00,0.0213
2840.00,0.0207
2839.00,0.0204
2838.00,0.0203
2837.00,0.0204
2836.00,0.0207
2835.00,0.0215
2834.00,0.0225
2833.00,0.0239
2832.00,0.0255
2831.00,0.0269
2830.00,0.0279
2829.00,0.0283
2828.00,0.0278
2827.00,0.0266
2826.00,0.0250
2825.00,0.0233
2824.00,0.0216
2823.00,0.0202
2822.00,0.0191
2821.00,0.0181
2820.00,0.0174
2819.00,0.0168
2818.00,0.0163
2817.00,0.0159
2816.00,0.0156
2815.00,0.0153
2814.00,0.0151
2813.00,0.0149
2812.00,0.0147
2811.00,0.0146
2810.00,0.0145
2809.00,0.0143
2808.00,0.0142
2807.00,0.0141
2806.00,0.0140
2805.00,0.0139
2804.00,0.0138
2803.00,0.0137
2802.00,0.0135
2801.00,0.0134
2800.00,0.0134
2799.00,0.0133
2798.00,0.0132
2797.00,0.0131
2796.00,0.0131
2795.00,0.0130
2794.00,0.0129
2793.00,0.0129
2792.00,0.0128
2791.00,0.0128
2790.00,0.0127
2789.00,0.0127
2788.00,0.0126
2787.00,0.0126
2786.00,0.0125
2785.00,0.0125
2784.00,0.0124
2783.00,0.0124
2782.00,0.0123
2781.00,0.0123
2780.00,0.0122
2779.00,0.0122
2778.00,0.0122
2777.00,0.0121
2776.00,0.0121
2775.00,0.0121
2774.00,0.0121
2773.00,0.0120
2772.00,0.0120
2771.00,0.0120
2770.00,0.0119
2769.00,0.0119
2768.00,0.0119
2767.00,0.0118
2766.00,0.0118
2765.00,0.0118
2764.00,0.0118
2763.00,0.0118
2762.00,0.0117
2761.00,0.0117
2760.00,0.0117
2759.00,0.0117
2758.00,0.0117
2757.00,0.0117
