Created as New Dataset,Sample 357 By YargerLab Date Wednesday, September 25 2024
cm-1,A
4000.00,0.0040
3999.00,0.0040
3998.00,0.0040
3997.00,0.0040
3996.00,0.0041
3995.00,0.0040
3994.00,0.0040
3993.00,0.0040
3992.00,0.0040
3991.00,0.0040
3990.00,0.0040
3989.00,0.0040
3988.00,0.0040
3987.00,0.0040
3986.00,0.0040
3985.00,0.0040
3984.00,0.0040
3983.00,0.0041
3982.00,0.0041
3981.00,0.0040
3980.00,0.0040
3979.00,0.0039
3978.00,0.0039
3977.00,0.0039
3976.00,0.0039
3975.00,0.0040
3974.00,0.0040
3973.00,0.0040
3972.00,0.0040
3971.00,0.0039
3970.00,0.0039
3969.00,0.0039
3968.00,0.0039
3967.00,0.0039
3966.00,0.0039
3965.00,0.0039
3964.00,0.0038
3963.00,0.0038
3962.00,0.0038
3961.00,0.0038
3960.00,0.0039
3959.00,0.0039
3958.00,0.0039
3957.00,0.0039
3956.00,0.0039
3955.00,0.0039
3954.00,0.0039
3953.00,0.0039
3952.00,0.0039
3951.00,0.0038
3950.00,0.0036
3949.00,0.0034
3948.00,0.0032
3947.00,0.0031
3946.00,0.0032
3945.00,0.0033
3944.00,0.0035
3943.00,0.0037
3942.00,0.0038
3941.00,0.0037
3940.00,0.0036
3939.00,0.0036
3938.00,0.0036
3937.00,0.0036
3936.00,0.0035
3935.00,0.0032
3934.00,0.0030
3933.00,0.0030
3932.00,0.0031
3931.00,0.0032
3930.00,0.0033
3929.00,0.0034
3928.00,0.0035
3927.00,0.0036
3926.00,0.0038
3925.00,0.0039
3924.00,0.0039
3923.00,0.0036
3922.00,0.0032
3921.00,0.0028
3920.00,0.0026
3919.00,0.0025
3918.00,0.0025
3917.00,0.0026
3916.00,0.0029
3915.00,0.0031
3914.00,0.0034
3913.00,0.0035
3912.00,0.0036
3911.00,0.0038
3910.00,0.0038
3909.00,0.0038
3908.00,0.0038
3907.00,0.0037
3906.00,0.0034
3905.00,0.0029
3904.00,0.0021
3903.00,0.0014
3902.00,0.0009
3901.00,0.0009
3900.00,0.0013
3899.00,0.0019
3898.00,0.0023
3897.00,0.0025
3896.00,0.0026
3895.00,0.0027
3894.00,0.0029
3893.00,0.0032
3892.00,0.0033
3891.00,0.0032
3890.00,0.0030
3889.00,0.0026
3888.00,0.0021
3887.00,0.0017
3886.00,0.0018
3885.00,0.0021
3884.00,0.0023
3883.00,0.0022
3882.00,0.0021
3881.00,0.0022
3880.00,0.0024
3879.00,0.0024
3878.00,0.0023
3877.00,0.0022
3876.00,0.0022
3875.00,0.0024
3874.00,0.0028
3873.00,0.0027
3872.00,0.0022
3871.00,0.0016
3870.00,0.0014
3869.00,0.0016
3868.00,0.0016
3867.00,0.0014
3866.00,0.0012
3865.00,0.0014
3864.00,0.0018
3863.00,0.0019
3862.00,0.0016
3861.00,0.0014
3860.00,0.0015
3859.00,0.0020
3858.00,0.0027
3857.00,0.0035
3856.00,0.0038
3855.00,0.0037
3854.00,0.0033
3853.00,0.0027
3852.00,0.0021
3851.00,0.0018
3850.00,0.0016
3849.00,0.0015
3848.00,0.0016
3847.00,0.0017
3846.00,0.0019
3845.00,0.0020
3844.00,0.0020
3843.00,0.0019
3842.00,0.0018
3841.00,0.0017
3840.00,0.0016
3839.00,0.0016
3838.00,0.0016
3837.00,0.0016
3836.00,0.0017
3835.00,0.0018
3834.00,0.0017
3833.00,0.0017
3832.00,0.0017
3831.00,0.0018
3830.00,0.0019
3829.00,0.0020
3828.00,0.0020
3827.00,0.0022
3826.00,0.0023
3825.00,0.0022
3824.00,0.0018
3823.00,0.0013
3822.00,0.0013
3821.00,0.0016
3820.00,0.0018
3819.00,0.0016
3818.00,0.0013
3817.00,0.0011
3816.00,0.0015
3815.00,0.0021
3814.00,0.0025
3813.00,0.0026
3812.00,0.0026
3811.00,0.0028
3810.00,0.0029
3809.00,0.0028
3808.00,0.0025
3807.00,0.0023
3806.00,0.0022
3805.00,0.0020
3804.00,0.0016
3803.00,0.0013
3802.00,0.0015
3801.00,0.0019
3800.00,0.0021
3799.00,0.0019
3798.00,0.0017
3797.00,0.0017
3796.00,0.0020
3795.00,0.0024
3794.00,0.0027
3793.00,0.0029
3792.00,0.0032
3791.00,0.0034
3790.00,0.0036
3789.00,0.0036
3788.00,0.0036
3787.00,0.0036
3786.00,0.0036
3785.00,0.0035
3784.00,0.0034
3783.00,0.0032
3782.00,0.0030
3781.00,0.0029
3780.00,0.0029
3779.00,0.0030
3778.00,0.0031
3777.00,0.0031
3776.00,0.0030
3775.00,0.0030
3774.00,0.0031
3773.00,0.0031
3772.00,0.0029
3771.00,0.0026
3770.00,0.0024
3769.00,0.0023
3768.00,0.0021
3767.00,0.0020
3766.00,0.0019
3765.00,0.0020
3764.00,0.0022
3763.00,0.0021
3762.00,0.0019
3761.00,0.0018
3760.00,0.0019
3759.00,0.0019
3758.00,0.0017
3757.00,0.0015
3756.00,0.0013
3755.00,0.0011
3754.00,0.0007
3753.00,0.0003
3752.00,-0.0000
3751.00,-0.0005
3750.00,-0.0011
3749.00,-0.0012
3748.00,-0.0010
3747.00,-0.0009
3746.00,-0.0010
3745.00,-0.0010
3744.00,-0.0006
3743.00,-0.0003
3742.00,-0.0003
3741.00,-0.0007
3740.00,-0.0011
3739.00,-0.0015
3738.00,-0.0018
3737.00,-0.0019
3736.00,-0.0016
3735.00,-0.0012
3734.00,-0.0010
3733.00,-0.0010
3732.00,-0.0007
3731.00,-0.0001
3730.00,0.0004
3729.00,0.0006
3728.00,0.0005
3727.00,0.0006
3726.00,0.0009
3725.00,0.0011
3724.00,0.0012
3723.00,0.0013
3722.00,0.0015
3721.00,0.0017
3720.00,0.0018
3719.00,0.0019
3718.00,0.0020
3717.00,0.0021
3716.00,0.0020
3715.00,0.0018
3714.00,0.0015
3713.00,0.0014
3712.00,0.0014
3711.00,0.0013
3710.00,0.0012
3709.00,0.0012
3708.00,0.0013
3707.00,0.0016
3706.00,0.0019
3705.00,0.0022
3704.00,0.0024
3703.00,0.0027
3702.00,0.0029
3701.00,0.0030
3700.00,0.0030
3699.00,0.0029
3698.00,0.0028
3697.00,0.0028
3696.00,0.0029
3695.00,0.0029
3694.00,0.0027
3693.00,0.0026
3692.00,0.0027
3691.00,0.0028
3690.00,0.0025
3689.00,0.0020
3688.00,0.0017
3687.00,0.0017
3686.00,0.0020
3685.00,0.0022
3684.00,0.0023
3683.00,0.0024
3682.00,0.0025
3681.00,0.0027
3680.00,0.0028
3679.00,0.0028
3678.00,0.0025
3677.00,0.0020
3676.00,0.0018
3675.00,0.0019
3674.00,0.0020
3673.00,0.0017
3672.00,0.0014
3671.00,0.0016
3670.00,0.0022
3669.00,0.0029
3668.00,0.0032
3667.00,0.0033
3666.00,0.0035
3665.00,0.0038
3664.00,0.0042
3663.00,0.0045
3662.00,0.0047
3661.00,0.0048
3660.00,0.0048
3659.00,0.0046
3658.00,0.0044
3657.00,0.0041
3656.00,0.0039
3655.00,0.0037
3654.00,0.0034
3653.00,0.0027
3652.00,0.0021
3651.00,0.0017
3650.00,0.0015
3649.00,0.0012
3648.00,0.0011
3647.00,0.0013
3646.00,0.0018
3645.00,0.0023
3644.00,0.0028
3643.00,0.0032
3642.00,0.0037
3641.00,0.0041
3640.00,0.0043
3639.00,0.0044
3638.00,0.0044
3637.00,0.0043
3636.00,0.0040
3635.00,0.0037
3634.00,0.0035
3633.00,0.0032
3632.00,0.0028
3631.00,0.0022
3630.00,0.0017
3629.00,0.0016
3628.00,0.0016
3627.00,0.0016
3626.00,0.0016
3625.00,0.0017
3624.00,0.0019
3623.00,0.0022
3622.00,0.0024
3621.00,0.0026
3620.00,0.0028
3619.00,0.0028
3618.00,0.0024
3617.00,0.0020
3616.00,0.0016
3615.00,0.0014
3614.00,0.0014
3613.00,0.0014
3612.00,0.0013
3611.00,0.0011
3610.00,0.0010
3609.00,0.0012
3608.00,0.0017
3607.00,0.0023
3606.00,0.0026
3605.00,0.0028
3604.00,0.0030
3603.00,0.0032
3602.00,0.0034
3601.00,0.0035
3600.00,0.0035
3599.00,0.0034
3598.00,0.0033
3597.00,0.0033
3596.00,0.0033
3595.00,0.0034
3594.00,0.0034
3593.00,0.0033
3592.00,0.0031
3591.00,0.0028
3590.00,0.0025
3589.00,0.0025
3588.00,0.0028
3587.00,0.0031
3586.00,0.0032
3585.00,0.0033
3584.00,0.0034
3583.00,0.0037
3582.00,0.0040
3581.00,0.0044
3580.00,0.0047
3579.00,0.0049
3578.00,0.0050
3577.00,0.0050
3576.00,0.0050
3575.00,0.0050
3574.00,0.0050
3573.00,0.0049
3572.00,0.0047
3571.00,0.0044
3570.00,0.0039
3569.00,0.0036
3568.00,0.0035
3567.00,0.0036
3566.00,0.0037
3565.00,0.0039
3564.00,0.0040
3563.00,0.0042
3562.00,0.0045
3561.00,0.0049
3560.00,0.0052
3559.00,0.0054
3558.00,0.0055
3557.00,0.0056
3556.00,0.0056
3555.00,0.0057
3554.00,0.0057
3553.00,0.0058
3552.00,0.0057
3551.00,0.0056
3550.00,0.0053
3549.00,0.0051
3548.00,0.0049
3547.00,0.0049
3546.00,0.0050
3545.00,0.0052
3544.00,0.0055
3543.00,0.0057
3542.00,0.0059
3541.00,0.0061
3540.00,0.0062
3539.00,0.0064
3538.00,0.0065
3537.00,0.0066
3536.00,0.0067
3535.00,0.0067
3534.00,0.0067
3533.00,0.0067
3532.00,0.0067
3531.00,0.0067
3530.00,0.0067
3529.00,0.0067
3528.00,0.0065
3527.00,0.0063
3526.00,0.0062
3525.00,0.0062
3524.00,0.0063
3523.00,0.0066
3522.00,0.0068
3521.00,0.0070
3520.00,0.0071
3519.00,0.0072
3518.00,0.0074
3517.00,0.0075
3516.00,0.0075
3515.00,0.0076
3514.00,0.0076
3513.00,0.0076
3512.00,0.0076
3511.00,0.0077
3510.00,0.0077
3509.00,0.0077
3508.00,0.0077
3507.00,0.0076
3506.00,0.0075
3505.00,0.0075
3504.00,0.0076
3503.00,0.0077
3502.00,0.0077
3501.00,0.0077
3500.00,0.0078
3499.00,0.0079
3498.00,0.0081
3497.00,0.0082
3496.00,0.0083
3495.00,0.0084
3494.00,0.0085
3493.00,0.0086
3492.00,0.0086
3491.00,0.0087
3490.00,0.0087
3489.00,0.0088
3488.00,0.0088
3487.00,0.0088
3486.00,0.0089
3485.00,0.0089
3484.00,0.0090
3483.00,0.0091
3482.00,0.0091
3481.00,0.0092
3480.00,0.0092
3479.00,0.0092
3478.00,0.0093
3477.00,0.0095
3476.00,0.0096
3475.00,0.0097
3474.00,0.0098
3473.00,0.0098
3472.00,0.0099
3471.00,0.0099
3470.00,0.0099
3469.00,0.0100
3468.00,0.0100
3467.00,0.0101
3466.00,0.0102
3465.00,0.0103
3464.00,0.0104
3463.00,0.0104
3462.00,0.0105
3461.00,0.0106
3460.00,0.0106
3459.00,0.0107
3458.00,0.0108
3457.00,0.0109
3456.00,0.0110
3455.00,0.0111
3454.00,0.0111
3453.00,0.0112
3452.00,0.0112
3451.00,0.0112
3450.00,0.0112
3449.00,0.0113
3448.00,0.0113
3447.00,0.0114
3446.00,0.0114
3445.00,0.0114
3444.00,0.0114
3443.00,0.0115
3442.00,0.0116
3441.00,0.0117
3440.00,0.0118
3439.00,0.0118
3438.00,0.0118
3437.00,0.0119
3436.00,0.0120
3435.00,0.0120
3434.00,0.0121
3433.00,0.0122
3432.00,0.0123
3431.00,0.0123
3430.00,0.0124
3429.00,0.0125
3428.00,0.0125
3427.00,0.0126
3426.00,0.0127
3425.00,0.0127
3424.00,0.0128
3423.00,0.0128
3422.00,0.0129
3421.00,0.0130
3420.00,0.0130
3419.00,0.0131
3418.00,0.0131
3417.00,0.0132
3416.00,0.0132
3415.00,0.0133
3414.00,0.0133
3413.00,0.0134
3412.00,0.0135
3411.00,0.0135
3410.00,0.0136
3409.00,0.0137
3408.00,0.0138
3407.00,0.0138
3406.00,0.0139
3405.00,0.0139
3404.00,0.0140
3403.00,0.0140
3402.00,0.0141
3401.00,0.0141
3400.00,0.0142
3399.00,0.0142
3398.00,0.0143
3397.00,0.0143
3396.00,0.0143
3395.00,0.0143
3394.00,0.0144
3393.00,0.0145
3392.00,0.0146
3391.00,0.0147
3390.00,0.0148
3389.00,0.0149
3388.00,0.0150
3387.00,0.0151
3386.00,0.0152
3385.00,0.0153
3384.00,0.0153
3383.00,0.0154
3382.00,0.0154
3381.00,0.0155
3380.00,0.0156
3379.00,0.0156
3378.00,0.0157
3377.00,0.0158
3376.00,0.0159
3375.00,0.0160
3374.00,0.0161
3373.00,0.0162
3372.00,0.0162
3371.00,0.0163
3370.00,0.0163
3369.00,0.0164
3368.00,0.0165
3367.00,0.0166
3366.00,0.0167
3365.00,0.0169
3364.00,0.0170
3363.00,0.0171
3362.00,0.0172
3361.00,0.0173
3360.00,0.0175
3359.00,0.0176
3358.00,0.0178
3357.00,0.0179
3356.00,0.0180
3355.00,0.0181
3354.00,0.0182
3353.00,0.0183
3352.00,0.0184
3351.00,0.0185
3350.00,0.0186
3349.00,0.0188
3348.00,0.0190
3347.00,0.0191
3346.00,0.0192
3345.00,0.0193
3344.00,0.0194
3343.00,0.0195
3342.00,0.0197
3341.00,0.0198
3340.00,0.0199
3339.00,0.0200
3338.00,0.0202
3337.00,0.0204
3336.00,0.0206
3335.00,0.0208
3334.00,0.0210
3333.00,0.0212
3332.00,0.0213
3331.00,0.0215
3330.00,0.0217
3329.00,0.0218
3328.00,0.0219
3327.00,0.0220
3326.00,0.0221
3325.00,0.0223
3324.00,0.0226
3323.00,0.0228
3322.00,0.0230
3321.00,0.0232
3320.00,0.0235
3319.00,0.0237
3318.00,0.0238
3317.00,0.0240
3316.00,0.0242
3315.00,0.0244
3314.00,0.0245
3313.00,0.0247
3312.00,0.0248
3311.00,0.0249
3310.00,0.0251
3309.00,0.0252
3308.00,0.0255
3307.00,0.0257
3306.00,0.0260
3305.00,0.0262
3304.00,0.0265
3303.00,0.0268
3302.00,0.0271
3301.00,0.0273
3300.00,0.0275
3299.00,0.0277
3298.00,0.0279
3297.00,0.0280
3296.00,0.0282
3295.00,0.0284
3294.00,0.0286
3293.00,0.0288
3292.00,0.0291
3291.00,0.0293
3290.00,0.0296
3289.00,0.0299
3288.00,0.0301
3287.00,0.0303
3286.00,0.0305
3285.00,0.0307
3284.00,0.0308
3283.00,0.0310
3282.00,0.0311
3281.00,0.0312
3280.00,0.0312
3279.00,0.0313
3278.00,0.0313
3277.00,0.0313
3276.00,0.0313
3275.00,0.0313
3274.00,0.0312
3273.00,0.0312
3272.00,0.0312
3271.00,0.0312
3270.00,0.0312
3269.00,0.0313
3268.00,0.0313
3267.00,0.0312
3266.00,0.0312
3265.00,0.0311
3264.00,0.0310
3263.00,0.0308
3262.00,0.0306
3261.00,0.0305
3260.00,0.0303
3259.00,0.0300
3258.00,0.0298
3257.00,0.0295
3256.00,0.0293
3255.00,0.0292
3254.00,0.0291
3253.00,0.0289
3252.00,0.0288
3251.00,0.0286
3250.00,0.0283
3249.00,0.0281
3248.00,0.0278
3247.00,0.0276
3246.00,0.0275
3245.00,0.0274
3244.00,0.0273
3243.00,0.0272
3242.00,0.0271
3241.00,0.0270
3240.00,0.0269
3239.00,0.0267
3238.00,0.0265
3237.00,0.0263
3236.00,0.0261
3235.00,0.0259
3234.00,0.0258
3233.00,0.0257
3232.00,0.0256
3231.00,0.0256
3230.00,0.0256
3229.00,0.0255
3228.00,0.0255
3227.00,0.0254
3226.00,0.0253
3225.00,0.0252
3224.00,0.0251
3223.00,0.0250
3222.00,0.0249
3221.00,0.0248
3220.00,0.0246
3219.00,0.0246
3218.00,0.0245
3217.00,0.0244
3216.00,0.0243
3215.00,0.0242
3214.00,0.0242
3213.00,0.0241
3212.00,0.0241
3211.00,0.0240
3210.00,0.0239
3209.00,0.0239
3208.00,0.0238
3207.00,0.0237
3206.00,0.0237
3205.00,0.0237
3204.00,0.0236
3203.00,0.0235
3202.00,0.0235
3201.00,0.0234
3200.00,0.0233
3199.00,0.0232
3198.00,0.0232
3197.00,0.0231
3196.00,0.0230
3195.00,0.0229
3194.00,0.0228
3193.00,0.0228
3192.00,0.0227
3191.00,0.0226
3190.00,0.0226
3189.00,0.0225
3188.00,0.0224
3187.00,0.0223
3186.00,0.0222
3185.00,0.0222
3184.00,0.0221
3183.00,0.0220
3182.00,0.0219
3181.00,0.0218
3180.00,0.0217
3179.00,0.0216
3178.00,0.0215
3177.00,0.0214
3176.00,0.0213
3175.00,0.0213
3174.00,0.0212
3173.00,0.0211
3172.00,0.0210
3171.00,0.0209
3170.00,0.0209
3169.00,0.0208
3168.00,0.0207
3167.00,0.0206
3166.00,0.0205
3165.00,0.0204
3164.00,0.0203
3163.00,0.0202
3162.00,0.0201
3161.00,0.0200
3160.00,0.0199
3159.00,0.0198
3158.00,0.0197
3157.00,0.0196
3156.00,0.0194
3155.00,0.0193
3154.00,0.0191
3153.00,0.0191
3152.00,0.0190
3151.00,0.0190
3150.00,0.0189
3149.00,0.0189
3148.00,0.0189
3147.00,0.0189
3146.00,0.0188
3145.00,0.0187
3144.00,0.0187
3143.00,0.0186
3142.00,0.0184
3141.00,0.0183
3140.00,0.0182
3139.00,0.0182
3138.00,0.0181
3137.00,0.0181
3136.00,0.0181
3135.00,0.0181
3134.00,0.0180
3133.00,0.0180
3132.00,0.0179
3131.00,0.0178
3130.00,0.0178
3129.00,0.0178
3128.00,0.0178
3127.00,0.0178
3126.00,0.0177
3125.00,0.0176
3124.00,0.0175
3123.00,0.0174
3122.00,0.0173
3121.00,0.0173
3120.00,0.0172
3119.00,0.0172
3118.00,0.0171
3117.00,0.0171
3116.00,0.0172
3115.00,0.0172
3114.00,0.0173
3113.00,0.0173
3112.00,0.0173
3111.00,0.0173
3110.00,0.0173
3109.00,0.0173
3108.00,0.0174
3107.00,0.0174
3106.00,0.0175
3105.00,0.0175
3104.00,0.0175
3103.00,0.0175
3102.00,0.0175
3101.00,0.0174
3100.00,0.0174
3099.00,0.0175
3098.00,0.0176
3097.00,0.0177
3096.00,0.0178
3095.00,0.0178
3094.00,0.0178
3093.00,0.0178
3092.00,0.0178
3091.00,0.0178
3090.00,0.0178
3089.00,0.0178
3088.00,0.0179
3087.00,0.0179
3086.00,0.0179
3085.00,0.0179
3084.00,0.0179
3083.00,0.0179
3082.00,0.0179
3081.00,0.0179
3080.00,0.0179
3079.00,0.0180
3078.00,0.0181
3077.00,0.0181
3076.00,0.0183
3075.00,0.0184
3074.00,0.0184
3073.00,0.0184
3072.00,0.0184
3071.00,0.0184
3070.00,0.0184
3069.00,0.0183
3068.00,0.0182
3067.00,0.0182
3066.00,0.0182
3065.00,0.0183
3064.00,0.0183
3063.00,0.0184
3062.00,0.0184
3061.00,0.0184
3060.00,0.0184
3059.00,0.0183
3058.00,0.0182
3057.00,0.0181
3056.00,0.0180
3055.00,0.0180
3054.00,0.0180
3053.00,0.0179
3052.00,0.0178
3051.00,0.0178
3050.00,0.0177
3049.00,0.0177
3048.00,0.0177
3047.00,0.0176
3046.00,0.0174
3045.00,0.0173
3044.00,0.0173
3043.00,0.0172
3042.00,0.0172
3041.00,0.0172
3040.00,0.0172
3039.00,0.0172
3038.00,0.0171
3037.00,0.0170
3036.00,0.0168
3035.00,0.0167
3034.00,0.0166
3033.00,0.0166
3032.00,0.0166
3031.00,0.0166
3030.00,0.0167
3029.00,0.0167
3028.00,0.0166
3027.00,0.0166
3026.00,0.0165
3025.00,0.0165
3024.00,0.0164
3023.00,0.0164
3022.00,0.0164
3021.00,0.0163
3020.00,0.0163
3019.00,0.0163
3018.00,0.0163
3017.00,0.0163
3016.00,0.0164
3015.00,0.0164
3014.00,0.0166
3013.00,0.0167
3012.00,0.0170
3011.00,0.0173
3010.00,0.0177
3009.00,0.0181
3008.00,0.0185
3007.00,0.0190
3006.00,0.0194
3005.00,0.0199
3004.00,0.0203
3003.00,0.0208
3002.00,0.0213
3001.00,0.0217
3000.00,0.0221
2999.00,0.0225
2998.00,0.0229
2997.00,0.0232
2996.00,0.0235
2995.00,0.0238
2994.00,0.0241
2993.00,0.0244
2992.00,0.0247
2991.00,0.0251
2990.00,0.0254
2989.00,0.0258
2988.00,0.0262
2987.00,0.0267
2986.00,0.0275
2985.00,0.0287
2984.00,0.0301
2983.00,0.0316
2982.00,0.0327
2981.00,0.0331
2980.00,0.0329
2979.00,0.0323
2978.00,0.0316
2977.00,0.0310
2976.00,0.0306
2975.00,0.0304
2974.00,0.0305
2973.00,0.0308
2972.00,0.0310
2971.00,0.0310
2970.00,0.0306
2969.00,0.0301
2968.00,0.0295
2967.00,0.0289
2966.00,0.0285
2965.00,0.0280
2964.00,0.0276
2963.00,0.0272
2962.00,0.0268
2961.00,0.0265
2960.00,0.0262
2959.00,0.0259
2958.00,0.0256
2957.00,0.0253
2956.00,0.0250
2955.00,0.0247
2954.00,0.0244
2953.00,0.0241
2952.00,0.0239
2951.00,0.0238
2950.00,0.0236
2949.00,0.0235
2948.00,0.0233
2947.00,0.0231
2946.00,0.0228
2945.00,0.0227
2944.00,0.0225
2943.00,0.0225
2942.00,0.0224
2941.00,0.0225
2940.00,0.0225
2939.00,0.0225
2938.00,0.0224
2937.00,0.0224
2936.00,0.0223
2935.00,0.0222
2934.00,0.0221
2933.00,0.0219
2932.00,0.0217
2931.00,0.0214
2930.00,0.0211
2929.00,0.0207
2928.00,0.0203
2927.00,0.0197
2926.00,0.0191
2925.00,0.0183
2924.00,0.0175
2923.00,0.0165
2922.00,0.0155
2921.00,0.0143
2920.00,0.0131
2919.00,0.0119
2918.00,0.0110
2917.00,0.0104
2916.00,0.0104
2915.00,0.0109
2914.00,0.0120
2913.00,0.0132
2912.00,0.0145
2911.00,0.0156
2910.00,0.0165
2909.00,0.0172
2908.00,0.0177
2907.00,0.0181
2906.00,0.0183
2905.00,0.0185
2904.00,0.0186
2903.00,0.0187
2902.00,0.0188
2901.00,0.0189
2900.00,0.0189
2899.00,0.0189
2898.00,0.0189
2897.00,0.0190
2896.00,0.0191
2895.00,0.0192
2894.00,0.0193
2893.00,0.0195
2892.00,0.0197
2891.00,0.0199
2890.00,0.0200
2889.00,0.0201
2888.00,0.0201
2887.00,0.0202
2886.00,0.0202
2885.00,0.0203
2884.00,0.0203
2883.00,0.0203
2882.00,0.0202
2881.00,0.0200
2880.00,0.0198
2879.00,0.0196
2878.00,0.0195
2877.00,0.0193
2876.00,0.0192
2875.00,0.0191
2874.00,0.0190
2873.00,0.0189
2872.00,0.0188
2871.00,0.0188
2870.00,0.0187
2869.00,0.0185
2868.00,0.0183
2867.00,0.0181
2866.00,0.0179
2865.00,0.0177
2864.00,0.0174
2863.00,0.0171
2862.00,0.0168
2861.00,0.0165
2860.00,0.0162
2859.00,0.0159
2858.00,0.0156
2857.00,0.0152
2856.00,0.0147
2855.00,0.0141
2854.00,0.0133
2853.00,0.0123
2852.00,0.0110
2851.00,0.0097
2850.00,0.0086
2849.00,0.0081
2848.00,0.0082
2847.00,0.0090
2846.00,0.0101
2845.00,0.0112
2844.00,0.0121
2843.00,0.0128
2842.00,0.0132
2841.00,0.0134
2840.00,0.0136
2839.00,0.0137
2838.00,0.0138
2837.00,0.0138
2836.00,0.0139
2835.00,0.0139
2834.00,0.0139
2833.00,0.0140
2832.00,0.0140
2831.00,0.0140
2830.00,0.0140
2829.00,0.0140
2828.00,0.0139
2827.00,0.0139
2826.00,0.0139
2825.00,0.0139
2824.00,0.0138
2823.00,0.0138
2822.00,0.0138
2821.00,0.0137
2820.00,0.0137
2819.00,0.0137
2818.00,0.0137
2817.00,0.0136
2816.00,0.0136
2815.00,0.0136
2814.00,0.0135
2813.00,0.0135
2812.00,0.0134
2811.00,0.0134
2810.00,0.0134
2809.00,0.0133
2808.00,0.0133
2807.00,0.0133
2806.00,0.0133
2805.00,0.0133
2804.00,0.0133
2803.00,0.0132
2802.00,0.0132
2801.00,0.0131
2800.00,0.0131
2799.00,0.0130
2798.00,0.0130
2797.00,0.0130
2796.00,0.0130
2795.00,0.0130
2794.00,0.0130
2793.00,0.0129
2792.00,0.0129
2791.00,0.0128
2790.00,0.0128
2789.00,0.0128
2788.00,0.0128
2787.00,0.0128
2786.00,0.0128
2785.00,0.0128
2784.00,0.0128
2783.00,0.0128
2782.00,0.0128
2781.00,0.0128
2780.00,0.0127
2779.00,0.0127
2778.00,0.0126
2777.00,0.0126
2776.00,0.0125
2775.00,0.0125
2774.00,0.0125
2773.00,0.0125
2772.00,0.0125
2771.00,0.0125
2770.00,0.0125
2769.00,0.0125
2768.00,0.0124
2767.00,0.0124
2766.00,0.0124
2765.00,0.0124
2764.00,0.0124
2763.00,0.0123
2762.00,0.0123
2761.00,0.0123
2760.00,0.0123
2759.00,0.0122
2758.00,0.0122
