Created as New Dataset,Sample 286 By YargerLab Date Saturday, July 27 2024
cm-1,A
4000.00,0.0005
3999.00,0.0005
3998.00,0.0005
3997.00,0.0005
3996.00,0.0005
3995.00,0.0005
3994.00,0.0005
3993.00,0.0005
3992.00,0.0005
3991.00,0.0005
3990.00,0.0005
3989.00,0.0005
3988.00,0.0005
3987.00,0.0005
3986.00,0.0005
3985.00,0.0005
3984.00,0.0005
3983.00,0.0005
3982.00,0.0005
3981.00,0.0005
3980.00,0.0005
3979.00,0.0005
3978.00,0.0005
3977.00,0.0005
3976.00,0.0005
3975.00,0.0005
3974.00,0.0005
3973.00,0.0005
3972.00,0.0005
3971.00,0.0005
3970.00,0.0006
3969.00,0.0006
3968.00,0.0006
3967.00,0.0006
3966.00,0.0006
3965.00,0.0005
3964.00,0.0005
3963.00,0.0005
3962.00,0.0005
3961.00,0.0005
3960.00,0.0005
3959.00,0.0005
3958.00,0.0005
3957.00,0.0005
3956.00,0.0005
3955.00,0.0005
3954.00,0.0005
3953.00,0.0005
3952.00,0.0005
3951.00,0.0005
3950.00,0.0005
3949.00,0.0005
3948.00,0.0005
3947.00,0.0005
3946.00,0.0005
3945.00,0.0005
3944.00,0.0005
3943.00,0.0005
3942.00,0.0005
3941.00,0.0005
3940.00,0.0005
3939.00,0.0005
3938.00,0.0005
3937.00,0.0005
3936.00,0.0005
3935.00,0.0005
3934.00,0.0005
3933.00,0.0005
3932.00,0.0005
3931.00,0.0005
3930.00,0.0006
3929.00,0.0005
3928.00,0.0005
3927.00,0.0005
3926.00,0.0005
3925.00,0.0005
3924.00,0.0005
3923.00,0.0005
3922.00,0.0005
3921.00,0.0005
3920.00,0.0005
3919.00,0.0005
3918.00,0.0005
3917.00,0.0005
3916.00,0.0005
3915.00,0.0005
3914.00,0.0005
3913.00,0.0005
3912.00,0.0005
3911.00,0.0005
3910.00,0.0005
3909.00,0.0005
3908.00,0.0005
3907.00,0.0006
3906.00,0.0006
3905.00,0.0006
3904.00,0.0006
3903.00,0.0006
3902.00,0.0006
3901.00,0.0006
3900.00,0.0005
3899.00,0.0005
3898.00,0.0005
3897.00,0.0005
3896.00,0.0005
3895.00,0.0005
3894.00,0.0005
3893.00,0.0005
3892.00,0.0005
3891.00,0.0005
3890.00,0.0005
3889.00,0.0005
3888.00,0.0005
3887.00,0.0005
3886.00,0.0005
3885.00,0.0005
3884.00,0.0005
3883.00,0.0005
3882.00,0.0005
3881.00,0.0005
3880.00,0.0005
3879.00,0.0005
3878.00,0.0005
3877.00,0.0005
3876.00,0.0005
3875.00,0.0005
3874.00,0.0005
3873.00,0.0006
3872.00,0.0006
3871.00,0.0006
3870.00,0.0006
3869.00,0.0006
3868.00,0.0006
3867.00,0.0006
3866.00,0.0005
3865.00,0.0005
3864.00,0.0005
3863.00,0.0005
3862.00,0.0005
3861.00,0.0005
3860.00,0.0005
3859.00,0.0005
3858.00,0.0006
3857.00,0.0006
3856.00,0.0007
3855.00,0.0007
3854.00,0.0006
3853.00,0.0006
3852.00,0.0006
3851.00,0.0006
3850.00,0.0006
3849.00,0.0005
3848.00,0.0005
3847.00,0.0005
3846.00,0.0005
3845.00,0.0005
3844.00,0.0005
3843.00,0.0005
3842.00,0.0005
3841.00,0.0006
3840.00,0.0006
3839.00,0.0006
3838.00,0.0006
3837.00,0.0006
3836.00,0.0006
3835.00,0.0006
3834.00,0.0006
3833.00,0.0005
3832.00,0.0005
3831.00,0.0005
3830.00,0.0005
3829.00,0.0004
3828.00,0.0004
3827.00,0.0004
3826.00,0.0005
3825.00,0.0005
3824.00,0.0006
3823.00,0.0006
3822.00,0.0005
3821.00,0.0005
3820.00,0.0005
3819.00,0.0006
3818.00,0.0006
3817.00,0.0005
3816.00,0.0005
3815.00,0.0005
3814.00,0.0005
3813.00,0.0005
3812.00,0.0005
3811.00,0.0005
3810.00,0.0005
3809.00,0.0005
3808.00,0.0005
3807.00,0.0005
3806.00,0.0005
3805.00,0.0005
3804.00,0.0005
3803.00,0.0005
3802.00,0.0005
3801.00,0.0005
3800.00,0.0005
3799.00,0.0005
3798.00,0.0005
3797.00,0.0005
3796.00,0.0004
3795.00,0.0004
3794.00,0.0004
3793.00,0.0004
3792.00,0.0004
3791.00,0.0004
3790.00,0.0004
3789.00,0.0004
3788.00,0.0004
3787.00,0.0004
3786.00,0.0004
3785.00,0.0005
3784.00,0.0005
3783.00,0.0005
3782.00,0.0005
3781.00,0.0005
3780.00,0.0005
3779.00,0.0005
3778.00,0.0005
3777.00,0.0005
3776.00,0.0004
3775.00,0.0004
3774.00,0.0004
3773.00,0.0005
3772.00,0.0005
3771.00,0.0005
3770.00,0.0005
3769.00,0.0005
3768.00,0.0005
3767.00,0.0005
3766.00,0.0005
3765.00,0.0005
3764.00,0.0005
3763.00,0.0005
3762.00,0.0005
3761.00,0.0005
3760.00,0.0005
3759.00,0.0005
3758.00,0.0005
3757.00,0.0005
3756.00,0.0006
3755.00,0.0006
3754.00,0.0006
3753.00,0.0007
3752.00,0.0007
3751.00,0.0007
3750.00,0.0006
3749.00,0.0007
3748.00,0.0007
3747.00,0.0006
3746.00,0.0006
3745.00,0.0006
3744.00,0.0006
3743.00,0.0006
3742.00,0.0007
3741.00,0.0006
3740.00,0.0006
3739.00,0.0007
3738.00,0.0007
3737.00,0.0007
3736.00,0.0007
3735.00,0.0007
3734.00,0.0007
3733.00,0.0006
3732.00,0.0006
3731.00,0.0006
3730.00,0.0005
3729.00,0.0005
3728.00,0.0005
3727.00,0.0005
3726.00,0.0005
3725.00,0.0005
3724.00,0.0005
3723.00,0.0005
3722.00,0.0005
3721.00,0.0005
3720.00,0.0005
3719.00,0.0005
3718.00,0.0005
3717.00,0.0005
3716.00,0.0005
3715.00,0.0006
3714.00,0.0006
3713.00,0.0006
3712.00,0.0006
3711.00,0.0006
3710.00,0.0006
3709.00,0.0006
3708.00,0.0006
3707.00,0.0006
3706.00,0.0006
3705.00,0.0005
3704.00,0.0006
3703.00,0.0005
3702.00,0.0005
3701.00,0.0005
3700.00,0.0005
3699.00,0.0005
3698.00,0.0005
3697.00,0.0005
3696.00,0.0006
3695.00,0.0006
3694.00,0.0006
3693.00,0.0006
3692.00,0.0007
3691.00,0.0007
3690.00,0.0007
3689.00,0.0007
3688.00,0.0007
3687.00,0.0007
3686.00,0.0007
3685.00,0.0007
3684.00,0.0007
3683.00,0.0007
3682.00,0.0007
3681.00,0.0007
3680.00,0.0008
3679.00,0.0009
3678.00,0.0009
3677.00,0.0009
3676.00,0.0009
3675.00,0.0009
3674.00,0.0010
3673.00,0.0010
3672.00,0.0010
3671.00,0.0009
3670.00,0.0009
3669.00,0.0009
3668.00,0.0009
3667.00,0.0010
3666.00,0.0010
3665.00,0.0009
3664.00,0.0010
3663.00,0.0010
3662.00,0.0010
3661.00,0.0010
3660.00,0.0011
3659.00,0.0011
3658.00,0.0011
3657.00,0.0011
3656.00,0.0012
3655.00,0.0012
3654.00,0.0013
3653.00,0.0013
3652.00,0.0014
3651.00,0.0014
3650.00,0.0014
3649.00,0.0014
3648.00,0.0014
3647.00,0.0015
3646.00,0.0015
3645.00,0.0015
3644.00,0.0015
3643.00,0.0015
3642.00,0.0015
3641.00,0.0015
3640.00,0.0015
3639.00,0.0015
3638.00,0.0016
3637.00,0.0016
3636.00,0.0017
3635.00,0.0017
3634.00,0.0018
3633.00,0.0018
3632.00,0.0019
3631.00,0.0020
3630.00,0.0020
3629.00,0.0019
3628.00,0.0019
3627.00,0.0019
3626.00,0.0020
3625.00,0.0020
3624.00,0.0020
3623.00,0.0020
3622.00,0.0021
3621.00,0.0021
3620.00,0.0022
3619.00,0.0022
3618.00,0.0022
3617.00,0.0023
3616.00,0.0023
3615.00,0.0023
3614.00,0.0023
3613.00,0.0024
3612.00,0.0024
3611.00,0.0024
3610.00,0.0024
3609.00,0.0025
3608.00,0.0025
3607.00,0.0025
3606.00,0.0026
3605.00,0.0026
3604.00,0.0027
3603.00,0.0027
3602.00,0.0027
3601.00,0.0028
3600.00,0.0028
3599.00,0.0028
3598.00,0.0029
3597.00,0.0029
3596.00,0.0029
3595.00,0.0029
3594.00,0.0030
3593.00,0.0030
3592.00,0.0031
3591.00,0.0031
3590.00,0.0032
3589.00,0.0032
3588.00,0.0032
3587.00,0.0032
3586.00,0.0032
3585.00,0.0032
3584.00,0.0033
3583.00,0.0033
3582.00,0.0034
3581.00,0.0034
3580.00,0.0035
3579.00,0.0035
3578.00,0.0035
3577.00,0.0036
3576.00,0.0036
3575.00,0.0036
3574.00,0.0037
3573.00,0.0037
3572.00,0.0038
3571.00,0.0039
3570.00,0.0039
3569.00,0.0040
3568.00,0.0040
3567.00,0.0039
3566.00,0.0040
3565.00,0.0040
3564.00,0.0041
3563.00,0.0041
3562.00,0.0041
3561.00,0.0041
3560.00,0.0042
3559.00,0.0042
3558.00,0.0043
3557.00,0.0043
3556.00,0.0044
3555.00,0.0044
3554.00,0.0044
3553.00,0.0045
3552.00,0.0045
3551.00,0.0045
3550.00,0.0046
3549.00,0.0047
3548.00,0.0047
3547.00,0.0047
3546.00,0.0047
3545.00,0.0048
3544.00,0.0048
3543.00,0.0048
3542.00,0.0048
3541.00,0.0049
3540.00,0.0049
3539.00,0.0050
3538.00,0.0050
3537.00,0.0051
3536.00,0.0051
3535.00,0.0051
3534.00,0.0052
3533.00,0.0052
3532.00,0.0053
3531.00,0.0053
3530.00,0.0053
3529.00,0.0054
3528.00,0.0054
3527.00,0.0054
3526.00,0.0055
3525.00,0.0055
3524.00,0.0055
3523.00,0.0055
3522.00,0.0056
3521.00,0.0056
3520.00,0.0056
3519.00,0.0056
3518.00,0.0057
3517.00,0.0057
3516.00,0.0057
3515.00,0.0058
3514.00,0.0058
3513.00,0.0059
3512.00,0.0059
3511.00,0.0060
3510.00,0.0060
3509.00,0.0061
3508.00,0.0061
3507.00,0.0061
3506.00,0.0062
3505.00,0.0062
3504.00,0.0063
3503.00,0.0063
3502.00,0.0063
3501.00,0.0063
3500.00,0.0064
3499.00,0.0064
3498.00,0.0064
3497.00,0.0065
3496.00,0.0065
3495.00,0.0065
3494.00,0.0066
3493.00,0.0066
3492.00,0.0066
3491.00,0.0067
3490.00,0.0067
3489.00,0.0068
3488.00,0.0068
3487.00,0.0069
3486.00,0.0069
3485.00,0.0070
3484.00,0.0070
3483.00,0.0070
3482.00,0.0070
3481.00,0.0071
3480.00,0.0071
3479.00,0.0072
3478.00,0.0072
3477.00,0.0073
3476.00,0.0073
3475.00,0.0073
3474.00,0.0074
3473.00,0.0074
3472.00,0.0074
3471.00,0.0075
3470.00,0.0075
3469.00,0.0075
3468.00,0.0076
3467.00,0.0076
3466.00,0.0076
3465.00,0.0077
3464.00,0.0077
3463.00,0.0078
3462.00,0.0078
3461.00,0.0078
3460.00,0.0079
3459.00,0.0079
3458.00,0.0079
3457.00,0.0079
3456.00,0.0080
3455.00,0.0080
3454.00,0.0080
3453.00,0.0081
3452.00,0.0081
3451.00,0.0082
3450.00,0.0082
3449.00,0.0083
3448.00,0.0083
3447.00,0.0083
3446.00,0.0083
3445.00,0.0084
3444.00,0.0084
3443.00,0.0084
3442.00,0.0085
3441.00,0.0085
3440.00,0.0086
3439.00,0.0086
3438.00,0.0086
3437.00,0.0087
3436.00,0.0087
3435.00,0.0088
3434.00,0.0088
3433.00,0.0088
3432.00,0.0089
3431.00,0.0089
3430.00,0.0089
3429.00,0.0090
3428.00,0.0090
3427.00,0.0091
3426.00,0.0091
3425.00,0.0091
3424.00,0.0092
3423.00,0.0092
3422.00,0.0092
3421.00,0.0093
3420.00,0.0093
3419.00,0.0093
3418.00,0.0094
3417.00,0.0094
3416.00,0.0095
3415.00,0.0095
3414.00,0.0096
3413.00,0.0096
3412.00,0.0096
3411.00,0.0096
3410.00,0.0097
3409.00,0.0097
3408.00,0.0097
3407.00,0.0098
3406.00,0.0098
3405.00,0.0099
3404.00,0.0099
3403.00,0.0099
3402.00,0.0100
3401.00,0.0100
3400.00,0.0101
3399.00,0.0101
3398.00,0.0101
3397.00,0.0101
3396.00,0.0102
3395.00,0.0102
3394.00,0.0102
3393.00,0.0103
3392.00,0.0103
3391.00,0.0103
3390.00,0.0104
3389.00,0.0104
3388.00,0.0104
3387.00,0.0105
3386.00,0.0105
3385.00,0.0105
3384.00,0.0106
3383.00,0.0106
3382.00,0.0106
3381.00,0.0107
3380.00,0.0108
3379.00,0.0108
3378.00,0.0109
3377.00,0.0109
3376.00,0.0109
3375.00,0.0110
3374.00,0.0110
3373.00,0.0111
3372.00,0.0111
3371.00,0.0112
3370.00,0.0112
3369.00,0.0113
3368.00,0.0113
3367.00,0.0114
3366.00,0.0114
3365.00,0.0115
3364.00,0.0115
3363.00,0.0116
3362.00,0.0116
3361.00,0.0117
3360.00,0.0117
3359.00,0.0118
3358.00,0.0118
3357.00,0.0119
3356.00,0.0119
3355.00,0.0120
3354.00,0.0121
3353.00,0.0121
3352.00,0.0122
3351.00,0.0123
3350.00,0.0123
3349.00,0.0124
3348.00,0.0125
3347.00,0.0125
3346.00,0.0126
3345.00,0.0127
3344.00,0.0127
3343.00,0.0128
3342.00,0.0129
3341.00,0.0129
3340.00,0.0130
3339.00,0.0131
3338.00,0.0132
3337.00,0.0133
3336.00,0.0133
3335.00,0.0134
3334.00,0.0135
3333.00,0.0136
3332.00,0.0136
3331.00,0.0137
3330.00,0.0138
3329.00,0.0139
3328.00,0.0141
3327.00,0.0141
3326.00,0.0142
3325.00,0.0143
3324.00,0.0144
3323.00,0.0145
3322.00,0.0146
3321.00,0.0147
3320.00,0.0148
3319.00,0.0149
3318.00,0.0151
3317.00,0.0152
3316.00,0.0153
3315.00,0.0154
3314.00,0.0155
3313.00,0.0156
3312.00,0.0157
3311.00,0.0159
3310.00,0.0160
3309.00,0.0162
3308.00,0.0163
3307.00,0.0164
3306.00,0.0166
3305.00,0.0167
3304.00,0.0168
3303.00,0.0169
3302.00,0.0171
3301.00,0.0172
3300.00,0.0173
3299.00,0.0175
3298.00,0.0176
3297.00,0.0177
3296.00,0.0179
3295.00,0.0180
3294.00,0.0181
3293.00,0.0183
3292.00,0.0184
3291.00,0.0185
3290.00,0.0186
3289.00,0.0187
3288.00,0.0188
3287.00,0.0189
3286.00,0.0190
3285.00,0.0191
3284.00,0.0192
3283.00,0.0193
3282.00,0.0194
3281.00,0.0195
3280.00,0.0196
3279.00,0.0197
3278.00,0.0197
3277.00,0.0198
3276.00,0.0198
3275.00,0.0198
3274.00,0.0199
3273.00,0.0199
3272.00,0.0199
3271.00,0.0199
3270.00,0.0199
3269.00,0.0198
3268.00,0.0198
3267.00,0.0197
3266.00,0.0196
3265.00,0.0196
3264.00,0.0195
3263.00,0.0194
3262.00,0.0193
3261.00,0.0192
3260.00,0.0191
3259.00,0.0190
3258.00,0.0189
3257.00,0.0188
3256.00,0.0187
3255.00,0.0185
3254.00,0.0184
3253.00,0.0183
3252.00,0.0181
3251.00,0.0180
3250.00,0.0179
3249.00,0.0178
3248.00,0.0177
3247.00,0.0176
3246.00,0.0174
3245.00,0.0173
3244.00,0.0172
3243.00,0.0171
3242.00,0.0169
3241.00,0.0168
3240.00,0.0167
3239.00,0.0166
3238.00,0.0165
3237.00,0.0164
3236.00,0.0163
3235.00,0.0162
3234.00,0.0161
3233.00,0.0160
3232.00,0.0159
3231.00,0.0158
3230.00,0.0158
3229.00,0.0157
3228.00,0.0156
3227.00,0.0155
3226.00,0.0154
3225.00,0.0153
3224.00,0.0152
3223.00,0.0152
3222.00,0.0151
3221.00,0.0150
3220.00,0.0149
3219.00,0.0149
3218.00,0.0148
3217.00,0.0148
3216.00,0.0147
3215.00,0.0146
3214.00,0.0146
3213.00,0.0145
3212.00,0.0144
3211.00,0.0144
3210.00,0.0143
3209.00,0.0142
3208.00,0.0141
3207.00,0.0141
3206.00,0.0140
3205.00,0.0139
3204.00,0.0139
3203.00,0.0138
3202.00,0.0138
3201.00,0.0137
3200.00,0.0136
3199.00,0.0136
3198.00,0.0135
3197.00,0.0134
3196.00,0.0134
3195.00,0.0133
3194.00,0.0132
3193.00,0.0132
3192.00,0.0131
3191.00,0.0131
3190.00,0.0130
3189.00,0.0129
3188.00,0.0129
3187.00,0.0128
3186.00,0.0127
3185.00,0.0127
3184.00,0.0126
3183.00,0.0126
3182.00,0.0125
3181.00,0.0124
3180.00,0.0124
3179.00,0.0123
3178.00,0.0122
3177.00,0.0122
3176.00,0.0121
3175.00,0.0120
3174.00,0.0120
3173.00,0.0119
3172.00,0.0118
3171.00,0.0118
3170.00,0.0117
3169.00,0.0116
3168.00,0.0116
3167.00,0.0115
3166.00,0.0115
3165.00,0.0114
3164.00,0.0113
3163.00,0.0113
3162.00,0.0112
3161.00,0.0112
3160.00,0.0111
3159.00,0.0111
3158.00,0.0110
3157.00,0.0109
3156.00,0.0109
3155.00,0.0108
3154.00,0.0108
3153.00,0.0108
3152.00,0.0107
3151.00,0.0107
3150.00,0.0106
3149.00,0.0106
3148.00,0.0105
3147.00,0.0105
3146.00,0.0104
3145.00,0.0104
3144.00,0.0103
3143.00,0.0103
3142.00,0.0103
3141.00,0.0102
3140.00,0.0102
3139.00,0.0101
3138.00,0.0101
3137.00,0.0100
3136.00,0.0100
3135.00,0.0100
3134.00,0.0100
3133.00,0.0099
3132.00,0.0099
3131.00,0.0099
3130.00,0.0099
3129.00,0.0098
3128.00,0.0098
3127.00,0.0098
3126.00,0.0098
3125.00,0.0097
3124.00,0.0097
3123.00,0.0097
3122.00,0.0097
3121.00,0.0097
3120.00,0.0096
3119.00,0.0096
3118.00,0.0096
3117.00,0.0096
3116.00,0.0096
3115.00,0.0096
3114.00,0.0096
3113.00,0.0096
3112.00,0.0096
3111.00,0.0096
3110.00,0.0096
3109.00,0.0096
3108.00,0.0096
3107.00,0.0096
3106.00,0.0096
3105.00,0.0097
3104.00,0.0097
3103.00,0.0097
3102.00,0.0097
3101.00,0.0097
3100.00,0.0097
3099.00,0.0097
3098.00,0.0097
3097.00,0.0097
3096.00,0.0097
3095.00,0.0097
3094.00,0.0098
3093.00,0.0098
3092.00,0.0098
3091.00,0.0098
3090.00,0.0098
3089.00,0.0099
3088.00,0.0099
3087.00,0.0099
3086.00,0.0099
3085.00,0.0099
3084.00,0.0099
3083.00,0.0099
3082.00,0.0099
3081.00,0.0099
3080.00,0.0099
3079.00,0.0099
3078.00,0.0099
3077.00,0.0099
3076.00,0.0099
3075.00,0.0099
3074.00,0.0099
3073.00,0.0098
3072.00,0.0098
3071.00,0.0098
3070.00,0.0098
3069.00,0.0098
3068.00,0.0098
3067.00,0.0097
3066.00,0.0097
3065.00,0.0097
3064.00,0.0096
3063.00,0.0096
3062.00,0.0096
3061.00,0.0095
3060.00,0.0095
3059.00,0.0094
3058.00,0.0094
3057.00,0.0093
3056.00,0.0093
3055.00,0.0092
3054.00,0.0092
3053.00,0.0092
3052.00,0.0091
3051.00,0.0090
3050.00,0.0090
3049.00,0.0089
3048.00,0.0089
3047.00,0.0088
3046.00,0.0088
3045.00,0.0087
3044.00,0.0087
3043.00,0.0086
3042.00,0.0086
3041.00,0.0085
3040.00,0.0085
3039.00,0.0084
3038.00,0.0084
3037.00,0.0083
3036.00,0.0083
3035.00,0.0082
3034.00,0.0082
3033.00,0.0082
3032.00,0.0081
3031.00,0.0081
3030.00,0.0080
3029.00,0.0080
3028.00,0.0080
3027.00,0.0079
3026.00,0.0079
3025.00,0.0078
3024.00,0.0078
3023.00,0.0077
3022.00,0.0077
3021.00,0.0077
3020.00,0.0076
3019.00,0.0076
3018.00,0.0075
3017.00,0.0075
3016.00,0.0074
3015.00,0.0074
3014.00,0.0074
3013.00,0.0073
3012.00,0.0073
3011.00,0.0073
3010.00,0.0073
3009.00,0.0073
3008.00,0.0073
3007.00,0.0073
3006.00,0.0072
3005.00,0.0072
3004.00,0.0072
3003.00,0.0072
3002.00,0.0072
3001.00,0.0072
3000.00,0.0072
2999.00,0.0072
2998.00,0.0073
2997.00,0.0073
2996.00,0.0073
2995.00,0.0073
2994.00,0.0074
2993.00,0.0074
2992.00,0.0075
2991.00,0.0075
2990.00,0.0076
2989.00,0.0077
2988.00,0.0077
2987.00,0.0078
2986.00,0.0079
2985.00,0.0080
2984.00,0.0080
2983.00,0.0081
2982.00,0.0082
2981.00,0.0083
2980.00,0.0084
2979.00,0.0085
2978.00,0.0087
2977.00,0.0088
2976.00,0.0089
2975.00,0.0089
2974.00,0.0090
2973.00,0.0091
2972.00,0.0092
2971.00,0.0093
2970.00,0.0094
2969.00,0.0095
2968.00,0.0096
2967.00,0.0096
2966.00,0.0097
2965.00,0.0097
2964.00,0.0098
2963.00,0.0098
2962.00,0.0098
2961.00,0.0098
2960.00,0.0098
2959.00,0.0098
2958.00,0.0097
2957.00,0.0097
2956.00,0.0096
2955.00,0.0096
2954.00,0.0095
2953.00,0.0094
2952.00,0.0093
2951.00,0.0093
2950.00,0.0092
2949.00,0.0092
2948.00,0.0092
2947.00,0.0091
2946.00,0.0092
2945.00,0.0092
2944.00,0.0092
2943.00,0.0092
2942.00,0.0093
2941.00,0.0094
2940.00,0.0095
2939.00,0.0095
2938.00,0.0096
2937.00,0.0097
2936.00,0.0097
2935.00,0.0098
2934.00,0.0098
2933.00,0.0098
2932.00,0.0098
2931.00,0.0099
2930.00,0.0099
2929.00,0.0099
2928.00,0.0098
2927.00,0.0098
2926.00,0.0098
2925.00,0.0098
2924.00,0.0097
2923.00,0.0097
2922.00,0.0096
2921.00,0.0096
2920.00,0.0095
2919.00,0.0094
2918.00,0.0093
2917.00,0.0092
2916.00,0.0091
2915.00,0.0090
2914.00,0.0089
2913.00,0.0087
2912.00,0.0086
2911.00,0.0085
2910.00,0.0084
2909.00,0.0083
2908.00,0.0082
2907.00,0.0082
2906.00,0.0081
2905.00,0.0080
2904.00,0.0079
2903.00,0.0079
2902.00,0.0078
2901.00,0.0077
2900.00,0.0077
2899.00,0.0076
2898.00,0.0076
2897.00,0.0075
2896.00,0.0075
2895.00,0.0074
2894.00,0.0074
2893.00,0.0074
2892.00,0.0074
2891.00,0.0073
2890.00,0.0073
2889.00,0.0073
2888.00,0.0073
2887.00,0.0073
2886.00,0.0073
2885.00,0.0074
2884.00,0.0074
2883.00,0.0074
2882.00,0.0075
2881.00,0.0075
2880.00,0.0075
2879.00,0.0076
2878.00,0.0076
2877.00,0.0076
2876.00,0.0076
2875.00,0.0076
2874.00,0.0076
2873.00,0.0076
2872.00,0.0076
2871.00,0.0075
2870.00,0.0075
2869.00,0.0074
2868.00,0.0073
2867.00,0.0072
2866.00,0.0071
2865.00,0.0070
2864.00,0.0070
2863.00,0.0069
2862.00,0.0068
2861.00,0.0068
2860.00,0.0067
2859.00,0.0067
2858.00,0.0067
2857.00,0.0066
2856.00,0.0066
2855.00,0.0066
2854.00,0.0066
2853.00,0.0066
2852.00,0.0066
2851.00,0.0065
2850.00,0.0064
2849.00,0.0064
2848.00,0.0063
2847.00,0.0062
2846.00,0.0061
2845.00,0.0059
2844.00,0.0058
2843.00,0.0057
2842.00,0.0057
2841.00,0.0056
2840.00,0.0055
2839.00,0.0055
2838.00,0.0054
2837.00,0.0054
2836.00,0.0054
2835.00,0.0053
2834.00,0.0053
2833.00,0.0053
2832.00,0.0053
2831.00,0.0052
2830.00,0.0052
2829.00,0.0052
2828.00,0.0052
2827.00,0.0052
2826.00,0.0051
2825.00,0.0051
2824.00,0.0051
2823.00,0.0051
2822.00,0.0051
2821.00,0.0051
2820.00,0.0050
2819.00,0.0050
2818.00,0.0050
2817.00,0.0050
2816.00,0.0050
2815.00,0.0050
2814.00,0.0050
2813.00,0.0049
2812.00,0.0049
2811.00,0.0049
2810.00,0.0049
2809.00,0.0049
2808.00,0.0049
2807.00,0.0049
2806.00,0.0049
2805.00,0.0049
2804.00,0.0049
2803.00,0.0048
2802.00,0.0048
2801.00,0.0048
2800.00,0.0048
2799.00,0.0048
2798.00,0.0047
2797.00,0.0047
2796.00,0.0047
2795.00,0.0047
2794.00,0.0047
2793.00,0.0047
2792.00,0.0046
2791.00,0.0046
2790.00,0.0046
2789.00,0.0046
2788.00,0.0046
2787.00,0.0046
2786.00,0.0046
2785.00,0.0045
2784.00,0.0045
2783.00,0.0045
2782.00,0.0045
2781.00,0.0044
2780.00,0.0044
2779.00,0.0044
2778.00,0.0044
2777.00,0.0044
2776.00,0.0043
2775.00,0.0043
2774.00,0.0043
2773.00,0.0043
2772.00,0.0042
2771.00,0.0042
2770.00,0.0042
2769.00,0.0042
2768.00,0.0042
2767.00,0.0041
2766.00,0.0041
2765.00,0.0041
2764.00,0.0041
2763.00,0.0040
2762.00,0.0040
2761.00,0.0040
2760.00,0.0040
2759.00,0.0040
2758.00,0.0039
2757.00,0.0039
