Created as New Dataset,Sample 276 By YargerLab Date Wednesday, July 24 2024
cm-1,A
4000.00,0.0043
3999.00,0.0043
3998.00,0.0043
3997.00,0.0043
3996.00,0.0043
3995.00,0.0043
3994.00,0.0043
3993.00,0.0043
3992.00,0.0043
3991.00,0.0043
3990.00,0.0043
3989.00,0.0043
3988.00,0.0043
3987.00,0.0043
3986.00,0.0043
3985.00,0.0043
3984.00,0.0043
3983.00,0.0043
3982.00,0.0043
3981.00,0.0043
3980.00,0.0043
3979.00,0.0043
3978.00,0.0043
3977.00,0.0043
3976.00,0.0043
3975.00,0.0043
3974.00,0.0043
3973.00,0.0043
3972.00,0.0043
3971.00,0.0043
3970.00,0.0043
3969.00,0.0043
3968.00,0.0043
3967.00,0.0043
3966.00,0.0043
3965.00,0.0043
3964.00,0.0043
3963.00,0.0043
3962.00,0.0043
3961.00,0.0043
3960.00,0.0043
3959.00,0.0043
3958.00,0.0043
3957.00,0.0043
3956.00,0.0043
3955.00,0.0043
3954.00,0.0043
3953.00,0.0043
3952.00,0.0043
3951.00,0.0043
3950.00,0.0043
3949.00,0.0043
3948.00,0.0043
3947.00,0.0043
3946.00,0.0043
3945.00,0.0043
3944.00,0.0043
3943.00,0.0043
3942.00,0.0043
3941.00,0.0043
3940.00,0.0043
3939.00,0.0043
3938.00,0.0043
3937.00,0.0043
3936.00,0.0043
3935.00,0.0043
3934.00,0.0043
3933.00,0.0043
3932.00,0.0043
3931.00,0.0043
3930.00,0.0043
3929.00,0.0043
3928.00,0.0043
3927.00,0.0043
3926.00,0.0043
3925.00,0.0043
3924.00,0.0043
3923.00,0.0043
3922.00,0.0043
3921.00,0.0043
3920.00,0.0043
3919.00,0.0043
3918.00,0.0043
3917.00,0.0043
3916.00,0.0043
3915.00,0.0043
3914.00,0.0043
3913.00,0.0042
3912.00,0.0042
3911.00,0.0042
3910.00,0.0042
3909.00,0.0042
3908.00,0.0042
3907.00,0.0042
3906.00,0.0042
3905.00,0.0042
3904.00,0.0043
3903.00,0.0043
3902.00,0.0043
3901.00,0.0043
3900.00,0.0042
3899.00,0.0042
3898.00,0.0042
3897.00,0.0042
3896.00,0.0042
3895.00,0.0042
3894.00,0.0042
3893.00,0.0042
3892.00,0.0042
3891.00,0.0042
3890.00,0.0042
3889.00,0.0042
3888.00,0.0042
3887.00,0.0042
3886.00,0.0042
3885.00,0.0042
3884.00,0.0042
3883.00,0.0042
3882.00,0.0042
3881.00,0.0042
3880.00,0.0042
3879.00,0.0042
3878.00,0.0042
3877.00,0.0042
3876.00,0.0042
3875.00,0.0042
3874.00,0.0042
3873.00,0.0042
3872.00,0.0042
3871.00,0.0042
3870.00,0.0042
3869.00,0.0042
3868.00,0.0042
3867.00,0.0042
3866.00,0.0042
3865.00,0.0042
3864.00,0.0042
3863.00,0.0042
3862.00,0.0042
3861.00,0.0042
3860.00,0.0042
3859.00,0.0042
3858.00,0.0042
3857.00,0.0041
3856.00,0.0041
3855.00,0.0041
3854.00,0.0041
3853.00,0.0041
3852.00,0.0041
3851.00,0.0041
3850.00,0.0041
3849.00,0.0041
3848.00,0.0041
3847.00,0.0041
3846.00,0.0041
3845.00,0.0041
3844.00,0.0041
3843.00,0.0041
3842.00,0.0041
3841.00,0.0041
3840.00,0.0041
3839.00,0.0041
3838.00,0.0041
3837.00,0.0041
3836.00,0.0041
3835.00,0.0041
3834.00,0.0041
3833.00,0.0041
3832.00,0.0041
3831.00,0.0041
3830.00,0.0041
3829.00,0.0041
3828.00,0.0041
3827.00,0.0041
3826.00,0.0041
3825.00,0.0041
3824.00,0.0041
3823.00,0.0041
3822.00,0.0041
3821.00,0.0041
3820.00,0.0041
3819.00,0.0041
3818.00,0.0041
3817.00,0.0041
3816.00,0.0041
3815.00,0.0040
3814.00,0.0040
3813.00,0.0040
3812.00,0.0040
3811.00,0.0041
3810.00,0.0041
3809.00,0.0041
3808.00,0.0041
3807.00,0.0040
3806.00,0.0040
3805.00,0.0040
3804.00,0.0040
3803.00,0.0040
3802.00,0.0040
3801.00,0.0040
3800.00,0.0040
3799.00,0.0040
3798.00,0.0040
3797.00,0.0040
3796.00,0.0040
3795.00,0.0040
3794.00,0.0040
3793.00,0.0040
3792.00,0.0040
3791.00,0.0040
3790.00,0.0040
3789.00,0.0040
3788.00,0.0040
3787.00,0.0040
3786.00,0.0040
3785.00,0.0040
3784.00,0.0040
3783.00,0.0040
3782.00,0.0041
3781.00,0.0040
3780.00,0.0040
3779.00,0.0040
3778.00,0.0040
3777.00,0.0040
3776.00,0.0040
3775.00,0.0040
3774.00,0.0040
3773.00,0.0040
3772.00,0.0040
3771.00,0.0040
3770.00,0.0040
3769.00,0.0040
3768.00,0.0040
3767.00,0.0040
3766.00,0.0040
3765.00,0.0040
3764.00,0.0041
3763.00,0.0041
3762.00,0.0040
3761.00,0.0040
3760.00,0.0040
3759.00,0.0040
3758.00,0.0040
3757.00,0.0040
3756.00,0.0040
3755.00,0.0041
3754.00,0.0041
3753.00,0.0041
3752.00,0.0041
3751.00,0.0041
3750.00,0.0041
3749.00,0.0041
3748.00,0.0041
3747.00,0.0041
3746.00,0.0041
3745.00,0.0041
3744.00,0.0041
3743.00,0.0040
3742.00,0.0040
3741.00,0.0041
3740.00,0.0041
3739.00,0.0041
3738.00,0.0041
3737.00,0.0041
3736.00,0.0041
3735.00,0.0041
3734.00,0.0041
3733.00,0.0041
3732.00,0.0041
3731.00,0.0041
3730.00,0.0040
3729.00,0.0040
3728.00,0.0040
3727.00,0.0040
3726.00,0.0040
3725.00,0.0040
3724.00,0.0040
3723.00,0.0040
3722.00,0.0040
3721.00,0.0040
3720.00,0.0040
3719.00,0.0040
3718.00,0.0040
3717.00,0.0040
3716.00,0.0040
3715.00,0.0040
3714.00,0.0040
3713.00,0.0040
3712.00,0.0040
3711.00,0.0040
3710.00,0.0040
3709.00,0.0040
3708.00,0.0040
3707.00,0.0040
3706.00,0.0040
3705.00,0.0040
3704.00,0.0040
3703.00,0.0040
3702.00,0.0040
3701.00,0.0040
3700.00,0.0039
3699.00,0.0039
3698.00,0.0039
3697.00,0.0039
3696.00,0.0039
3695.00,0.0039
3694.00,0.0039
3693.00,0.0039
3692.00,0.0039
3691.00,0.0039
3690.00,0.0039
3689.00,0.0039
3688.00,0.0039
3687.00,0.0039
3686.00,0.0038
3685.00,0.0038
3684.00,0.0038
3683.00,0.0038
3682.00,0.0038
3681.00,0.0038
3680.00,0.0038
3679.00,0.0037
3678.00,0.0037
3677.00,0.0037
3676.00,0.0036
3675.00,0.0036
3674.00,0.0036
3673.00,0.0035
3672.00,0.0035
3671.00,0.0035
3670.00,0.0035
3669.00,0.0036
3668.00,0.0036
3667.00,0.0036
3666.00,0.0036
3665.00,0.0036
3664.00,0.0036
3663.00,0.0036
3662.00,0.0036
3661.00,0.0036
3660.00,0.0037
3659.00,0.0037
3658.00,0.0037
3657.00,0.0037
3656.00,0.0038
3655.00,0.0038
3654.00,0.0039
3653.00,0.0039
3652.00,0.0040
3651.00,0.0040
3650.00,0.0041
3649.00,0.0041
3648.00,0.0042
3647.00,0.0043
3646.00,0.0043
3645.00,0.0044
3644.00,0.0044
3643.00,0.0045
3642.00,0.0046
3641.00,0.0046
3640.00,0.0047
3639.00,0.0047
3638.00,0.0047
3637.00,0.0048
3636.00,0.0049
3635.00,0.0050
3634.00,0.0051
3633.00,0.0053
3632.00,0.0054
3631.00,0.0054
3630.00,0.0055
3629.00,0.0056
3628.00,0.0056
3627.00,0.0057
3626.00,0.0057
3625.00,0.0058
3624.00,0.0059
3623.00,0.0059
3622.00,0.0060
3621.00,0.0061
3620.00,0.0061
3619.00,0.0062
3618.00,0.0062
3617.00,0.0063
3616.00,0.0064
3615.00,0.0064
3614.00,0.0065
3613.00,0.0065
3612.00,0.0066
3611.00,0.0067
3610.00,0.0067
3609.00,0.0068
3608.00,0.0068
3607.00,0.0068
3606.00,0.0069
3605.00,0.0070
3604.00,0.0070
3603.00,0.0071
3602.00,0.0071
3601.00,0.0072
3600.00,0.0073
3599.00,0.0073
3598.00,0.0074
3597.00,0.0074
3596.00,0.0075
3595.00,0.0075
3594.00,0.0076
3593.00,0.0077
3592.00,0.0077
3591.00,0.0078
3590.00,0.0079
3589.00,0.0079
3588.00,0.0080
3587.00,0.0080
3586.00,0.0081
3585.00,0.0081
3584.00,0.0082
3583.00,0.0082
3582.00,0.0083
3581.00,0.0083
3580.00,0.0084
3579.00,0.0085
3578.00,0.0085
3577.00,0.0086
3576.00,0.0087
3575.00,0.0088
3574.00,0.0088
3573.00,0.0089
3572.00,0.0090
3571.00,0.0091
3570.00,0.0092
3569.00,0.0092
3568.00,0.0093
3567.00,0.0094
3566.00,0.0094
3565.00,0.0095
3564.00,0.0095
3563.00,0.0096
3562.00,0.0097
3561.00,0.0097
3560.00,0.0098
3559.00,0.0099
3558.00,0.0099
3557.00,0.0100
3556.00,0.0100
3555.00,0.0101
3554.00,0.0102
3553.00,0.0103
3552.00,0.0103
3551.00,0.0104
3550.00,0.0105
3549.00,0.0106
3548.00,0.0107
3547.00,0.0108
3546.00,0.0108
3545.00,0.0109
3544.00,0.0109
3543.00,0.0110
3542.00,0.0110
3541.00,0.0111
3540.00,0.0112
3539.00,0.0113
3538.00,0.0113
3537.00,0.0114
3536.00,0.0115
3535.00,0.0115
3534.00,0.0116
3533.00,0.0116
3532.00,0.0117
3531.00,0.0118
3530.00,0.0119
3529.00,0.0119
3528.00,0.0120
3527.00,0.0121
3526.00,0.0122
3525.00,0.0123
3524.00,0.0123
3523.00,0.0124
3522.00,0.0124
3521.00,0.0125
3520.00,0.0126
3519.00,0.0126
3518.00,0.0127
3517.00,0.0128
3516.00,0.0128
3515.00,0.0129
3514.00,0.0130
3513.00,0.0131
3512.00,0.0132
3511.00,0.0132
3510.00,0.0133
3509.00,0.0134
3508.00,0.0134
3507.00,0.0135
3506.00,0.0136
3505.00,0.0137
3504.00,0.0138
3503.00,0.0138
3502.00,0.0139
3501.00,0.0140
3500.00,0.0140
3499.00,0.0141
3498.00,0.0142
3497.00,0.0143
3496.00,0.0143
3495.00,0.0144
3494.00,0.0145
3493.00,0.0146
3492.00,0.0146
3491.00,0.0147
3490.00,0.0148
3489.00,0.0149
3488.00,0.0150
3487.00,0.0150
3486.00,0.0151
3485.00,0.0152
3484.00,0.0153
3483.00,0.0154
3482.00,0.0154
3481.00,0.0155
3480.00,0.0156
3479.00,0.0156
3478.00,0.0157
3477.00,0.0158
3476.00,0.0159
3475.00,0.0159
3474.00,0.0160
3473.00,0.0161
3472.00,0.0162
3471.00,0.0163
3470.00,0.0164
3469.00,0.0165
3468.00,0.0166
3467.00,0.0167
3466.00,0.0168
3465.00,0.0168
3464.00,0.0169
3463.00,0.0170
3462.00,0.0171
3461.00,0.0172
3460.00,0.0172
3459.00,0.0173
3458.00,0.0174
3457.00,0.0174
3456.00,0.0175
3455.00,0.0176
3454.00,0.0177
3453.00,0.0177
3452.00,0.0178
3451.00,0.0179
3450.00,0.0180
3449.00,0.0181
3448.00,0.0182
3447.00,0.0182
3446.00,0.0183
3445.00,0.0184
3444.00,0.0185
3443.00,0.0186
3442.00,0.0186
3441.00,0.0187
3440.00,0.0188
3439.00,0.0189
3438.00,0.0190
3437.00,0.0190
3436.00,0.0191
3435.00,0.0192
3434.00,0.0193
3433.00,0.0194
3432.00,0.0195
3431.00,0.0195
3430.00,0.0196
3429.00,0.0197
3428.00,0.0198
3427.00,0.0199
3426.00,0.0200
3425.00,0.0200
3424.00,0.0201
3423.00,0.0202
3422.00,0.0203
3421.00,0.0203
3420.00,0.0204
3419.00,0.0205
3418.00,0.0206
3417.00,0.0207
3416.00,0.0208
3415.00,0.0208
3414.00,0.0209
3413.00,0.0210
3412.00,0.0211
3411.00,0.0212
3410.00,0.0212
3409.00,0.0213
3408.00,0.0214
3407.00,0.0215
3406.00,0.0215
3405.00,0.0216
3404.00,0.0217
3403.00,0.0218
3402.00,0.0219
3401.00,0.0219
3400.00,0.0220
3399.00,0.0221
3398.00,0.0222
3397.00,0.0223
3396.00,0.0223
3395.00,0.0224
3394.00,0.0225
3393.00,0.0226
3392.00,0.0226
3391.00,0.0227
3390.00,0.0228
3389.00,0.0228
3388.00,0.0229
3387.00,0.0230
3386.00,0.0231
3385.00,0.0232
3384.00,0.0233
3383.00,0.0233
3382.00,0.0234
3381.00,0.0235
3380.00,0.0236
3379.00,0.0237
3378.00,0.0238
3377.00,0.0239
3376.00,0.0240
3375.00,0.0241
3374.00,0.0242
3373.00,0.0243
3372.00,0.0244
3371.00,0.0245
3370.00,0.0246
3369.00,0.0247
3368.00,0.0248
3367.00,0.0250
3366.00,0.0251
3365.00,0.0252
3364.00,0.0253
3363.00,0.0254
3362.00,0.0256
3361.00,0.0257
3360.00,0.0258
3359.00,0.0260
3358.00,0.0261
3357.00,0.0262
3356.00,0.0263
3355.00,0.0265
3354.00,0.0266
3353.00,0.0267
3352.00,0.0269
3351.00,0.0270
3350.00,0.0272
3349.00,0.0273
3348.00,0.0275
3347.00,0.0276
3346.00,0.0278
3345.00,0.0279
3344.00,0.0280
3343.00,0.0282
3342.00,0.0283
3341.00,0.0285
3340.00,0.0286
3339.00,0.0288
3338.00,0.0290
3337.00,0.0292
3336.00,0.0293
3335.00,0.0295
3334.00,0.0297
3333.00,0.0299
3332.00,0.0300
3331.00,0.0302
3330.00,0.0304
3329.00,0.0306
3328.00,0.0308
3327.00,0.0309
3326.00,0.0311
3325.00,0.0313
3324.00,0.0315
3323.00,0.0318
3322.00,0.0320
3321.00,0.0322
3320.00,0.0324
3319.00,0.0326
3318.00,0.0328
3317.00,0.0330
3316.00,0.0332
3315.00,0.0335
3314.00,0.0337
3313.00,0.0339
3312.00,0.0341
3311.00,0.0343
3310.00,0.0345
3309.00,0.0347
3308.00,0.0349
3307.00,0.0351
3306.00,0.0354
3305.00,0.0356
3304.00,0.0359
3303.00,0.0362
3302.00,0.0365
3301.00,0.0367
3300.00,0.0369
3299.00,0.0372
3298.00,0.0374
3297.00,0.0376
3296.00,0.0378
3295.00,0.0380
3294.00,0.0382
3293.00,0.0385
3292.00,0.0387
3291.00,0.0389
3290.00,0.0391
3289.00,0.0393
3288.00,0.0395
3287.00,0.0397
3286.00,0.0399
3285.00,0.0400
3284.00,0.0402
3283.00,0.0403
3282.00,0.0404
3281.00,0.0405
3280.00,0.0406
3279.00,0.0407
3278.00,0.0407
3277.00,0.0407
3276.00,0.0407
3275.00,0.0407
3274.00,0.0407
3273.00,0.0407
3272.00,0.0406
3271.00,0.0406
3270.00,0.0405
3269.00,0.0404
3268.00,0.0403
3267.00,0.0402
3266.00,0.0401
3265.00,0.0400
3264.00,0.0398
3263.00,0.0396
3262.00,0.0395
3261.00,0.0393
3260.00,0.0391
3259.00,0.0389
3258.00,0.0387
3257.00,0.0384
3256.00,0.0382
3255.00,0.0380
3254.00,0.0379
3253.00,0.0377
3252.00,0.0375
3251.00,0.0373
3250.00,0.0370
3249.00,0.0368
3248.00,0.0366
3247.00,0.0364
3246.00,0.0362
3245.00,0.0361
3244.00,0.0359
3243.00,0.0357
3242.00,0.0356
3241.00,0.0354
3240.00,0.0352
3239.00,0.0350
3238.00,0.0349
3237.00,0.0347
3236.00,0.0345
3235.00,0.0343
3234.00,0.0342
3233.00,0.0340
3232.00,0.0339
3231.00,0.0338
3230.00,0.0338
3229.00,0.0336
3228.00,0.0335
3227.00,0.0334
3226.00,0.0333
3225.00,0.0332
3224.00,0.0330
3223.00,0.0329
3222.00,0.0328
3221.00,0.0327
3220.00,0.0326
3219.00,0.0325
3218.00,0.0324
3217.00,0.0323
3216.00,0.0322
3215.00,0.0321
3214.00,0.0320
3213.00,0.0319
3212.00,0.0318
3211.00,0.0317
3210.00,0.0316
3209.00,0.0315
3208.00,0.0314
3207.00,0.0313
3206.00,0.0312
3205.00,0.0311
3204.00,0.0310
3203.00,0.0309
3202.00,0.0308
3201.00,0.0307
3200.00,0.0306
3199.00,0.0305
3198.00,0.0304
3197.00,0.0303
3196.00,0.0302
3195.00,0.0301
3194.00,0.0300
3193.00,0.0298
3192.00,0.0297
3191.00,0.0296
3190.00,0.0295
3189.00,0.0293
3188.00,0.0292
3187.00,0.0291
3186.00,0.0290
3185.00,0.0289
3184.00,0.0288
3183.00,0.0286
3182.00,0.0285
3181.00,0.0284
3180.00,0.0282
3179.00,0.0281
3178.00,0.0280
3177.00,0.0278
3176.00,0.0277
3175.00,0.0276
3174.00,0.0275
3173.00,0.0273
3172.00,0.0272
3171.00,0.0271
3170.00,0.0270
3169.00,0.0268
3168.00,0.0267
3167.00,0.0266
3166.00,0.0265
3165.00,0.0263
3164.00,0.0262
3163.00,0.0261
3162.00,0.0260
3161.00,0.0258
3160.00,0.0257
3159.00,0.0256
3158.00,0.0254
3157.00,0.0253
3156.00,0.0252
3155.00,0.0250
3154.00,0.0249
3153.00,0.0248
3152.00,0.0247
3151.00,0.0246
3150.00,0.0245
3149.00,0.0244
3148.00,0.0243
3147.00,0.0242
3146.00,0.0241
3145.00,0.0240
3144.00,0.0239
3143.00,0.0238
3142.00,0.0237
3141.00,0.0236
3140.00,0.0235
3139.00,0.0234
3138.00,0.0233
3137.00,0.0232
3136.00,0.0232
3135.00,0.0231
3134.00,0.0230
3133.00,0.0230
3132.00,0.0229
3131.00,0.0228
3130.00,0.0227
3129.00,0.0227
3128.00,0.0226
3127.00,0.0226
3126.00,0.0225
3125.00,0.0225
3124.00,0.0224
3123.00,0.0223
3122.00,0.0222
3121.00,0.0222
3120.00,0.0221
3119.00,0.0221
3118.00,0.0221
3117.00,0.0220
3116.00,0.0220
3115.00,0.0220
3114.00,0.0220
3113.00,0.0220
3112.00,0.0220
3111.00,0.0220
3110.00,0.0220
3109.00,0.0220
3108.00,0.0220
3107.00,0.0220
3106.00,0.0220
3105.00,0.0220
3104.00,0.0220
3103.00,0.0220
3102.00,0.0220
3101.00,0.0220
3100.00,0.0221
3099.00,0.0221
3098.00,0.0221
3097.00,0.0222
3096.00,0.0222
3095.00,0.0222
3094.00,0.0222
3093.00,0.0223
3092.00,0.0223
3091.00,0.0223
3090.00,0.0223
3089.00,0.0224
3088.00,0.0224
3087.00,0.0224
3086.00,0.0224
3085.00,0.0225
3084.00,0.0225
3083.00,0.0225
3082.00,0.0225
3081.00,0.0226
3080.00,0.0226
3079.00,0.0226
3078.00,0.0227
3077.00,0.0227
3076.00,0.0228
3075.00,0.0228
3074.00,0.0228
3073.00,0.0229
3072.00,0.0229
3071.00,0.0229
3070.00,0.0228
3069.00,0.0228
3068.00,0.0227
3067.00,0.0227
3066.00,0.0227
3065.00,0.0227
3064.00,0.0227
3063.00,0.0226
3062.00,0.0226
3061.00,0.0226
3060.00,0.0226
3059.00,0.0225
3058.00,0.0224
3057.00,0.0224
3056.00,0.0223
3055.00,0.0222
3054.00,0.0221
3053.00,0.0220
3052.00,0.0219
3051.00,0.0218
3050.00,0.0217
3049.00,0.0217
3048.00,0.0216
3047.00,0.0215
3046.00,0.0214
3045.00,0.0213
3044.00,0.0212
3043.00,0.0211
3042.00,0.0210
3041.00,0.0210
3040.00,0.0209
3039.00,0.0209
3038.00,0.0208
3037.00,0.0207
3036.00,0.0206
3035.00,0.0205
3034.00,0.0204
3033.00,0.0203
3032.00,0.0203
3031.00,0.0202
3030.00,0.0201
3029.00,0.0201
3028.00,0.0200
3027.00,0.0198
3026.00,0.0197
3025.00,0.0196
3024.00,0.0195
3023.00,0.0194
3022.00,0.0193
3021.00,0.0191
3020.00,0.0190
3019.00,0.0188
3018.00,0.0187
3017.00,0.0185
3016.00,0.0183
3015.00,0.0182
3014.00,0.0180
3013.00,0.0178
3012.00,0.0177
3011.00,0.0175
3010.00,0.0173
3009.00,0.0171
3008.00,0.0169
3007.00,0.0167
3006.00,0.0164
3005.00,0.0161
3004.00,0.0159
3003.00,0.0156
3002.00,0.0153
3001.00,0.0151
3000.00,0.0149
2999.00,0.0146
2998.00,0.0145
2997.00,0.0144
2996.00,0.0143
2995.00,0.0142
2994.00,0.0141
2993.00,0.0141
2992.00,0.0141
2991.00,0.0141
2990.00,0.0141
2989.00,0.0141
2988.00,0.0141
2987.00,0.0140
2986.00,0.0138
2985.00,0.0133
2984.00,0.0127
2983.00,0.0121
2982.00,0.0117
2981.00,0.0117
2980.00,0.0120
2979.00,0.0126
2978.00,0.0132
2977.00,0.0137
2976.00,0.0142
2975.00,0.0145
2974.00,0.0146
2973.00,0.0147
2972.00,0.0149
2971.00,0.0151
2970.00,0.0155
2969.00,0.0160
2968.00,0.0165
2967.00,0.0170
2966.00,0.0173
2965.00,0.0177
2964.00,0.0180
2963.00,0.0183
2962.00,0.0185
2961.00,0.0187
2960.00,0.0189
2959.00,0.0191
2958.00,0.0192
2957.00,0.0193
2956.00,0.0194
2955.00,0.0195
2954.00,0.0196
2953.00,0.0197
2952.00,0.0198
2951.00,0.0199
2950.00,0.0200
2949.00,0.0201
2948.00,0.0202
2947.00,0.0204
2946.00,0.0206
2945.00,0.0208
2944.00,0.0211
2943.00,0.0213
2942.00,0.0216
2941.00,0.0218
2940.00,0.0220
2939.00,0.0223
2938.00,0.0225
2937.00,0.0228
2936.00,0.0230
2935.00,0.0232
2934.00,0.0234
2933.00,0.0235
2932.00,0.0237
2931.00,0.0238
2930.00,0.0239
2929.00,0.0240
2928.00,0.0241
2927.00,0.0242
2926.00,0.0242
2925.00,0.0242
2924.00,0.0242
2923.00,0.0242
2922.00,0.0242
2921.00,0.0241
2920.00,0.0239
2919.00,0.0237
2918.00,0.0235
2917.00,0.0232
2916.00,0.0228
2915.00,0.0224
2914.00,0.0220
2913.00,0.0216
2912.00,0.0212
2911.00,0.0209
2910.00,0.0205
2909.00,0.0202
2908.00,0.0200
2907.00,0.0197
2906.00,0.0195
2905.00,0.0193
2904.00,0.0191
2903.00,0.0190
2902.00,0.0188
2901.00,0.0187
2900.00,0.0185
2899.00,0.0184
2898.00,0.0182
2897.00,0.0181
2896.00,0.0179
2895.00,0.0178
2894.00,0.0177
2893.00,0.0175
2892.00,0.0174
2891.00,0.0173
2890.00,0.0172
2889.00,0.0171
2888.00,0.0171
2887.00,0.0171
2886.00,0.0171
2885.00,0.0171
2884.00,0.0171
2883.00,0.0172
2882.00,0.0174
2881.00,0.0175
2880.00,0.0177
2879.00,0.0179
2878.00,0.0181
2877.00,0.0182
2876.00,0.0183
2875.00,0.0183
2874.00,0.0184
2873.00,0.0184
2872.00,0.0184
2871.00,0.0184
2870.00,0.0184
2869.00,0.0183
2868.00,0.0183
2867.00,0.0182
2866.00,0.0181
2865.00,0.0181
2864.00,0.0181
2863.00,0.0181
2862.00,0.0181
2861.00,0.0182
2860.00,0.0183
2859.00,0.0184
2858.00,0.0185
2857.00,0.0186
2856.00,0.0187
2855.00,0.0188
2854.00,0.0189
2853.00,0.0190
2852.00,0.0190
2851.00,0.0190
2850.00,0.0189
2849.00,0.0187
2848.00,0.0185
2847.00,0.0181
2846.00,0.0178
2845.00,0.0175
2844.00,0.0171
2843.00,0.0169
2842.00,0.0166
2841.00,0.0164
2840.00,0.0162
2839.00,0.0161
2838.00,0.0159
2837.00,0.0158
2836.00,0.0157
2835.00,0.0156
2834.00,0.0155
2833.00,0.0155
2832.00,0.0154
2831.00,0.0153
2830.00,0.0153
2829.00,0.0152
2828.00,0.0152
2827.00,0.0151
2826.00,0.0151
2825.00,0.0150
2824.00,0.0149
2823.00,0.0149
2822.00,0.0148
2821.00,0.0148
2820.00,0.0148
2819.00,0.0147
2818.00,0.0147
2817.00,0.0146
2816.00,0.0146
2815.00,0.0146
2814.00,0.0145
2813.00,0.0145
2812.00,0.0145
2811.00,0.0144
2810.00,0.0144
2809.00,0.0143
2808.00,0.0143
2807.00,0.0143
2806.00,0.0143
2805.00,0.0142
2804.00,0.0142
2803.00,0.0142
2802.00,0.0141
2801.00,0.0141
2800.00,0.0140
2799.00,0.0140
2798.00,0.0139
2797.00,0.0139
2796.00,0.0139
2795.00,0.0138
2794.00,0.0138
2793.00,0.0138
2792.00,0.0137
2791.00,0.0137
2790.00,0.0137
2789.00,0.0137
2788.00,0.0136
2787.00,0.0136
2786.00,0.0136
2785.00,0.0136
2784.00,0.0135
2783.00,0.0135
2782.00,0.0135
2781.00,0.0134
2780.00,0.0134
2779.00,0.0134
2778.00,0.0133
2777.00,0.0133
2776.00,0.0133
2775.00,0.0133
2774.00,0.0132
2773.00,0.0132
2772.00,0.0132
2771.00,0.0132
2770.00,0.0131
2769.00,0.0131
2768.00,0.0131
2767.00,0.0131
2766.00,0.0131
2765.00,0.0130
2764.00,0.0130
2763.00,0.0130
2762.00,0.0129
2761.00,0.0129
2760.00,0.0129
2759.00,0.0129
2758.00,0.0128
2757.00,0.0128
