Created as New Dataset,Sample 288 By YargerLab Date Saturday, July 27 2024
cm-1,A
4000.00,-0.0005
3999.00,-0.0005
3998.00,-0.0005
3997.00,-0.0005
3996.00,-0.0005
3995.00,-0.0005
3994.00,-0.0005
3993.00,-0.0005
3992.00,-0.0005
3991.00,-0.0005
3990.00,-0.0005
3989.00,-0.0005
3988.00,-0.0005
3987.00,-0.0005
3986.00,-0.0005
3985.00,-0.0005
3984.00,-0.0005
3983.00,-0.0005
3982.00,-0.0005
3981.00,-0.0005
3980.00,-0.0005
3979.00,-0.0005
3978.00,-0.0005
3977.00,-0.0006
3976.00,-0.0006
3975.00,-0.0006
3974.00,-0.0006
3973.00,-0.0005
3972.00,-0.0005
3971.00,-0.0005
3970.00,-0.0005
3969.00,-0.0005
3968.00,-0.0005
3967.00,-0.0005
3966.00,-0.0005
3965.00,-0.0005
3964.00,-0.0005
3963.00,-0.0005
3962.00,-0.0005
3961.00,-0.0006
3960.00,-0.0006
3959.00,-0.0006
3958.00,-0.0006
3957.00,-0.0006
3956.00,-0.0006
3955.00,-0.0006
3954.00,-0.0006
3953.00,-0.0006
3952.00,-0.0006
3951.00,-0.0006
3950.00,-0.0006
3949.00,-0.0006
3948.00,-0.0006
3947.00,-0.0006
3946.00,-0.0006
3945.00,-0.0006
3944.00,-0.0006
3943.00,-0.0006
3942.00,-0.0006
3941.00,-0.0006
3940.00,-0.0006
3939.00,-0.0006
3938.00,-0.0006
3937.00,-0.0006
3936.00,-0.0006
3935.00,-0.0006
3934.00,-0.0006
3933.00,-0.0006
3932.00,-0.0005
3931.00,-0.0005
3930.00,-0.0006
3929.00,-0.0006
3928.00,-0.0006
3927.00,-0.0006
3926.00,-0.0006
3925.00,-0.0006
3924.00,-0.0006
3923.00,-0.0006
3922.00,-0.0006
3921.00,-0.0006
3920.00,-0.0006
3919.00,-0.0006
3918.00,-0.0006
3917.00,-0.0006
3916.00,-0.0006
3915.00,-0.0006
3914.00,-0.0006
3913.00,-0.0006
3912.00,-0.0006
3911.00,-0.0006
3910.00,-0.0006
3909.00,-0.0006
3908.00,-0.0006
3907.00,-0.0006
3906.00,-0.0006
3905.00,-0.0006
3904.00,-0.0006
3903.00,-0.0006
3902.00,-0.0006
3901.00,-0.0007
3900.00,-0.0007
3899.00,-0.0006
3898.00,-0.0006
3897.00,-0.0006
3896.00,-0.0006
3895.00,-0.0006
3894.00,-0.0006
3893.00,-0.0007
3892.00,-0.0007
3891.00,-0.0006
3890.00,-0.0006
3889.00,-0.0006
3888.00,-0.0007
3887.00,-0.0007
3886.00,-0.0006
3885.00,-0.0006
3884.00,-0.0007
3883.00,-0.0007
3882.00,-0.0007
3881.00,-0.0007
3880.00,-0.0006
3879.00,-0.0006
3878.00,-0.0006
3877.00,-0.0006
3876.00,-0.0006
3875.00,-0.0006
3874.00,-0.0006
3873.00,-0.0006
3872.00,-0.0006
3871.00,-0.0007
3870.00,-0.0007
3869.00,-0.0007
3868.00,-0.0007
3867.00,-0.0007
3866.00,-0.0007
3865.00,-0.0007
3864.00,-0.0007
3863.00,-0.0007
3862.00,-0.0006
3861.00,-0.0006
3860.00,-0.0006
3859.00,-0.0006
3858.00,-0.0006
3857.00,-0.0007
3856.00,-0.0007
3855.00,-0.0007
3854.00,-0.0007
3853.00,-0.0007
3852.00,-0.0007
3851.00,-0.0007
3850.00,-0.0007
3849.00,-0.0007
3848.00,-0.0007
3847.00,-0.0007
3846.00,-0.0006
3845.00,-0.0006
3844.00,-0.0006
3843.00,-0.0006
3842.00,-0.0006
3841.00,-0.0006
3840.00,-0.0007
3839.00,-0.0007
3838.00,-0.0007
3837.00,-0.0007
3836.00,-0.0007
3835.00,-0.0007
3834.00,-0.0007
3833.00,-0.0007
3832.00,-0.0007
3831.00,-0.0007
3830.00,-0.0007
3829.00,-0.0007
3828.00,-0.0007
3827.00,-0.0006
3826.00,-0.0006
3825.00,-0.0006
3824.00,-0.0006
3823.00,-0.0007
3822.00,-0.0007
3821.00,-0.0007
3820.00,-0.0007
3819.00,-0.0007
3818.00,-0.0007
3817.00,-0.0007
3816.00,-0.0007
3815.00,-0.0006
3814.00,-0.0006
3813.00,-0.0006
3812.00,-0.0006
3811.00,-0.0006
3810.00,-0.0006
3809.00,-0.0006
3808.00,-0.0006
3807.00,-0.0006
3806.00,-0.0006
3805.00,-0.0006
3804.00,-0.0007
3803.00,-0.0007
3802.00,-0.0007
3801.00,-0.0006
3800.00,-0.0007
3799.00,-0.0007
3798.00,-0.0007
3797.00,-0.0007
3796.00,-0.0007
3795.00,-0.0007
3794.00,-0.0007
3793.00,-0.0007
3792.00,-0.0006
3791.00,-0.0006
3790.00,-0.0006
3789.00,-0.0006
3788.00,-0.0006
3787.00,-0.0006
3786.00,-0.0006
3785.00,-0.0006
3784.00,-0.0006
3783.00,-0.0006
3782.00,-0.0006
3781.00,-0.0006
3780.00,-0.0006
3779.00,-0.0006
3778.00,-0.0006
3777.00,-0.0006
3776.00,-0.0006
3775.00,-0.0006
3774.00,-0.0006
3773.00,-0.0006
3772.00,-0.0006
3771.00,-0.0006
3770.00,-0.0006
3769.00,-0.0006
3768.00,-0.0006
3767.00,-0.0006
3766.00,-0.0006
3765.00,-0.0006
3764.00,-0.0006
3763.00,-0.0006
3762.00,-0.0006
3761.00,-0.0006
3760.00,-0.0006
3759.00,-0.0006
3758.00,-0.0006
3757.00,-0.0006
3756.00,-0.0006
3755.00,-0.0006
3754.00,-0.0006
3753.00,-0.0006
3752.00,-0.0006
3751.00,-0.0006
3750.00,-0.0007
3749.00,-0.0007
3748.00,-0.0007
3747.00,-0.0007
3746.00,-0.0007
3745.00,-0.0007
3744.00,-0.0007
3743.00,-0.0006
3742.00,-0.0006
3741.00,-0.0006
3740.00,-0.0006
3739.00,-0.0006
3738.00,-0.0006
3737.00,-0.0006
3736.00,-0.0006
3735.00,-0.0007
3734.00,-0.0007
3733.00,-0.0007
3732.00,-0.0007
3731.00,-0.0006
3730.00,-0.0006
3729.00,-0.0006
3728.00,-0.0006
3727.00,-0.0006
3726.00,-0.0006
3725.00,-0.0006
3724.00,-0.0006
3723.00,-0.0006
3722.00,-0.0006
3721.00,-0.0006
3720.00,-0.0006
3719.00,-0.0006
3718.00,-0.0006
3717.00,-0.0006
3716.00,-0.0006
3715.00,-0.0006
3714.00,-0.0006
3713.00,-0.0006
3712.00,-0.0006
3711.00,-0.0006
3710.00,-0.0006
3709.00,-0.0006
3708.00,-0.0006
3707.00,-0.0006
3706.00,-0.0005
3705.00,-0.0005
3704.00,-0.0005
3703.00,-0.0005
3702.00,-0.0005
3701.00,-0.0005
3700.00,-0.0005
3699.00,-0.0005
3698.00,-0.0005
3697.00,-0.0005
3696.00,-0.0005
3695.00,-0.0005
3694.00,-0.0005
3693.00,-0.0005
3692.00,-0.0005
3691.00,-0.0005
3690.00,-0.0005
3689.00,-0.0005
3688.00,-0.0005
3687.00,-0.0005
3686.00,-0.0005
3685.00,-0.0005
3684.00,-0.0004
3683.00,-0.0004
3682.00,-0.0004
3681.00,-0.0004
3680.00,-0.0004
3679.00,-0.0004
3678.00,-0.0004
3677.00,-0.0005
3676.00,-0.0005
3675.00,-0.0004
3674.00,-0.0004
3673.00,-0.0004
3672.00,-0.0004
3671.00,-0.0004
3670.00,-0.0004
3669.00,-0.0004
3668.00,-0.0004
3667.00,-0.0003
3666.00,-0.0003
3665.00,-0.0003
3664.00,-0.0002
3663.00,-0.0002
3662.00,-0.0002
3661.00,-0.0002
3660.00,-0.0002
3659.00,-0.0002
3658.00,-0.0002
3657.00,-0.0002
3656.00,-0.0002
3655.00,-0.0002
3654.00,-0.0002
3653.00,-0.0002
3652.00,-0.0002
3651.00,-0.0002
3650.00,-0.0001
3649.00,-0.0001
3648.00,-0.0001
3647.00,-0.0001
3646.00,-0.0001
3645.00,-0.0001
3644.00,-0.0000
3643.00,0.0000
3642.00,0.0001
3641.00,0.0001
3640.00,0.0001
3639.00,0.0001
3638.00,0.0001
3637.00,0.0001
3636.00,0.0001
3635.00,0.0002
3634.00,0.0002
3633.00,0.0002
3632.00,0.0002
3631.00,0.0001
3630.00,0.0001
3629.00,0.0001
3628.00,0.0002
3627.00,0.0002
3626.00,0.0002
3625.00,0.0002
3624.00,0.0003
3623.00,0.0003
3622.00,0.0003
3621.00,0.0004
3620.00,0.0004
3619.00,0.0004
3618.00,0.0004
3617.00,0.0004
3616.00,0.0004
3615.00,0.0004
3614.00,0.0004
3613.00,0.0004
3612.00,0.0005
3611.00,0.0005
3610.00,0.0005
3609.00,0.0005
3608.00,0.0006
3607.00,0.0006
3606.00,0.0006
3605.00,0.0007
3604.00,0.0007
3603.00,0.0007
3602.00,0.0008
3601.00,0.0008
3600.00,0.0008
3599.00,0.0008
3598.00,0.0008
3597.00,0.0008
3596.00,0.0008
3595.00,0.0009
3594.00,0.0009
3593.00,0.0009
3592.00,0.0009
3591.00,0.0010
3590.00,0.0010
3589.00,0.0010
3588.00,0.0010
3587.00,0.0009
3586.00,0.0009
3585.00,0.0010
3584.00,0.0010
3583.00,0.0011
3582.00,0.0011
3581.00,0.0011
3580.00,0.0012
3579.00,0.0012
3578.00,0.0012
3577.00,0.0012
3576.00,0.0012
3575.00,0.0013
3574.00,0.0013
3573.00,0.0013
3572.00,0.0013
3571.00,0.0013
3570.00,0.0014
3569.00,0.0014
3568.00,0.0014
3567.00,0.0013
3566.00,0.0014
3565.00,0.0014
3564.00,0.0014
3563.00,0.0015
3562.00,0.0015
3561.00,0.0015
3560.00,0.0016
3559.00,0.0016
3558.00,0.0016
3557.00,0.0016
3556.00,0.0016
3555.00,0.0017
3554.00,0.0017
3553.00,0.0017
3552.00,0.0017
3551.00,0.0017
3550.00,0.0018
3549.00,0.0018
3548.00,0.0018
3547.00,0.0018
3546.00,0.0018
3545.00,0.0018
3544.00,0.0018
3543.00,0.0019
3542.00,0.0019
3541.00,0.0019
3540.00,0.0020
3539.00,0.0020
3538.00,0.0020
3537.00,0.0020
3536.00,0.0020
3535.00,0.0021
3534.00,0.0021
3533.00,0.0021
3532.00,0.0021
3531.00,0.0022
3530.00,0.0022
3529.00,0.0022
3528.00,0.0022
3527.00,0.0022
3526.00,0.0022
3525.00,0.0023
3524.00,0.0023
3523.00,0.0023
3522.00,0.0023
3521.00,0.0023
3520.00,0.0023
3519.00,0.0023
3518.00,0.0024
3517.00,0.0024
3516.00,0.0024
3515.00,0.0024
3514.00,0.0025
3513.00,0.0025
3512.00,0.0025
3511.00,0.0025
3510.00,0.0026
3509.00,0.0026
3508.00,0.0026
3507.00,0.0026
3506.00,0.0026
3505.00,0.0027
3504.00,0.0027
3503.00,0.0027
3502.00,0.0027
3501.00,0.0027
3500.00,0.0027
3499.00,0.0027
3498.00,0.0028
3497.00,0.0028
3496.00,0.0028
3495.00,0.0028
3494.00,0.0028
3493.00,0.0029
3492.00,0.0029
3491.00,0.0029
3490.00,0.0029
3489.00,0.0030
3488.00,0.0030
3487.00,0.0030
3486.00,0.0030
3485.00,0.0030
3484.00,0.0031
3483.00,0.0031
3482.00,0.0031
3481.00,0.0031
3480.00,0.0031
3479.00,0.0031
3478.00,0.0032
3477.00,0.0032
3476.00,0.0032
3475.00,0.0032
3474.00,0.0033
3473.00,0.0033
3472.00,0.0033
3471.00,0.0033
3470.00,0.0033
3469.00,0.0034
3468.00,0.0034
3467.00,0.0034
3466.00,0.0034
3465.00,0.0034
3464.00,0.0035
3463.00,0.0035
3462.00,0.0035
3461.00,0.0035
3460.00,0.0035
3459.00,0.0036
3458.00,0.0036
3457.00,0.0036
3456.00,0.0036
3455.00,0.0036
3454.00,0.0036
3453.00,0.0036
3452.00,0.0037
3451.00,0.0037
3450.00,0.0037
3449.00,0.0037
3448.00,0.0038
3447.00,0.0038
3446.00,0.0038
3445.00,0.0038
3444.00,0.0038
3443.00,0.0038
3442.00,0.0039
3441.00,0.0039
3440.00,0.0039
3439.00,0.0039
3438.00,0.0039
3437.00,0.0040
3436.00,0.0040
3435.00,0.0040
3434.00,0.0040
3433.00,0.0040
3432.00,0.0040
3431.00,0.0041
3430.00,0.0041
3429.00,0.0041
3428.00,0.0041
3427.00,0.0042
3426.00,0.0042
3425.00,0.0042
3424.00,0.0042
3423.00,0.0042
3422.00,0.0042
3421.00,0.0042
3420.00,0.0043
3419.00,0.0043
3418.00,0.0043
3417.00,0.0043
3416.00,0.0044
3415.00,0.0044
3414.00,0.0044
3413.00,0.0044
3412.00,0.0045
3411.00,0.0045
3410.00,0.0045
3409.00,0.0045
3408.00,0.0045
3407.00,0.0045
3406.00,0.0045
3405.00,0.0046
3404.00,0.0046
3403.00,0.0046
3402.00,0.0046
3401.00,0.0047
3400.00,0.0047
3399.00,0.0047
3398.00,0.0047
3397.00,0.0047
3396.00,0.0047
3395.00,0.0047
3394.00,0.0048
3393.00,0.0048
3392.00,0.0048
3391.00,0.0048
3390.00,0.0048
3389.00,0.0049
3388.00,0.0049
3387.00,0.0049
3386.00,0.0049
3385.00,0.0049
3384.00,0.0050
3383.00,0.0050
3382.00,0.0050
3381.00,0.0050
3380.00,0.0050
3379.00,0.0050
3378.00,0.0051
3377.00,0.0051
3376.00,0.0051
3375.00,0.0051
3374.00,0.0052
3373.00,0.0052
3372.00,0.0052
3371.00,0.0053
3370.00,0.0053
3369.00,0.0053
3368.00,0.0054
3367.00,0.0054
3366.00,0.0054
3365.00,0.0054
3364.00,0.0055
3363.00,0.0055
3362.00,0.0055
3361.00,0.0055
3360.00,0.0056
3359.00,0.0056
3358.00,0.0056
3357.00,0.0056
3356.00,0.0057
3355.00,0.0057
3354.00,0.0057
3353.00,0.0058
3352.00,0.0058
3351.00,0.0059
3350.00,0.0059
3349.00,0.0059
3348.00,0.0059
3347.00,0.0060
3346.00,0.0060
3345.00,0.0060
3344.00,0.0061
3343.00,0.0061
3342.00,0.0061
3341.00,0.0062
3340.00,0.0062
3339.00,0.0063
3338.00,0.0063
3337.00,0.0063
3336.00,0.0064
3335.00,0.0064
3334.00,0.0065
3333.00,0.0065
3332.00,0.0065
3331.00,0.0066
3330.00,0.0066
3329.00,0.0067
3328.00,0.0068
3327.00,0.0068
3326.00,0.0069
3325.00,0.0069
3324.00,0.0070
3323.00,0.0070
3322.00,0.0071
3321.00,0.0071
3320.00,0.0072
3319.00,0.0072
3318.00,0.0073
3317.00,0.0074
3316.00,0.0074
3315.00,0.0075
3314.00,0.0075
3313.00,0.0076
3312.00,0.0077
3311.00,0.0077
3310.00,0.0078
3309.00,0.0079
3308.00,0.0079
3307.00,0.0080
3306.00,0.0081
3305.00,0.0081
3304.00,0.0082
3303.00,0.0083
3302.00,0.0083
3301.00,0.0084
3300.00,0.0085
3299.00,0.0085
3298.00,0.0086
3297.00,0.0087
3296.00,0.0087
3295.00,0.0088
3294.00,0.0089
3293.00,0.0089
3292.00,0.0090
3291.00,0.0091
3290.00,0.0091
3289.00,0.0092
3288.00,0.0092
3287.00,0.0093
3286.00,0.0094
3285.00,0.0094
3284.00,0.0095
3283.00,0.0095
3282.00,0.0095
3281.00,0.0096
3280.00,0.0096
3279.00,0.0097
3278.00,0.0097
3277.00,0.0097
3276.00,0.0097
3275.00,0.0097
3274.00,0.0097
3273.00,0.0098
3272.00,0.0098
3271.00,0.0098
3270.00,0.0097
3269.00,0.0097
3268.00,0.0097
3267.00,0.0096
3266.00,0.0096
3265.00,0.0095
3264.00,0.0095
3263.00,0.0094
3262.00,0.0094
3261.00,0.0093
3260.00,0.0093
3259.00,0.0092
3258.00,0.0092
3257.00,0.0092
3256.00,0.0091
3255.00,0.0090
3254.00,0.0089
3253.00,0.0089
3252.00,0.0088
3251.00,0.0087
3250.00,0.0087
3249.00,0.0086
3248.00,0.0086
3247.00,0.0085
3246.00,0.0084
3245.00,0.0084
3244.00,0.0083
3243.00,0.0082
3242.00,0.0082
3241.00,0.0081
3240.00,0.0081
3239.00,0.0080
3238.00,0.0080
3237.00,0.0080
3236.00,0.0079
3235.00,0.0079
3234.00,0.0078
3233.00,0.0078
3232.00,0.0077
3231.00,0.0076
3230.00,0.0076
3229.00,0.0075
3228.00,0.0075
3227.00,0.0075
3226.00,0.0074
3225.00,0.0074
3224.00,0.0073
3223.00,0.0073
3222.00,0.0072
3221.00,0.0072
3220.00,0.0072
3219.00,0.0071
3218.00,0.0071
3217.00,0.0071
3216.00,0.0071
3215.00,0.0070
3214.00,0.0070
3213.00,0.0070
3212.00,0.0069
3211.00,0.0069
3210.00,0.0069
3209.00,0.0068
3208.00,0.0068
3207.00,0.0068
3206.00,0.0067
3205.00,0.0067
3204.00,0.0066
3203.00,0.0066
3202.00,0.0066
3201.00,0.0065
3200.00,0.0065
3199.00,0.0065
3198.00,0.0064
3197.00,0.0064
3196.00,0.0063
3195.00,0.0063
3194.00,0.0063
3193.00,0.0063
3192.00,0.0062
3191.00,0.0062
3190.00,0.0062
3189.00,0.0062
3188.00,0.0061
3187.00,0.0061
3186.00,0.0060
3185.00,0.0060
3184.00,0.0060
3183.00,0.0059
3182.00,0.0059
3181.00,0.0059
3180.00,0.0059
3179.00,0.0058
3178.00,0.0058
3177.00,0.0057
3176.00,0.0057
3175.00,0.0056
3174.00,0.0056
3173.00,0.0056
3172.00,0.0056
3171.00,0.0055
3170.00,0.0055
3169.00,0.0055
3168.00,0.0054
3167.00,0.0054
3166.00,0.0054
3165.00,0.0053
3164.00,0.0053
3163.00,0.0053
3162.00,0.0052
3161.00,0.0052
3160.00,0.0052
3159.00,0.0051
3158.00,0.0051
3157.00,0.0051
3156.00,0.0051
3155.00,0.0050
3154.00,0.0050
3153.00,0.0050
3152.00,0.0049
3151.00,0.0049
3150.00,0.0049
3149.00,0.0049
3148.00,0.0049
3147.00,0.0048
3146.00,0.0048
3145.00,0.0048
3144.00,0.0047
3143.00,0.0047
3142.00,0.0047
3141.00,0.0047
3140.00,0.0047
3139.00,0.0047
3138.00,0.0047
3137.00,0.0046
3136.00,0.0046
3135.00,0.0046
3134.00,0.0046
3133.00,0.0046
3132.00,0.0045
3131.00,0.0045
3130.00,0.0045
3129.00,0.0045
3128.00,0.0045
3127.00,0.0045
3126.00,0.0045
3125.00,0.0045
3124.00,0.0045
3123.00,0.0045
3122.00,0.0044
3121.00,0.0044
3120.00,0.0044
3119.00,0.0044
3118.00,0.0044
3117.00,0.0044
3116.00,0.0044
3115.00,0.0044
3114.00,0.0044
3113.00,0.0044
3112.00,0.0044
3111.00,0.0044
3110.00,0.0044
3109.00,0.0044
3108.00,0.0044
3107.00,0.0044
3106.00,0.0044
3105.00,0.0044
3104.00,0.0044
3103.00,0.0044
3102.00,0.0044
3101.00,0.0044
3100.00,0.0044
3099.00,0.0044
3098.00,0.0045
3097.00,0.0045
3096.00,0.0045
3095.00,0.0045
3094.00,0.0045
3093.00,0.0045
3092.00,0.0045
3091.00,0.0045
3090.00,0.0045
3089.00,0.0045
3088.00,0.0045
3087.00,0.0045
3086.00,0.0045
3085.00,0.0045
3084.00,0.0045
3083.00,0.0045
3082.00,0.0045
3081.00,0.0045
3080.00,0.0045
3079.00,0.0045
3078.00,0.0045
3077.00,0.0045
3076.00,0.0045
3075.00,0.0045
3074.00,0.0045
3073.00,0.0045
3072.00,0.0045
3071.00,0.0045
3070.00,0.0045
3069.00,0.0045
3068.00,0.0045
3067.00,0.0044
3066.00,0.0044
3065.00,0.0044
3064.00,0.0044
3063.00,0.0044
3062.00,0.0044
3061.00,0.0043
3060.00,0.0043
3059.00,0.0043
3058.00,0.0043
3057.00,0.0042
3056.00,0.0042
3055.00,0.0042
3054.00,0.0042
3053.00,0.0041
3052.00,0.0041
3051.00,0.0041
3050.00,0.0040
3049.00,0.0040
3048.00,0.0040
3047.00,0.0040
3046.00,0.0039
3045.00,0.0039
3044.00,0.0039
3043.00,0.0038
3042.00,0.0038
3041.00,0.0038
3040.00,0.0037
3039.00,0.0037
3038.00,0.0037
3037.00,0.0037
3036.00,0.0037
3035.00,0.0036
3034.00,0.0036
3033.00,0.0036
3032.00,0.0035
3031.00,0.0035
3030.00,0.0035
3029.00,0.0035
3028.00,0.0035
3027.00,0.0034
3026.00,0.0034
3025.00,0.0034
3024.00,0.0034
3023.00,0.0033
3022.00,0.0033
3021.00,0.0033
3020.00,0.0033
3019.00,0.0033
3018.00,0.0032
3017.00,0.0032
3016.00,0.0032
3015.00,0.0031
3014.00,0.0031
3013.00,0.0031
3012.00,0.0031
3011.00,0.0031
3010.00,0.0031
3009.00,0.0031
3008.00,0.0031
3007.00,0.0031
3006.00,0.0031
3005.00,0.0031
3004.00,0.0031
3003.00,0.0031
3002.00,0.0031
3001.00,0.0031
3000.00,0.0031
2999.00,0.0031
2998.00,0.0031
2997.00,0.0031
2996.00,0.0031
2995.00,0.0031
2994.00,0.0032
2993.00,0.0032
2992.00,0.0032
2991.00,0.0032
2990.00,0.0033
2989.00,0.0033
2988.00,0.0034
2987.00,0.0034
2986.00,0.0034
2985.00,0.0035
2984.00,0.0035
2983.00,0.0036
2982.00,0.0036
2981.00,0.0037
2980.00,0.0037
2979.00,0.0038
2978.00,0.0038
2977.00,0.0039
2976.00,0.0039
2975.00,0.0040
2974.00,0.0040
2973.00,0.0041
2972.00,0.0041
2971.00,0.0042
2970.00,0.0042
2969.00,0.0043
2968.00,0.0043
2967.00,0.0043
2966.00,0.0044
2965.00,0.0044
2964.00,0.0044
2963.00,0.0044
2962.00,0.0044
2961.00,0.0044
2960.00,0.0044
2959.00,0.0044
2958.00,0.0043
2957.00,0.0043
2956.00,0.0043
2955.00,0.0042
2954.00,0.0042
2953.00,0.0042
2952.00,0.0041
2951.00,0.0041
2950.00,0.0041
2949.00,0.0041
2948.00,0.0040
2947.00,0.0040
2946.00,0.0040
2945.00,0.0040
2944.00,0.0041
2943.00,0.0041
2942.00,0.0041
2941.00,0.0042
2940.00,0.0042
2939.00,0.0043
2938.00,0.0043
2937.00,0.0043
2936.00,0.0044
2935.00,0.0044
2934.00,0.0044
2933.00,0.0044
2932.00,0.0044
2931.00,0.0044
2930.00,0.0044
2929.00,0.0044
2928.00,0.0043
2927.00,0.0043
2926.00,0.0043
2925.00,0.0043
2924.00,0.0042
2923.00,0.0042
2922.00,0.0042
2921.00,0.0042
2920.00,0.0041
2919.00,0.0041
2918.00,0.0040
2917.00,0.0039
2916.00,0.0039
2915.00,0.0038
2914.00,0.0038
2913.00,0.0037
2912.00,0.0037
2911.00,0.0036
2910.00,0.0036
2909.00,0.0035
2908.00,0.0035
2907.00,0.0035
2906.00,0.0034
2905.00,0.0034
2904.00,0.0033
2903.00,0.0033
2902.00,0.0033
2901.00,0.0033
2900.00,0.0032
2899.00,0.0032
2898.00,0.0032
2897.00,0.0031
2896.00,0.0031
2895.00,0.0031
2894.00,0.0031
2893.00,0.0030
2892.00,0.0030
2891.00,0.0030
2890.00,0.0030
2889.00,0.0030
2888.00,0.0030
2887.00,0.0031
2886.00,0.0031
2885.00,0.0031
2884.00,0.0031
2883.00,0.0031
2882.00,0.0031
2881.00,0.0031
2880.00,0.0032
2879.00,0.0032
2878.00,0.0032
2877.00,0.0032
2876.00,0.0032
2875.00,0.0032
2874.00,0.0032
2873.00,0.0032
2872.00,0.0031
2871.00,0.0031
2870.00,0.0031
2869.00,0.0030
2868.00,0.0030
2867.00,0.0029
2866.00,0.0029
2865.00,0.0029
2864.00,0.0028
2863.00,0.0028
2862.00,0.0027
2861.00,0.0027
2860.00,0.0027
2859.00,0.0027
2858.00,0.0027
2857.00,0.0026
2856.00,0.0026
2855.00,0.0026
2854.00,0.0026
2853.00,0.0026
2852.00,0.0026
2851.00,0.0025
2850.00,0.0025
2849.00,0.0025
2848.00,0.0024
2847.00,0.0024
2846.00,0.0023
2845.00,0.0023
2844.00,0.0022
2843.00,0.0022
2842.00,0.0021
2841.00,0.0021
2840.00,0.0021
2839.00,0.0020
2838.00,0.0020
2837.00,0.0020
2836.00,0.0020
2835.00,0.0020
2834.00,0.0020
2833.00,0.0020
2832.00,0.0019
2831.00,0.0019
2830.00,0.0019
2829.00,0.0019
2828.00,0.0019
2827.00,0.0019
2826.00,0.0019
2825.00,0.0019
2824.00,0.0019
2823.00,0.0019
2822.00,0.0018
2821.00,0.0018
2820.00,0.0018
2819.00,0.0018
2818.00,0.0018
2817.00,0.0018
2816.00,0.0018
2815.00,0.0018
2814.00,0.0018
2813.00,0.0018
2812.00,0.0018
2811.00,0.0018
2810.00,0.0018
2809.00,0.0018
2808.00,0.0017
2807.00,0.0017
2806.00,0.0017
2805.00,0.0017
2804.00,0.0017
2803.00,0.0017
2802.00,0.0017
2801.00,0.0017
2800.00,0.0017
2799.00,0.0017
2798.00,0.0017
2797.00,0.0017
2796.00,0.0017
2795.00,0.0016
2794.00,0.0016
2793.00,0.0016
2792.00,0.0016
2791.00,0.0016
2790.00,0.0016
2789.00,0.0016
2788.00,0.0016
2787.00,0.0016
2786.00,0.0015
2785.00,0.0015
2784.00,0.0015
2783.00,0.0015
2782.00,0.0015
2781.00,0.0015
2780.00,0.0015
2779.00,0.0015
