Created as New Dataset,Sample 223 By YargerLab Date Tuesday, June 11 2024
cm-1,A
4000.00,0.0027
3999.00,0.0027
3998.00,0.0027
3997.00,0.0027
3996.00,0.0027
3995.00,0.0027
3994.00,0.0027
3993.00,0.0027
3992.00,0.0027
3991.00,0.0027
3990.00,0.0027
3989.00,0.0027
3988.00,0.0027
3987.00,0.0027
3986.00,0.0027
3985.00,0.0027
3984.00,0.0027
3983.00,0.0027
3982.00,0.0027
3981.00,0.0027
3980.00,0.0027
3979.00,0.0027
3978.00,0.0026
3977.00,0.0026
3976.00,0.0026
3975.00,0.0027
3974.00,0.0027
3973.00,0.0027
3972.00,0.0027
3971.00,0.0027
3970.00,0.0027
3969.00,0.0027
3968.00,0.0027
3967.00,0.0027
3966.00,0.0027
3965.00,0.0027
3964.00,0.0027
3963.00,0.0027
3962.00,0.0027
3961.00,0.0027
3960.00,0.0027
3959.00,0.0027
3958.00,0.0027
3957.00,0.0027
3956.00,0.0027
3955.00,0.0027
3954.00,0.0027
3953.00,0.0027
3952.00,0.0027
3951.00,0.0027
3950.00,0.0026
3949.00,0.0026
3948.00,0.0026
3947.00,0.0025
3946.00,0.0025
3945.00,0.0026
3944.00,0.0026
3943.00,0.0026
3942.00,0.0027
3941.00,0.0027
3940.00,0.0026
3939.00,0.0026
3938.00,0.0026
3937.00,0.0026
3936.00,0.0026
3935.00,0.0025
3934.00,0.0025
3933.00,0.0025
3932.00,0.0025
3931.00,0.0025
3930.00,0.0026
3929.00,0.0026
3928.00,0.0026
3927.00,0.0026
3926.00,0.0026
3925.00,0.0027
3924.00,0.0026
3923.00,0.0026
3922.00,0.0025
3921.00,0.0025
3920.00,0.0024
3919.00,0.0024
3918.00,0.0024
3917.00,0.0024
3916.00,0.0024
3915.00,0.0025
3914.00,0.0025
3913.00,0.0026
3912.00,0.0026
3911.00,0.0026
3910.00,0.0026
3909.00,0.0027
3908.00,0.0027
3907.00,0.0026
3906.00,0.0026
3905.00,0.0025
3904.00,0.0023
3903.00,0.0022
3902.00,0.0021
3901.00,0.0020
3900.00,0.0021
3899.00,0.0022
3898.00,0.0023
3897.00,0.0024
3896.00,0.0024
3895.00,0.0024
3894.00,0.0025
3893.00,0.0025
3892.00,0.0025
3891.00,0.0025
3890.00,0.0025
3889.00,0.0024
3888.00,0.0023
3887.00,0.0022
3886.00,0.0022
3885.00,0.0023
3884.00,0.0024
3883.00,0.0023
3882.00,0.0023
3881.00,0.0023
3880.00,0.0024
3879.00,0.0024
3878.00,0.0023
3877.00,0.0023
3876.00,0.0023
3875.00,0.0024
3874.00,0.0025
3873.00,0.0025
3872.00,0.0024
3871.00,0.0023
3870.00,0.0022
3869.00,0.0022
3868.00,0.0022
3867.00,0.0022
3866.00,0.0021
3865.00,0.0022
3864.00,0.0023
3863.00,0.0023
3862.00,0.0023
3861.00,0.0022
3860.00,0.0022
3859.00,0.0023
3858.00,0.0025
3857.00,0.0026
3856.00,0.0027
3855.00,0.0027
3854.00,0.0025
3853.00,0.0024
3852.00,0.0023
3851.00,0.0022
3850.00,0.0022
3849.00,0.0022
3848.00,0.0022
3847.00,0.0023
3846.00,0.0023
3845.00,0.0023
3844.00,0.0023
3843.00,0.0023
3842.00,0.0023
3841.00,0.0023
3840.00,0.0023
3839.00,0.0023
3838.00,0.0023
3837.00,0.0023
3836.00,0.0023
3835.00,0.0023
3834.00,0.0023
3833.00,0.0022
3832.00,0.0022
3831.00,0.0023
3830.00,0.0023
3829.00,0.0023
3828.00,0.0023
3827.00,0.0024
3826.00,0.0024
3825.00,0.0024
3824.00,0.0023
3823.00,0.0022
3822.00,0.0022
3821.00,0.0022
3820.00,0.0023
3819.00,0.0023
3818.00,0.0022
3817.00,0.0022
3816.00,0.0023
3815.00,0.0024
3814.00,0.0025
3813.00,0.0025
3812.00,0.0025
3811.00,0.0025
3810.00,0.0025
3809.00,0.0025
3808.00,0.0024
3807.00,0.0024
3806.00,0.0024
3805.00,0.0023
3804.00,0.0023
3803.00,0.0022
3802.00,0.0022
3801.00,0.0023
3800.00,0.0024
3799.00,0.0023
3798.00,0.0023
3797.00,0.0023
3796.00,0.0024
3795.00,0.0024
3794.00,0.0025
3793.00,0.0025
3792.00,0.0026
3791.00,0.0026
3790.00,0.0027
3789.00,0.0027
3788.00,0.0027
3787.00,0.0027
3786.00,0.0027
3785.00,0.0027
3784.00,0.0026
3783.00,0.0026
3782.00,0.0025
3781.00,0.0025
3780.00,0.0025
3779.00,0.0026
3778.00,0.0026
3777.00,0.0026
3776.00,0.0026
3775.00,0.0026
3774.00,0.0026
3773.00,0.0026
3772.00,0.0025
3771.00,0.0025
3770.00,0.0024
3769.00,0.0024
3768.00,0.0024
3767.00,0.0023
3766.00,0.0023
3765.00,0.0024
3764.00,0.0024
3763.00,0.0024
3762.00,0.0023
3761.00,0.0023
3760.00,0.0023
3759.00,0.0023
3758.00,0.0023
3757.00,0.0023
3756.00,0.0023
3755.00,0.0022
3754.00,0.0021
3753.00,0.0021
3752.00,0.0020
3751.00,0.0019
3750.00,0.0018
3749.00,0.0018
3748.00,0.0018
3747.00,0.0018
3746.00,0.0018
3745.00,0.0018
3744.00,0.0019
3743.00,0.0019
3742.00,0.0020
3741.00,0.0019
3740.00,0.0018
3739.00,0.0017
3738.00,0.0016
3737.00,0.0016
3736.00,0.0017
3735.00,0.0018
3734.00,0.0018
3733.00,0.0018
3732.00,0.0019
3731.00,0.0020
3730.00,0.0021
3729.00,0.0021
3728.00,0.0021
3727.00,0.0021
3726.00,0.0022
3725.00,0.0022
3724.00,0.0023
3723.00,0.0023
3722.00,0.0023
3721.00,0.0023
3720.00,0.0024
3719.00,0.0024
3718.00,0.0024
3717.00,0.0024
3716.00,0.0024
3715.00,0.0024
3714.00,0.0023
3713.00,0.0023
3712.00,0.0023
3711.00,0.0023
3710.00,0.0022
3709.00,0.0022
3708.00,0.0022
3707.00,0.0023
3706.00,0.0024
3705.00,0.0024
3704.00,0.0025
3703.00,0.0025
3702.00,0.0026
3701.00,0.0026
3700.00,0.0026
3699.00,0.0026
3698.00,0.0026
3697.00,0.0026
3696.00,0.0026
3695.00,0.0026
3694.00,0.0026
3693.00,0.0025
3692.00,0.0025
3691.00,0.0026
3690.00,0.0025
3689.00,0.0024
3688.00,0.0024
3687.00,0.0024
3686.00,0.0024
3685.00,0.0025
3684.00,0.0025
3683.00,0.0025
3682.00,0.0025
3681.00,0.0025
3680.00,0.0026
3679.00,0.0026
3678.00,0.0025
3677.00,0.0024
3676.00,0.0024
3675.00,0.0024
3674.00,0.0025
3673.00,0.0024
3672.00,0.0024
3671.00,0.0024
3670.00,0.0025
3669.00,0.0026
3668.00,0.0027
3667.00,0.0027
3666.00,0.0028
3665.00,0.0028
3664.00,0.0029
3663.00,0.0030
3662.00,0.0031
3661.00,0.0031
3660.00,0.0031
3659.00,0.0031
3658.00,0.0030
3657.00,0.0030
3656.00,0.0030
3655.00,0.0029
3654.00,0.0029
3653.00,0.0027
3652.00,0.0026
3651.00,0.0025
3650.00,0.0025
3649.00,0.0025
3648.00,0.0025
3647.00,0.0025
3646.00,0.0026
3645.00,0.0028
3644.00,0.0029
3643.00,0.0030
3642.00,0.0031
3641.00,0.0032
3640.00,0.0032
3639.00,0.0033
3638.00,0.0033
3637.00,0.0033
3636.00,0.0032
3635.00,0.0032
3634.00,0.0032
3633.00,0.0032
3632.00,0.0031
3631.00,0.0030
3630.00,0.0029
3629.00,0.0028
3628.00,0.0028
3627.00,0.0029
3626.00,0.0029
3625.00,0.0029
3624.00,0.0030
3623.00,0.0031
3622.00,0.0031
3621.00,0.0032
3620.00,0.0032
3619.00,0.0033
3618.00,0.0032
3617.00,0.0031
3616.00,0.0031
3615.00,0.0031
3614.00,0.0031
3613.00,0.0031
3612.00,0.0031
3611.00,0.0030
3610.00,0.0030
3609.00,0.0031
3608.00,0.0032
3607.00,0.0033
3606.00,0.0034
3605.00,0.0035
3604.00,0.0035
3603.00,0.0036
3602.00,0.0036
3601.00,0.0037
3600.00,0.0037
3599.00,0.0037
3598.00,0.0037
3597.00,0.0037
3596.00,0.0037
3595.00,0.0038
3594.00,0.0038
3593.00,0.0038
3592.00,0.0038
3591.00,0.0037
3590.00,0.0037
3589.00,0.0037
3588.00,0.0038
3587.00,0.0038
3586.00,0.0039
3585.00,0.0039
3584.00,0.0039
3583.00,0.0040
3582.00,0.0041
3581.00,0.0042
3580.00,0.0042
3579.00,0.0043
3578.00,0.0043
3577.00,0.0044
3576.00,0.0044
3575.00,0.0044
3574.00,0.0044
3573.00,0.0044
3572.00,0.0044
3571.00,0.0044
3570.00,0.0043
3569.00,0.0042
3568.00,0.0042
3567.00,0.0043
3566.00,0.0043
3565.00,0.0044
3564.00,0.0044
3563.00,0.0045
3562.00,0.0046
3561.00,0.0047
3560.00,0.0047
3559.00,0.0048
3558.00,0.0048
3557.00,0.0049
3556.00,0.0049
3555.00,0.0050
3554.00,0.0050
3553.00,0.0050
3552.00,0.0050
3551.00,0.0050
3550.00,0.0050
3549.00,0.0050
3548.00,0.0050
3547.00,0.0050
3546.00,0.0050
3545.00,0.0051
3544.00,0.0052
3543.00,0.0052
3542.00,0.0053
3541.00,0.0053
3540.00,0.0054
3539.00,0.0055
3538.00,0.0055
3537.00,0.0055
3536.00,0.0056
3535.00,0.0056
3534.00,0.0056
3533.00,0.0056
3532.00,0.0056
3531.00,0.0057
3530.00,0.0057
3529.00,0.0057
3528.00,0.0057
3527.00,0.0057
3526.00,0.0057
3525.00,0.0057
3524.00,0.0057
3523.00,0.0058
3522.00,0.0059
3521.00,0.0059
3520.00,0.0060
3519.00,0.0060
3518.00,0.0061
3517.00,0.0061
3516.00,0.0061
3515.00,0.0062
3514.00,0.0062
3513.00,0.0062
3512.00,0.0063
3511.00,0.0063
3510.00,0.0063
3509.00,0.0063
3508.00,0.0064
3507.00,0.0064
3506.00,0.0064
3505.00,0.0064
3504.00,0.0064
3503.00,0.0065
3502.00,0.0065
3501.00,0.0065
3500.00,0.0066
3499.00,0.0066
3498.00,0.0067
3497.00,0.0067
3496.00,0.0068
3495.00,0.0068
3494.00,0.0068
3493.00,0.0069
3492.00,0.0069
3491.00,0.0070
3490.00,0.0070
3489.00,0.0070
3488.00,0.0071
3487.00,0.0071
3486.00,0.0071
3485.00,0.0072
3484.00,0.0072
3483.00,0.0073
3482.00,0.0073
3481.00,0.0073
3480.00,0.0074
3479.00,0.0074
3478.00,0.0074
3477.00,0.0075
3476.00,0.0076
3475.00,0.0076
3474.00,0.0076
3473.00,0.0077
3472.00,0.0077
3471.00,0.0077
3470.00,0.0078
3469.00,0.0078
3468.00,0.0078
3467.00,0.0079
3466.00,0.0079
3465.00,0.0079
3464.00,0.0080
3463.00,0.0080
3462.00,0.0081
3461.00,0.0081
3460.00,0.0082
3459.00,0.0082
3458.00,0.0083
3457.00,0.0083
3456.00,0.0083
3455.00,0.0084
3454.00,0.0084
3453.00,0.0084
3452.00,0.0084
3451.00,0.0085
3450.00,0.0085
3449.00,0.0085
3448.00,0.0086
3447.00,0.0086
3446.00,0.0086
3445.00,0.0086
3444.00,0.0087
3443.00,0.0087
3442.00,0.0087
3441.00,0.0088
3440.00,0.0088
3439.00,0.0089
3438.00,0.0089
3437.00,0.0089
3436.00,0.0090
3435.00,0.0090
3434.00,0.0091
3433.00,0.0091
3432.00,0.0091
3431.00,0.0092
3430.00,0.0092
3429.00,0.0092
3428.00,0.0092
3427.00,0.0093
3426.00,0.0093
3425.00,0.0094
3424.00,0.0094
3423.00,0.0095
3422.00,0.0095
3421.00,0.0095
3420.00,0.0096
3419.00,0.0096
3418.00,0.0096
3417.00,0.0097
3416.00,0.0097
3415.00,0.0097
3414.00,0.0097
3413.00,0.0098
3412.00,0.0098
3411.00,0.0098
3410.00,0.0099
3409.00,0.0099
3408.00,0.0099
3407.00,0.0100
3406.00,0.0100
3405.00,0.0100
3404.00,0.0101
3403.00,0.0101
3402.00,0.0101
3401.00,0.0102
3400.00,0.0102
3399.00,0.0102
3398.00,0.0102
3397.00,0.0103
3396.00,0.0103
3395.00,0.0103
3394.00,0.0104
3393.00,0.0104
3392.00,0.0104
3391.00,0.0105
3390.00,0.0105
3389.00,0.0106
3388.00,0.0106
3387.00,0.0106
3386.00,0.0107
3385.00,0.0107
3384.00,0.0108
3383.00,0.0108
3382.00,0.0108
3381.00,0.0109
3380.00,0.0109
3379.00,0.0109
3378.00,0.0110
3377.00,0.0110
3376.00,0.0111
3375.00,0.0111
3374.00,0.0112
3373.00,0.0112
3372.00,0.0112
3371.00,0.0113
3370.00,0.0113
3369.00,0.0114
3368.00,0.0114
3367.00,0.0115
3366.00,0.0115
3365.00,0.0116
3364.00,0.0117
3363.00,0.0117
3362.00,0.0118
3361.00,0.0119
3360.00,0.0119
3359.00,0.0120
3358.00,0.0121
3357.00,0.0122
3356.00,0.0122
3355.00,0.0123
3354.00,0.0123
3353.00,0.0124
3352.00,0.0124
3351.00,0.0125
3350.00,0.0126
3349.00,0.0126
3348.00,0.0127
3347.00,0.0128
3346.00,0.0129
3345.00,0.0130
3344.00,0.0130
3343.00,0.0131
3342.00,0.0132
3341.00,0.0133
3340.00,0.0133
3339.00,0.0134
3338.00,0.0135
3337.00,0.0135
3336.00,0.0136
3335.00,0.0137
3334.00,0.0138
3333.00,0.0139
3332.00,0.0140
3331.00,0.0141
3330.00,0.0142
3329.00,0.0143
3328.00,0.0144
3327.00,0.0144
3326.00,0.0145
3325.00,0.0147
3324.00,0.0148
3323.00,0.0149
3322.00,0.0150
3321.00,0.0151
3320.00,0.0152
3319.00,0.0153
3318.00,0.0154
3317.00,0.0155
3316.00,0.0156
3315.00,0.0157
3314.00,0.0159
3313.00,0.0160
3312.00,0.0161
3311.00,0.0162
3310.00,0.0163
3309.00,0.0164
3308.00,0.0165
3307.00,0.0166
3306.00,0.0168
3305.00,0.0169
3304.00,0.0171
3303.00,0.0172
3302.00,0.0174
3301.00,0.0175
3300.00,0.0176
3299.00,0.0178
3298.00,0.0179
3297.00,0.0180
3296.00,0.0181
3295.00,0.0183
3294.00,0.0184
3293.00,0.0185
3292.00,0.0187
3291.00,0.0188
3290.00,0.0189
3289.00,0.0191
3288.00,0.0192
3287.00,0.0194
3286.00,0.0195
3285.00,0.0196
3284.00,0.0197
3283.00,0.0198
3282.00,0.0199
3281.00,0.0200
3280.00,0.0201
3279.00,0.0201
3278.00,0.0202
3277.00,0.0202
3276.00,0.0202
3275.00,0.0203
3274.00,0.0203
3273.00,0.0203
3272.00,0.0203
3271.00,0.0203
3270.00,0.0203
3269.00,0.0203
3268.00,0.0203
3267.00,0.0203
3266.00,0.0202
3265.00,0.0202
3264.00,0.0201
3263.00,0.0201
3262.00,0.0200
3261.00,0.0199
3260.00,0.0198
3259.00,0.0197
3258.00,0.0196
3257.00,0.0194
3256.00,0.0193
3255.00,0.0192
3254.00,0.0191
3253.00,0.0190
3252.00,0.0189
3251.00,0.0188
3250.00,0.0187
3249.00,0.0186
3248.00,0.0184
3247.00,0.0183
3246.00,0.0182
3245.00,0.0181
3244.00,0.0180
3243.00,0.0179
3242.00,0.0178
3241.00,0.0177
3240.00,0.0177
3239.00,0.0176
3238.00,0.0175
3237.00,0.0174
3236.00,0.0172
3235.00,0.0171
3234.00,0.0170
3233.00,0.0169
3232.00,0.0169
3231.00,0.0168
3230.00,0.0167
3229.00,0.0167
3228.00,0.0166
3227.00,0.0165
3226.00,0.0165
3225.00,0.0164
3224.00,0.0163
3223.00,0.0163
3222.00,0.0162
3221.00,0.0161
3220.00,0.0160
3219.00,0.0160
3218.00,0.0159
3217.00,0.0159
3216.00,0.0158
3215.00,0.0157
3214.00,0.0157
3213.00,0.0156
3212.00,0.0155
3211.00,0.0155
3210.00,0.0154
3209.00,0.0154
3208.00,0.0153
3207.00,0.0153
3206.00,0.0152
3205.00,0.0152
3204.00,0.0151
3203.00,0.0151
3202.00,0.0150
3201.00,0.0149
3200.00,0.0149
3199.00,0.0148
3198.00,0.0148
3197.00,0.0147
3196.00,0.0147
3195.00,0.0146
3194.00,0.0145
3193.00,0.0145
3192.00,0.0144
3191.00,0.0144
3190.00,0.0143
3189.00,0.0142
3188.00,0.0142
3187.00,0.0141
3186.00,0.0140
3185.00,0.0140
3184.00,0.0139
3183.00,0.0138
3182.00,0.0138
3181.00,0.0137
3180.00,0.0136
3179.00,0.0136
3178.00,0.0135
3177.00,0.0134
3176.00,0.0134
3175.00,0.0133
3174.00,0.0132
3173.00,0.0131
3172.00,0.0131
3171.00,0.0130
3170.00,0.0129
3169.00,0.0129
3168.00,0.0128
3167.00,0.0127
3166.00,0.0126
3165.00,0.0126
3164.00,0.0125
3163.00,0.0124
3162.00,0.0124
3161.00,0.0123
3160.00,0.0122
3159.00,0.0122
3158.00,0.0121
3157.00,0.0120
3156.00,0.0119
3155.00,0.0119
3154.00,0.0118
3153.00,0.0117
3152.00,0.0117
3151.00,0.0116
3150.00,0.0116
3149.00,0.0116
3148.00,0.0115
3147.00,0.0115
3146.00,0.0114
3145.00,0.0113
3144.00,0.0113
3143.00,0.0112
3142.00,0.0112
3141.00,0.0111
3140.00,0.0110
3139.00,0.0110
3138.00,0.0109
3137.00,0.0109
3136.00,0.0109
3135.00,0.0108
3134.00,0.0108
3133.00,0.0107
3132.00,0.0107
3131.00,0.0107
3130.00,0.0106
3129.00,0.0106
3128.00,0.0105
3127.00,0.0105
3126.00,0.0105
3125.00,0.0104
3124.00,0.0104
3123.00,0.0104
3122.00,0.0103
3121.00,0.0103
3120.00,0.0103
3119.00,0.0102
3118.00,0.0102
3117.00,0.0102
3116.00,0.0102
3115.00,0.0102
3114.00,0.0102
3113.00,0.0102
3112.00,0.0102
3111.00,0.0102
3110.00,0.0101
3109.00,0.0101
3108.00,0.0101
3107.00,0.0101
3106.00,0.0102
3105.00,0.0102
3104.00,0.0102
3103.00,0.0102
3102.00,0.0101
3101.00,0.0101
3100.00,0.0101
3099.00,0.0101
3098.00,0.0102
3097.00,0.0102
3096.00,0.0102
3095.00,0.0102
3094.00,0.0102
3093.00,0.0102
3092.00,0.0102
3091.00,0.0102
3090.00,0.0102
3089.00,0.0102
3088.00,0.0103
3087.00,0.0103
3086.00,0.0103
3085.00,0.0103
3084.00,0.0103
3083.00,0.0103
3082.00,0.0103
3081.00,0.0103
3080.00,0.0103
3079.00,0.0103
3078.00,0.0103
3077.00,0.0104
3076.00,0.0104
3075.00,0.0104
3074.00,0.0104
3073.00,0.0104
3072.00,0.0104
3071.00,0.0104
3070.00,0.0104
3069.00,0.0104
3068.00,0.0104
3067.00,0.0104
3066.00,0.0104
3065.00,0.0104
3064.00,0.0104
3063.00,0.0104
3062.00,0.0104
3061.00,0.0104
3060.00,0.0103
3059.00,0.0103
3058.00,0.0102
3057.00,0.0102
3056.00,0.0101
3055.00,0.0101
3054.00,0.0101
3053.00,0.0100
3052.00,0.0100
3051.00,0.0100
3050.00,0.0099
3049.00,0.0099
3048.00,0.0098
3047.00,0.0098
3046.00,0.0097
3045.00,0.0097
3044.00,0.0096
3043.00,0.0096
3042.00,0.0096
3041.00,0.0095
3040.00,0.0095
3039.00,0.0095
3038.00,0.0095
3037.00,0.0094
3036.00,0.0094
3035.00,0.0093
3034.00,0.0093
3033.00,0.0092
3032.00,0.0092
3031.00,0.0092
3030.00,0.0092
3029.00,0.0092
3028.00,0.0091
3027.00,0.0091
3026.00,0.0090
3025.00,0.0090
3024.00,0.0089
3023.00,0.0089
3022.00,0.0089
3021.00,0.0088
3020.00,0.0088
3019.00,0.0087
3018.00,0.0087
3017.00,0.0086
3016.00,0.0086
3015.00,0.0086
3014.00,0.0086
3013.00,0.0086
3012.00,0.0087
3011.00,0.0087
3010.00,0.0088
3009.00,0.0088
3008.00,0.0089
3007.00,0.0090
3006.00,0.0091
3005.00,0.0091
3004.00,0.0092
3003.00,0.0093
3002.00,0.0094
3001.00,0.0095
3000.00,0.0095
2999.00,0.0096
2998.00,0.0097
2997.00,0.0097
2996.00,0.0098
2995.00,0.0099
2994.00,0.0099
2993.00,0.0100
2992.00,0.0101
2991.00,0.0102
2990.00,0.0103
2989.00,0.0104
2988.00,0.0105
2987.00,0.0107
2986.00,0.0109
2985.00,0.0111
2984.00,0.0114
2983.00,0.0117
2982.00,0.0119
2981.00,0.0121
2980.00,0.0121
2979.00,0.0120
2978.00,0.0120
2977.00,0.0119
2976.00,0.0119
2975.00,0.0119
2974.00,0.0120
2973.00,0.0121
2972.00,0.0123
2971.00,0.0123
2970.00,0.0123
2969.00,0.0123
2968.00,0.0122
2967.00,0.0122
2966.00,0.0122
2965.00,0.0122
2964.00,0.0121
2963.00,0.0121
2962.00,0.0121
2961.00,0.0120
2960.00,0.0120
2959.00,0.0119
2958.00,0.0118
2957.00,0.0118
2956.00,0.0117
2955.00,0.0116
2954.00,0.0114
2953.00,0.0113
2952.00,0.0112
2951.00,0.0111
2950.00,0.0110
2949.00,0.0109
2948.00,0.0109
2947.00,0.0108
2946.00,0.0108
2945.00,0.0108
2944.00,0.0108
2943.00,0.0108
2942.00,0.0109
2941.00,0.0110
2940.00,0.0111
2939.00,0.0112
2938.00,0.0113
2937.00,0.0114
2936.00,0.0115
2935.00,0.0116
2934.00,0.0116
2933.00,0.0117
2932.00,0.0117
2931.00,0.0118
2930.00,0.0118
2929.00,0.0118
2928.00,0.0118
2927.00,0.0118
2926.00,0.0117
2925.00,0.0117
2924.00,0.0116
2923.00,0.0115
2922.00,0.0114
2921.00,0.0113
2920.00,0.0112
2919.00,0.0110
2918.00,0.0109
2917.00,0.0108
2916.00,0.0107
2915.00,0.0106
2914.00,0.0105
2913.00,0.0104
2912.00,0.0103
2911.00,0.0103
2910.00,0.0102
2909.00,0.0101
2908.00,0.0101
2907.00,0.0101
2906.00,0.0100
2905.00,0.0100
2904.00,0.0099
2903.00,0.0099
2902.00,0.0099
2901.00,0.0098
2900.00,0.0098
2899.00,0.0098
2898.00,0.0097
2897.00,0.0097
2896.00,0.0097
2895.00,0.0097
2894.00,0.0097
2893.00,0.0097
2892.00,0.0097
2891.00,0.0097
2890.00,0.0097
2889.00,0.0097
2888.00,0.0097
2887.00,0.0097
2886.00,0.0097
2885.00,0.0097
2884.00,0.0097
2883.00,0.0097
2882.00,0.0097
2881.00,0.0097
2880.00,0.0097
2879.00,0.0097
2878.00,0.0097
2877.00,0.0097
2876.00,0.0097
2875.00,0.0097
2874.00,0.0096
2873.00,0.0096
2872.00,0.0096
2871.00,0.0095
2870.00,0.0095
2869.00,0.0094
2868.00,0.0093
2867.00,0.0093
2866.00,0.0092
2865.00,0.0091
2864.00,0.0090
2863.00,0.0090
2862.00,0.0090
2861.00,0.0089
2860.00,0.0089
2859.00,0.0089
2858.00,0.0089
2857.00,0.0089
2856.00,0.0089
2855.00,0.0089
2854.00,0.0089
2853.00,0.0088
2852.00,0.0087
2851.00,0.0087
2850.00,0.0086
2849.00,0.0084
2848.00,0.0083
2847.00,0.0082
2846.00,0.0081
2845.00,0.0080
2844.00,0.0079
2843.00,0.0078
2842.00,0.0077
2841.00,0.0077
2840.00,0.0076
2839.00,0.0076
2838.00,0.0075
2837.00,0.0075
2836.00,0.0075
2835.00,0.0074
2834.00,0.0074
2833.00,0.0074
2832.00,0.0073
2831.00,0.0073
2830.00,0.0073
2829.00,0.0073
2828.00,0.0073
2827.00,0.0073
2826.00,0.0072
2825.00,0.0072
2824.00,0.0072
2823.00,0.0072
2822.00,0.0071
2821.00,0.0071
2820.00,0.0071
2819.00,0.0071
2818.00,0.0071
2817.00,0.0070
2816.00,0.0070
2815.00,0.0070
2814.00,0.0070
2813.00,0.0070
2812.00,0.0069
2811.00,0.0069
2810.00,0.0069
2809.00,0.0069
2808.00,0.0069
2807.00,0.0068
2806.00,0.0068
2805.00,0.0068
2804.00,0.0068
2803.00,0.0068
2802.00,0.0068
2801.00,0.0067
2800.00,0.0067
2799.00,0.0067
2798.00,0.0067
2797.00,0.0067
2796.00,0.0067
2795.00,0.0067
2794.00,0.0067
2793.00,0.0066
2792.00,0.0066
2791.00,0.0066
2790.00,0.0066
2789.00,0.0066
2788.00,0.0065
2787.00,0.0065
2786.00,0.0065
2785.00,0.0065
2784.00,0.0065
2783.00,0.0065
2782.00,0.0065
2781.00,0.0064
2780.00,0.0064
2779.00,0.0064
2778.00,0.0064
2777.00,0.0064
2776.00,0.0064
2775.00,0.0063
2774.00,0.0063
2773.00,0.0063
2772.00,0.0063
2771.00,0.0063
2770.00,0.0063
2769.00,0.0063
2768.00,0.0063
2767.00,0.0063
2766.00,0.0062
2765.00,0.0062
2764.00,0.0062
2763.00,0.0062
2762.00,0.0062
2761.00,0.0062
2760.00,0.0061
2759.00,0.0061
2758.00,0.0061
2757.00,0.0061
