Created as New Dataset,Sample 028 By YargerLab Date Friday, November 01 2024
cm-1,A
4000.00,0.0047
3999.00,0.0047
3998.00,0.0047
3997.00,0.0047
3996.00,0.0047
3995.00,0.0047
3994.00,0.0047
3993.00,0.0047
3992.00,0.0047
3991.00,0.0047
3990.00,0.0047
3989.00,0.0047
3988.00,0.0047
3987.00,0.0047
3986.00,0.0047
3985.00,0.0047
3984.00,0.0047
3983.00,0.0047
3982.00,0.0047
3981.00,0.0047
3980.00,0.0047
3979.00,0.0047
3978.00,0.0047
3977.00,0.0047
3976.00,0.0047
3975.00,0.0047
3974.00,0.0047
3973.00,0.0047
3972.00,0.0047
3971.00,0.0048
3970.00,0.0048
3969.00,0.0048
3968.00,0.0048
3967.00,0.0048
3966.00,0.0048
3965.00,0.0048
3964.00,0.0048
3963.00,0.0048
3962.00,0.0048
3961.00,0.0048
3960.00,0.0048
3959.00,0.0048
3958.00,0.0048
3957.00,0.0048
3956.00,0.0048
3955.00,0.0048
3954.00,0.0048
3953.00,0.0048
3952.00,0.0048
3951.00,0.0048
3950.00,0.0048
3949.00,0.0048
3948.00,0.0048
3947.00,0.0048
3946.00,0.0048
3945.00,0.0048
3944.00,0.0048
3943.00,0.0048
3942.00,0.0048
3941.00,0.0048
3940.00,0.0048
3939.00,0.0048
3938.00,0.0047
3937.00,0.0047
3936.00,0.0047
3935.00,0.0047
3934.00,0.0047
3933.00,0.0047
3932.00,0.0048
3931.00,0.0048
3930.00,0.0048
3929.00,0.0048
3928.00,0.0048
3927.00,0.0048
3926.00,0.0048
3925.00,0.0048
3924.00,0.0048
3923.00,0.0048
3922.00,0.0048
3921.00,0.0048
3920.00,0.0048
3919.00,0.0048
3918.00,0.0048
3917.00,0.0048
3916.00,0.0048
3915.00,0.0047
3914.00,0.0047
3913.00,0.0047
3912.00,0.0047
3911.00,0.0047
3910.00,0.0047
3909.00,0.0047
3908.00,0.0047
3907.00,0.0047
3906.00,0.0047
3905.00,0.0047
3904.00,0.0047
3903.00,0.0047
3902.00,0.0047
3901.00,0.0046
3900.00,0.0046
3899.00,0.0046
3898.00,0.0046
3897.00,0.0046
3896.00,0.0046
3895.00,0.0046
3894.00,0.0046
3893.00,0.0046
3892.00,0.0046
3891.00,0.0046
3890.00,0.0046
3889.00,0.0046
3888.00,0.0046
3887.00,0.0046
3886.00,0.0045
3885.00,0.0045
3884.00,0.0045
3883.00,0.0045
3882.00,0.0045
3881.00,0.0045
3880.00,0.0045
3879.00,0.0046
3878.00,0.0046
3877.00,0.0046
3876.00,0.0045
3875.00,0.0045
3874.00,0.0045
3873.00,0.0045
3872.00,0.0045
3871.00,0.0045
3870.00,0.0045
3869.00,0.0045
3868.00,0.0045
3867.00,0.0045
3866.00,0.0045
3865.00,0.0045
3864.00,0.0045
3863.00,0.0045
3862.00,0.0045
3861.00,0.0045
3860.00,0.0045
3859.00,0.0045
3858.00,0.0045
3857.00,0.0045
3856.00,0.0045
3855.00,0.0045
3854.00,0.0045
3853.00,0.0045
3852.00,0.0045
3851.00,0.0045
3850.00,0.0045
3849.00,0.0045
3848.00,0.0045
3847.00,0.0045
3846.00,0.0045
3845.00,0.0045
3844.00,0.0045
3843.00,0.0045
3842.00,0.0045
3841.00,0.0045
3840.00,0.0045
3839.00,0.0045
3838.00,0.0045
3837.00,0.0045
3836.00,0.0045
3835.00,0.0044
3834.00,0.0044
3833.00,0.0044
3832.00,0.0044
3831.00,0.0044
3830.00,0.0044
3829.00,0.0044
3828.00,0.0043
3827.00,0.0043
3826.00,0.0043
3825.00,0.0044
3824.00,0.0044
3823.00,0.0044
3822.00,0.0044
3821.00,0.0043
3820.00,0.0043
3819.00,0.0043
3818.00,0.0043
3817.00,0.0043
3816.00,0.0043
3815.00,0.0043
3814.00,0.0043
3813.00,0.0043
3812.00,0.0043
3811.00,0.0043
3810.00,0.0043
3809.00,0.0043
3808.00,0.0043
3807.00,0.0043
3806.00,0.0043
3805.00,0.0043
3804.00,0.0043
3803.00,0.0043
3802.00,0.0043
3801.00,0.0043
3800.00,0.0043
3799.00,0.0043
3798.00,0.0043
3797.00,0.0042
3796.00,0.0042
3795.00,0.0042
3794.00,0.0042
3793.00,0.0042
3792.00,0.0043
3791.00,0.0043
3790.00,0.0043
3789.00,0.0043
3788.00,0.0042
3787.00,0.0042
3786.00,0.0042
3785.00,0.0042
3784.00,0.0042
3783.00,0.0042
3782.00,0.0042
3781.00,0.0042
3780.00,0.0042
3779.00,0.0042
3778.00,0.0042
3777.00,0.0042
3776.00,0.0042
3775.00,0.0042
3774.00,0.0042
3773.00,0.0042
3772.00,0.0042
3771.00,0.0042
3770.00,0.0042
3769.00,0.0042
3768.00,0.0042
3767.00,0.0042
3766.00,0.0042
3765.00,0.0042
3764.00,0.0042
3763.00,0.0042
3762.00,0.0042
3761.00,0.0042
3760.00,0.0042
3759.00,0.0042
3758.00,0.0042
3757.00,0.0042
3756.00,0.0042
3755.00,0.0042
3754.00,0.0042
3753.00,0.0042
3752.00,0.0042
3751.00,0.0042
3750.00,0.0042
3749.00,0.0042
3748.00,0.0042
3747.00,0.0041
3746.00,0.0041
3745.00,0.0041
3744.00,0.0041
3743.00,0.0041
3742.00,0.0041
3741.00,0.0041
3740.00,0.0041
3739.00,0.0041
3738.00,0.0041
3737.00,0.0041
3736.00,0.0041
3735.00,0.0041
3734.00,0.0041
3733.00,0.0041
3732.00,0.0040
3731.00,0.0040
3730.00,0.0041
3729.00,0.0041
3728.00,0.0041
3727.00,0.0040
3726.00,0.0040
3725.00,0.0040
3724.00,0.0040
3723.00,0.0040
3722.00,0.0040
3721.00,0.0040
3720.00,0.0040
3719.00,0.0040
3718.00,0.0040
3717.00,0.0040
3716.00,0.0040
3715.00,0.0040
3714.00,0.0040
3713.00,0.0040
3712.00,0.0040
3711.00,0.0040
3710.00,0.0040
3709.00,0.0040
3708.00,0.0040
3707.00,0.0040
3706.00,0.0040
3705.00,0.0040
3704.00,0.0040
3703.00,0.0040
3702.00,0.0040
3701.00,0.0040
3700.00,0.0040
3699.00,0.0040
3698.00,0.0040
3697.00,0.0040
3696.00,0.0040
3695.00,0.0040
3694.00,0.0040
3693.00,0.0040
3692.00,0.0040
3691.00,0.0040
3690.00,0.0040
3689.00,0.0040
3688.00,0.0039
3687.00,0.0039
3686.00,0.0039
3685.00,0.0039
3684.00,0.0038
3683.00,0.0038
3682.00,0.0038
3681.00,0.0037
3680.00,0.0037
3679.00,0.0037
3678.00,0.0037
3677.00,0.0036
3676.00,0.0036
3675.00,0.0035
3674.00,0.0035
3673.00,0.0035
3672.00,0.0035
3671.00,0.0035
3670.00,0.0035
3669.00,0.0035
3668.00,0.0035
3667.00,0.0035
3666.00,0.0034
3665.00,0.0034
3664.00,0.0034
3663.00,0.0034
3662.00,0.0034
3661.00,0.0034
3660.00,0.0034
3659.00,0.0033
3658.00,0.0033
3657.00,0.0033
3656.00,0.0033
3655.00,0.0034
3654.00,0.0034
3653.00,0.0034
3652.00,0.0034
3651.00,0.0034
3650.00,0.0034
3649.00,0.0034
3648.00,0.0034
3647.00,0.0034
3646.00,0.0034
3645.00,0.0035
3644.00,0.0035
3643.00,0.0035
3642.00,0.0036
3641.00,0.0036
3640.00,0.0036
3639.00,0.0036
3638.00,0.0036
3637.00,0.0036
3636.00,0.0036
3635.00,0.0037
3634.00,0.0037
3633.00,0.0038
3632.00,0.0038
3631.00,0.0039
3630.00,0.0039
3629.00,0.0039
3628.00,0.0039
3627.00,0.0040
3626.00,0.0040
3625.00,0.0040
3624.00,0.0040
3623.00,0.0041
3622.00,0.0041
3621.00,0.0041
3620.00,0.0041
3619.00,0.0041
3618.00,0.0042
3617.00,0.0042
3616.00,0.0043
3615.00,0.0043
3614.00,0.0043
3613.00,0.0043
3612.00,0.0043
3611.00,0.0043
3610.00,0.0044
3609.00,0.0044
3608.00,0.0044
3607.00,0.0043
3606.00,0.0043
3605.00,0.0043
3604.00,0.0043
3603.00,0.0044
3602.00,0.0044
3601.00,0.0044
3600.00,0.0044
3599.00,0.0044
3598.00,0.0044
3597.00,0.0045
3596.00,0.0045
3595.00,0.0045
3594.00,0.0045
3593.00,0.0045
3592.00,0.0046
3591.00,0.0046
3590.00,0.0046
3589.00,0.0046
3588.00,0.0047
3587.00,0.0047
3586.00,0.0047
3585.00,0.0048
3584.00,0.0048
3583.00,0.0048
3582.00,0.0049
3581.00,0.0049
3580.00,0.0049
3579.00,0.0050
3578.00,0.0050
3577.00,0.0051
3576.00,0.0051
3575.00,0.0052
3574.00,0.0052
3573.00,0.0053
3572.00,0.0053
3571.00,0.0053
3570.00,0.0053
3569.00,0.0054
3568.00,0.0055
3567.00,0.0056
3566.00,0.0057
3565.00,0.0057
3564.00,0.0058
3563.00,0.0059
3562.00,0.0060
3561.00,0.0061
3560.00,0.0062
3559.00,0.0063
3558.00,0.0064
3557.00,0.0065
3556.00,0.0066
3555.00,0.0067
3554.00,0.0068
3553.00,0.0070
3552.00,0.0071
3551.00,0.0073
3550.00,0.0075
3549.00,0.0077
3548.00,0.0079
3547.00,0.0081
3546.00,0.0084
3545.00,0.0087
3544.00,0.0090
3543.00,0.0093
3542.00,0.0097
3541.00,0.0101
3540.00,0.0105
3539.00,0.0110
3538.00,0.0115
3537.00,0.0122
3536.00,0.0129
3535.00,0.0137
3534.00,0.0147
3533.00,0.0158
3532.00,0.0170
3531.00,0.0185
3530.00,0.0203
3529.00,0.0223
3528.00,0.0245
3527.00,0.0269
3526.00,0.0292
3525.00,0.0315
3524.00,0.0336
3523.00,0.0353
3522.00,0.0366
3521.00,0.0374
3520.00,0.0377
3519.00,0.0375
3518.00,0.0368
3517.00,0.0358
3516.00,0.0345
3515.00,0.0331
3514.00,0.0315
3513.00,0.0299
3512.00,0.0284
3511.00,0.0270
3510.00,0.0257
3509.00,0.0245
3508.00,0.0235
3507.00,0.0227
3506.00,0.0220
3505.00,0.0214
3504.00,0.0210
3503.00,0.0206
3502.00,0.0204
3501.00,0.0202
3500.00,0.0201
3499.00,0.0200
3498.00,0.0200
3497.00,0.0201
3496.00,0.0202
3495.00,0.0203
3494.00,0.0205
3493.00,0.0207
3492.00,0.0209
3491.00,0.0211
3490.00,0.0214
3489.00,0.0217
3488.00,0.0220
3487.00,0.0223
3486.00,0.0227
3485.00,0.0231
3484.00,0.0235
3483.00,0.0239
3482.00,0.0243
3481.00,0.0248
3480.00,0.0253
3479.00,0.0258
3478.00,0.0263
3477.00,0.0268
3476.00,0.0274
3475.00,0.0280
3474.00,0.0287
3473.00,0.0294
3472.00,0.0301
3471.00,0.0309
3470.00,0.0317
3469.00,0.0326
3468.00,0.0335
3467.00,0.0345
3466.00,0.0356
3465.00,0.0367
3464.00,0.0380
3463.00,0.0393
3462.00,0.0407
3461.00,0.0422
3460.00,0.0438
3459.00,0.0455
3458.00,0.0472
3457.00,0.0490
3456.00,0.0508
3455.00,0.0526
3454.00,0.0543
3453.00,0.0557
3452.00,0.0570
3451.00,0.0580
3450.00,0.0586
3449.00,0.0589
3448.00,0.0589
3447.00,0.0587
3446.00,0.0583
3445.00,0.0577
3444.00,0.0570
3443.00,0.0563
3442.00,0.0555
3441.00,0.0549
3440.00,0.0542
3439.00,0.0537
3438.00,0.0532
3437.00,0.0528
3436.00,0.0525
3435.00,0.0522
3434.00,0.0520
3433.00,0.0518
3432.00,0.0517
3431.00,0.0517
3430.00,0.0518
3429.00,0.0519
3428.00,0.0520
3427.00,0.0522
3426.00,0.0524
3425.00,0.0527
3424.00,0.0530
3423.00,0.0534
3422.00,0.0539
3421.00,0.0544
3420.00,0.0550
3419.00,0.0556
3418.00,0.0562
3417.00,0.0568
3416.00,0.0574
3415.00,0.0580
3414.00,0.0586
3413.00,0.0592
3412.00,0.0596
3411.00,0.0599
3410.00,0.0601
3409.00,0.0601
3408.00,0.0599
3407.00,0.0595
3406.00,0.0589
3405.00,0.0582
3404.00,0.0572
3403.00,0.0561
3402.00,0.0549
3401.00,0.0534
3400.00,0.0519
3399.00,0.0503
3398.00,0.0486
3397.00,0.0470
3396.00,0.0454
3395.00,0.0438
3394.00,0.0424
3393.00,0.0410
3392.00,0.0396
3391.00,0.0384
3390.00,0.0372
3389.00,0.0361
3388.00,0.0351
3387.00,0.0341
3386.00,0.0332
3385.00,0.0324
3384.00,0.0316
3383.00,0.0309
3382.00,0.0302
3381.00,0.0296
3380.00,0.0290
3379.00,0.0284
3378.00,0.0278
3377.00,0.0273
3376.00,0.0268
3375.00,0.0263
3374.00,0.0259
3373.00,0.0255
3372.00,0.0251
3371.00,0.0247
3370.00,0.0243
3369.00,0.0239
3368.00,0.0236
3367.00,0.0232
3366.00,0.0229
3365.00,0.0225
3364.00,0.0222
3363.00,0.0219
3362.00,0.0216
3361.00,0.0213
3360.00,0.0211
3359.00,0.0208
3358.00,0.0206
3357.00,0.0203
3356.00,0.0201
3355.00,0.0199
3354.00,0.0197
3353.00,0.0195
3352.00,0.0193
3351.00,0.0191
3350.00,0.0189
3349.00,0.0187
3348.00,0.0185
3347.00,0.0184
3346.00,0.0182
3345.00,0.0180
3344.00,0.0179
3343.00,0.0178
3342.00,0.0176
3341.00,0.0175
3340.00,0.0174
3339.00,0.0172
3338.00,0.0171
3337.00,0.0170
3336.00,0.0169
3335.00,0.0168
3334.00,0.0167
3333.00,0.0166
3332.00,0.0165
3331.00,0.0164
3330.00,0.0164
3329.00,0.0163
3328.00,0.0162
3327.00,0.0161
3326.00,0.0160
3325.00,0.0159
3324.00,0.0159
3323.00,0.0158
3322.00,0.0158
3321.00,0.0157
3320.00,0.0157
3319.00,0.0156
3318.00,0.0156
3317.00,0.0156
3316.00,0.0155
3315.00,0.0155
3314.00,0.0155
3313.00,0.0155
3312.00,0.0154
3311.00,0.0153
3310.00,0.0153
3309.00,0.0152
3308.00,0.0152
3307.00,0.0152
3306.00,0.0151
3305.00,0.0151
3304.00,0.0151
3303.00,0.0152
3302.00,0.0152
3301.00,0.0151
3300.00,0.0151
3299.00,0.0151
3298.00,0.0151
3297.00,0.0150
3296.00,0.0150
3295.00,0.0150
3294.00,0.0150
3293.00,0.0150
3292.00,0.0150
3291.00,0.0150
3290.00,0.0151
3289.00,0.0151
3288.00,0.0152
3287.00,0.0152
3286.00,0.0152
3285.00,0.0152
3284.00,0.0152
3283.00,0.0153
3282.00,0.0153
3281.00,0.0153
3280.00,0.0153
3279.00,0.0153
3278.00,0.0153
3277.00,0.0153
3276.00,0.0153
3275.00,0.0153
3274.00,0.0153
3273.00,0.0153
3272.00,0.0153
3271.00,0.0153
3270.00,0.0155
3269.00,0.0156
3268.00,0.0157
3267.00,0.0158
3266.00,0.0159
3265.00,0.0159
3264.00,0.0160
3263.00,0.0160
3262.00,0.0161
3261.00,0.0161
3260.00,0.0161
3259.00,0.0161
3258.00,0.0161
3257.00,0.0161
3256.00,0.0162
3255.00,0.0162
3254.00,0.0163
3253.00,0.0163
3252.00,0.0164
3251.00,0.0164
3250.00,0.0164
3249.00,0.0164
3248.00,0.0164
3247.00,0.0164
3246.00,0.0165
3245.00,0.0166
3244.00,0.0167
3243.00,0.0167
3242.00,0.0168
3241.00,0.0168
3240.00,0.0169
3239.00,0.0169
3238.00,0.0169
3237.00,0.0169
3236.00,0.0169
3235.00,0.0169
3234.00,0.0169
3233.00,0.0170
3232.00,0.0170
3231.00,0.0171
3230.00,0.0172
3229.00,0.0173
3228.00,0.0173
3227.00,0.0174
3226.00,0.0174
3225.00,0.0175
3224.00,0.0175
3223.00,0.0176
3222.00,0.0176
3221.00,0.0177
3220.00,0.0177
3219.00,0.0178
3218.00,0.0178
3217.00,0.0179
3216.00,0.0179
3215.00,0.0180
3214.00,0.0180
3213.00,0.0181
3212.00,0.0182
3211.00,0.0182
3210.00,0.0183
3209.00,0.0184
3208.00,0.0184
3207.00,0.0185
3206.00,0.0186
3205.00,0.0186
3204.00,0.0187
3203.00,0.0187
3202.00,0.0188
3201.00,0.0188
3200.00,0.0189
3199.00,0.0189
3198.00,0.0190
3197.00,0.0190
3196.00,0.0191
3195.00,0.0191
3194.00,0.0191
3193.00,0.0192
3192.00,0.0192
3191.00,0.0192
3190.00,0.0193
3189.00,0.0193
3188.00,0.0194
3187.00,0.0194
3186.00,0.0194
3185.00,0.0195
3184.00,0.0195
3183.00,0.0196
3182.00,0.0196
3181.00,0.0197
3180.00,0.0197
3179.00,0.0198
3178.00,0.0198
3177.00,0.0199
3176.00,0.0199
3175.00,0.0200
3174.00,0.0200
3173.00,0.0201
3172.00,0.0201
3171.00,0.0201
3170.00,0.0202
3169.00,0.0202
3168.00,0.0203
3167.00,0.0203
3166.00,0.0203
3165.00,0.0204
3164.00,0.0204
3163.00,0.0204
3162.00,0.0205
3161.00,0.0205
3160.00,0.0205
3159.00,0.0205
3158.00,0.0205
3157.00,0.0205
3156.00,0.0205
3155.00,0.0204
3154.00,0.0204
3153.00,0.0204
3152.00,0.0205
3151.00,0.0206
3150.00,0.0207
3149.00,0.0209
3148.00,0.0210
3147.00,0.0211
3146.00,0.0211
3145.00,0.0212
3144.00,0.0213
3143.00,0.0213
3142.00,0.0213
3141.00,0.0213
3140.00,0.0213
3139.00,0.0214
3138.00,0.0215
3137.00,0.0216
3136.00,0.0217
3135.00,0.0218
3134.00,0.0219
3133.00,0.0219
3132.00,0.0220
3131.00,0.0220
3130.00,0.0220
3129.00,0.0221
3128.00,0.0222
3127.00,0.0222
3126.00,0.0223
3125.00,0.0223
3124.00,0.0223
3123.00,0.0223
3122.00,0.0223
3121.00,0.0223
3120.00,0.0223
3119.00,0.0224
3118.00,0.0224
3117.00,0.0225
3116.00,0.0226
3115.00,0.0227
3114.00,0.0229
3113.00,0.0229
3112.00,0.0230
3111.00,0.0231
3110.00,0.0231
3109.00,0.0232
3108.00,0.0233
3107.00,0.0234
3106.00,0.0235
3105.00,0.0236
3104.00,0.0237
3103.00,0.0238
3102.00,0.0238
3101.00,0.0239
3100.00,0.0240
3099.00,0.0240
3098.00,0.0241
3097.00,0.0242
3096.00,0.0243
3095.00,0.0243
3094.00,0.0244
3093.00,0.0244
3092.00,0.0245
3091.00,0.0246
3090.00,0.0247
3089.00,0.0248
3088.00,0.0249
3087.00,0.0251
3086.00,0.0253
3085.00,0.0255
3084.00,0.0258
3083.00,0.0262
3082.00,0.0267
3081.00,0.0273
3080.00,0.0282
3079.00,0.0292
3078.00,0.0303
3077.00,0.0314
3076.00,0.0324
3075.00,0.0330
3074.00,0.0332
3073.00,0.0329
3072.00,0.0324
3071.00,0.0316
3070.00,0.0309
3069.00,0.0301
3068.00,0.0295
3067.00,0.0289
3066.00,0.0284
3065.00,0.0280
3064.00,0.0276
3063.00,0.0273
3062.00,0.0270
3061.00,0.0266
3060.00,0.0263
3059.00,0.0261
3058.00,0.0258
3057.00,0.0256
3056.00,0.0254
3055.00,0.0253
3054.00,0.0251
3053.00,0.0250
3052.00,0.0249
3051.00,0.0249
3050.00,0.0248
3049.00,0.0248
3048.00,0.0248
3047.00,0.0248
3046.00,0.0248
3045.00,0.0249
3044.00,0.0249
3043.00,0.0250
3042.00,0.0250
3041.00,0.0251
3040.00,0.0251
3039.00,0.0252
3038.00,0.0253
3037.00,0.0254
3036.00,0.0255
3035.00,0.0255
3034.00,0.0256
3033.00,0.0256
3032.00,0.0255
3031.00,0.0254
3030.00,0.0253
3029.00,0.0251
3028.00,0.0248
3027.00,0.0246
3026.00,0.0243
3025.00,0.0241
3024.00,0.0240
3023.00,0.0238
3022.00,0.0236
3021.00,0.0235
3020.00,0.0234
3019.00,0.0233
3018.00,0.0232
3017.00,0.0231
3016.00,0.0230
3015.00,0.0230
3014.00,0.0230
3013.00,0.0230
3012.00,0.0230
3011.00,0.0230
3010.00,0.0230
3009.00,0.0230
3008.00,0.0230
3007.00,0.0229
3006.00,0.0229
3005.00,0.0228
3004.00,0.0228
3003.00,0.0227
3002.00,0.0227
3001.00,0.0227
3000.00,0.0227
2999.00,0.0228
2998.00,0.0229
2997.00,0.0231
2996.00,0.0233
2995.00,0.0236
2994.00,0.0240
2993.00,0.0244
2992.00,0.0248
2991.00,0.0253
2990.00,0.0258
2989.00,0.0263
2988.00,0.0267
2987.00,0.0270
2986.00,0.0272
2985.00,0.0273
2984.00,0.0273
2983.00,0.0274
2982.00,0.0277
2981.00,0.0284
2980.00,0.0294
2979.00,0.0307
2978.00,0.0322
2977.00,0.0338
2976.00,0.0355
2975.00,0.0372
2974.00,0.0390
2973.00,0.0408
2972.00,0.0428
2971.00,0.0448
2970.00,0.0470
2969.00,0.0491
2968.00,0.0510
2967.00,0.0526
2966.00,0.0539
2965.00,0.0549
2964.00,0.0558
2963.00,0.0565
2962.00,0.0572
2961.00,0.0578
2960.00,0.0582
2959.00,0.0585
2958.00,0.0584
2957.00,0.0582
2956.00,0.0578
2955.00,0.0573
2954.00,0.0567
2953.00,0.0560
2952.00,0.0554
2951.00,0.0548
2950.00,0.0544
2949.00,0.0542
2948.00,0.0545
2947.00,0.0552
2946.00,0.0564
2945.00,0.0581
2944.00,0.0601
2943.00,0.0622
2942.00,0.0644
2941.00,0.0666
2940.00,0.0688
2939.00,0.0711
2938.00,0.0735
2937.00,0.0761
2936.00,0.0789
2935.00,0.0818
2934.00,0.0850
2933.00,0.0884
2932.00,0.0918
2931.00,0.0954
2930.00,0.0989
2929.00,0.1022
2928.00,0.1051
2927.00,0.1074
2926.00,0.1090
2925.00,0.1098
2924.00,0.1098
2923.00,0.1092
2922.00,0.1081
2921.00,0.1067
2920.00,0.1052
2919.00,0.1037
2918.00,0.1021
2917.00,0.1005
2916.00,0.0988
2915.00,0.0968
2914.00,0.0945
2913.00,0.0919
2912.00,0.0891
2911.00,0.0861
2910.00,0.0831
2909.00,0.0800
2908.00,0.0772
2907.00,0.0745
2906.00,0.0720
2905.00,0.0698
2904.00,0.0679
2903.00,0.0663
2902.00,0.0648
2901.00,0.0635
2900.00,0.0621
2899.00,0.0607
2898.00,0.0593
2897.00,0.0577
2896.00,0.0562
2895.00,0.0548
2894.00,0.0534
2893.00,0.0523
2892.00,0.0513
2891.00,0.0505
2890.00,0.0498
2889.00,0.0493
2888.00,0.0489
2887.00,0.0486
2886.00,0.0484
2885.00,0.0482
2884.00,0.0480
2883.00,0.0479
2882.00,0.0480
2881.00,0.0481
2880.00,0.0485
2879.00,0.0490
2878.00,0.0496
2877.00,0.0504
2876.00,0.0514
2875.00,0.0524
2874.00,0.0535
2873.00,0.0545
2872.00,0.0552
2871.00,0.0555
2870.00,0.0553
2869.00,0.0547
2868.00,0.0540
2867.00,0.0534
2866.00,0.0532
2865.00,0.0536
2864.00,0.0547
2863.00,0.0566
2862.00,0.0591
2861.00,0.0622
2860.00,0.0657
2859.00,0.0693
2858.00,0.0724
2857.00,0.0745
2856.00,0.0754
2855.00,0.0747
2854.00,0.0727
2853.00,0.0697
2852.00,0.0661
2851.00,0.0622
2850.00,0.0584
2849.00,0.0548
2848.00,0.0515
2847.00,0.0485
2846.00,0.0460
2845.00,0.0438
2844.00,0.0420
2843.00,0.0404
2842.00,0.0391
2841.00,0.0381
2840.00,0.0373
2839.00,0.0368
2838.00,0.0367
2837.00,0.0370
2836.00,0.0377
2835.00,0.0387
2834.00,0.0400
2833.00,0.0415
2832.00,0.0429
2831.00,0.0439
2830.00,0.0443
2829.00,0.0437
2828.00,0.0422
2827.00,0.0401
2826.00,0.0376
2825.00,0.0352
2824.00,0.0330
2823.00,0.0311
2822.00,0.0296
2821.00,0.0283
2820.00,0.0273
2819.00,0.0265
2818.00,0.0258
2817.00,0.0252
2816.00,0.0247
2815.00,0.0243
2814.00,0.0239
2813.00,0.0236
2812.00,0.0233
2811.00,0.0231
2810.00,0.0228
2809.00,0.0226
2808.00,0.0224
2807.00,0.0222
2806.00,0.0220
2805.00,0.0218
2804.00,0.0216
2803.00,0.0214
2802.00,0.0213
2801.00,0.0211
2800.00,0.0210
2799.00,0.0208
2798.00,0.0207
2797.00,0.0205
2796.00,0.0204
2795.00,0.0203
2794.00,0.0202
2793.00,0.0201
2792.00,0.0201
2791.00,0.0200
2790.00,0.0199
2789.00,0.0198
2788.00,0.0198
2787.00,0.0197
2786.00,0.0197
2785.00,0.0196
2784.00,0.0195
2783.00,0.0195
2782.00,0.0195
2781.00,0.0194
2780.00,0.0194
2779.00,0.0194
2778.00,0.0193
2777.00,0.0193
2776.00,0.0193
2775.00,0.0192
2774.00,0.0192
2773.00,0.0192
2772.00,0.0192
2771.00,0.0192
2770.00,0.0192
2769.00,0.0192
2768.00,0.0191
2767.00,0.0191
2766.00,0.0191
2765.00,0.0191
2764.00,0.0191
2763.00,0.0190
2762.00,0.0190
2761.00,0.0190
2760.00,0.0190
2759.00,0.0190
2758.00,0.0190
2757.00,0.0190
