Created as New Dataset,Sample 377 By YargerLab Date Wednesday, October 23 2024
cm-1,A
4000.00,0.0004
3999.00,0.0004
3998.00,0.0004
3997.00,0.0004
3996.00,0.0004
3995.00,0.0004
3994.00,0.0004
3993.00,0.0004
3992.00,0.0004
3991.00,0.0004
3990.00,0.0004
3989.00,0.0004
3988.00,0.0004
3987.00,0.0004
3986.00,0.0004
3985.00,0.0004
3984.00,0.0004
3983.00,0.0004
3982.00,0.0004
3981.00,0.0004
3980.00,0.0004
3979.00,0.0004
3978.00,0.0004
3977.00,0.0004
3976.00,0.0004
3975.00,0.0004
3974.00,0.0004
3973.00,0.0004
3972.00,0.0004
3971.00,0.0004
3970.00,0.0003
3969.00,0.0003
3968.00,0.0003
3967.00,0.0003
3966.00,0.0003
3965.00,0.0003
3964.00,0.0003
3963.00,0.0003
3962.00,0.0003
3961.00,0.0003
3960.00,0.0003
3959.00,0.0003
3958.00,0.0003
3957.00,0.0003
3956.00,0.0003
3955.00,0.0003
3954.00,0.0003
3953.00,0.0003
3952.00,0.0003
3951.00,0.0003
3950.00,0.0003
3949.00,0.0003
3948.00,0.0003
3947.00,0.0003
3946.00,0.0003
3945.00,0.0003
3944.00,0.0003
3943.00,0.0003
3942.00,0.0003
3941.00,0.0003
3940.00,0.0003
3939.00,0.0003
3938.00,0.0003
3937.00,0.0003
3936.00,0.0003
3935.00,0.0003
3934.00,0.0003
3933.00,0.0003
3932.00,0.0003
3931.00,0.0003
3930.00,0.0003
3929.00,0.0003
3928.00,0.0003
3927.00,0.0003
3926.00,0.0003
3925.00,0.0003
3924.00,0.0003
3923.00,0.0003
3922.00,0.0003
3921.00,0.0003
3920.00,0.0003
3919.00,0.0003
3918.00,0.0003
3917.00,0.0003
3916.00,0.0003
3915.00,0.0003
3914.00,0.0003
3913.00,0.0003
3912.00,0.0003
3911.00,0.0003
3910.00,0.0003
3909.00,0.0002
3908.00,0.0002
3907.00,0.0002
3906.00,0.0002
3905.00,0.0002
3904.00,0.0002
3903.00,0.0002
3902.00,0.0002
3901.00,0.0002
3900.00,0.0002
3899.00,0.0002
3898.00,0.0002
3897.00,0.0002
3896.00,0.0002
3895.00,0.0002
3894.00,0.0002
3893.00,0.0002
3892.00,0.0002
3891.00,0.0002
3890.00,0.0002
3889.00,0.0002
3888.00,0.0002
3887.00,0.0002
3886.00,0.0002
3885.00,0.0002
3884.00,0.0002
3883.00,0.0002
3882.00,0.0002
3881.00,0.0002
3880.00,0.0002
3879.00,0.0002
3878.00,0.0002
3877.00,0.0002
3876.00,0.0002
3875.00,0.0002
3874.00,0.0002
3873.00,0.0002
3872.00,0.0002
3871.00,0.0001
3870.00,0.0001
3869.00,0.0001
3868.00,0.0001
3867.00,0.0001
3866.00,0.0001
3865.00,0.0001
3864.00,0.0002
3863.00,0.0002
3862.00,0.0002
3861.00,0.0002
3860.00,0.0002
3859.00,0.0002
3858.00,0.0002
3857.00,0.0002
3856.00,0.0002
3855.00,0.0001
3854.00,0.0001
3853.00,0.0001
3852.00,0.0001
3851.00,0.0001
3850.00,0.0001
3849.00,0.0001
3848.00,0.0001
3847.00,0.0001
3846.00,0.0002
3845.00,0.0002
3844.00,0.0002
3843.00,0.0002
3842.00,0.0002
3841.00,0.0001
3840.00,0.0001
3839.00,0.0001
3838.00,0.0001
3837.00,0.0001
3836.00,0.0001
3835.00,0.0001
3834.00,0.0001
3833.00,0.0001
3832.00,0.0001
3831.00,0.0001
3830.00,0.0001
3829.00,0.0001
3828.00,0.0001
3827.00,0.0001
3826.00,0.0001
3825.00,0.0001
3824.00,0.0001
3823.00,0.0001
3822.00,0.0001
3821.00,0.0001
3820.00,0.0001
3819.00,0.0001
3818.00,0.0001
3817.00,0.0001
3816.00,0.0001
3815.00,0.0001
3814.00,0.0001
3813.00,0.0001
3812.00,0.0001
3811.00,0.0001
3810.00,0.0001
3809.00,0.0001
3808.00,0.0001
3807.00,0.0001
3806.00,0.0001
3805.00,0.0001
3804.00,0.0001
3803.00,0.0001
3802.00,0.0001
3801.00,0.0001
3800.00,0.0001
3799.00,0.0001
3798.00,0.0001
3797.00,0.0001
3796.00,0.0001
3795.00,0.0001
3794.00,0.0001
3793.00,0.0001
3792.00,0.0001
3791.00,0.0001
3790.00,0.0001
3789.00,0.0002
3788.00,0.0002
3787.00,0.0002
3786.00,0.0002
3785.00,0.0001
3784.00,0.0001
3783.00,0.0001
3782.00,0.0001
3781.00,0.0001
3780.00,0.0001
3779.00,0.0001
3778.00,0.0002
3777.00,0.0002
3776.00,0.0002
3775.00,0.0002
3774.00,0.0002
3773.00,0.0002
3772.00,0.0001
3771.00,0.0001
3770.00,0.0001
3769.00,0.0002
3768.00,0.0002
3767.00,0.0002
3766.00,0.0002
3765.00,0.0002
3764.00,0.0001
3763.00,0.0001
3762.00,0.0001
3761.00,0.0001
3760.00,0.0001
3759.00,0.0001
3758.00,0.0001
3757.00,0.0001
3756.00,0.0001
3755.00,0.0001
3754.00,0.0001
3753.00,0.0001
3752.00,0.0001
3751.00,0.0001
3750.00,0.0001
3749.00,0.0001
3748.00,0.0001
3747.00,0.0000
3746.00,0.0000
3745.00,0.0001
3744.00,0.0001
3743.00,0.0001
3742.00,0.0001
3741.00,0.0001
3740.00,0.0001
3739.00,0.0001
3738.00,0.0001
3737.00,0.0001
3736.00,0.0001
3735.00,0.0001
3734.00,0.0001
3733.00,0.0001
3732.00,0.0001
3731.00,0.0001
3730.00,0.0001
3729.00,0.0001
3728.00,0.0001
3727.00,0.0001
3726.00,0.0001
3725.00,0.0002
3724.00,0.0002
3723.00,0.0002
3722.00,0.0002
3721.00,0.0001
3720.00,0.0002
3719.00,0.0002
3718.00,0.0002
3717.00,0.0002
3716.00,0.0002
3715.00,0.0002
3714.00,0.0002
3713.00,0.0002
3712.00,0.0002
3711.00,0.0002
3710.00,0.0002
3709.00,0.0002
3708.00,0.0002
3707.00,0.0002
3706.00,0.0002
3705.00,0.0002
3704.00,0.0002
3703.00,0.0002
3702.00,0.0002
3701.00,0.0002
3700.00,0.0002
3699.00,0.0002
3698.00,0.0002
3697.00,0.0002
3696.00,0.0002
3695.00,0.0002
3694.00,0.0002
3693.00,0.0002
3692.00,0.0002
3691.00,0.0002
3690.00,0.0002
3689.00,0.0002
3688.00,0.0002
3687.00,0.0003
3686.00,0.0003
3685.00,0.0003
3684.00,0.0003
3683.00,0.0004
3682.00,0.0004
3681.00,0.0004
3680.00,0.0004
3679.00,0.0004
3678.00,0.0004
3677.00,0.0004
3676.00,0.0004
3675.00,0.0004
3674.00,0.0004
3673.00,0.0004
3672.00,0.0004
3671.00,0.0004
3670.00,0.0004
3669.00,0.0005
3668.00,0.0005
3667.00,0.0005
3666.00,0.0006
3665.00,0.0006
3664.00,0.0006
3663.00,0.0007
3662.00,0.0007
3661.00,0.0007
3660.00,0.0007
3659.00,0.0007
3658.00,0.0007
3657.00,0.0007
3656.00,0.0007
3655.00,0.0008
3654.00,0.0008
3653.00,0.0008
3652.00,0.0008
3651.00,0.0008
3650.00,0.0008
3649.00,0.0009
3648.00,0.0009
3647.00,0.0010
3646.00,0.0010
3645.00,0.0010
3644.00,0.0011
3643.00,0.0011
3642.00,0.0011
3641.00,0.0012
3640.00,0.0012
3639.00,0.0012
3638.00,0.0013
3637.00,0.0013
3636.00,0.0013
3635.00,0.0013
3634.00,0.0013
3633.00,0.0014
3632.00,0.0014
3631.00,0.0015
3630.00,0.0015
3629.00,0.0015
3628.00,0.0016
3627.00,0.0016
3626.00,0.0016
3625.00,0.0017
3624.00,0.0017
3623.00,0.0017
3622.00,0.0018
3621.00,0.0018
3620.00,0.0018
3619.00,0.0019
3618.00,0.0019
3617.00,0.0019
3616.00,0.0020
3615.00,0.0020
3614.00,0.0021
3613.00,0.0021
3612.00,0.0022
3611.00,0.0022
3610.00,0.0023
3609.00,0.0023
3608.00,0.0023
3607.00,0.0024
3606.00,0.0024
3605.00,0.0024
3604.00,0.0025
3603.00,0.0026
3602.00,0.0026
3601.00,0.0027
3600.00,0.0027
3599.00,0.0027
3598.00,0.0027
3597.00,0.0028
3596.00,0.0028
3595.00,0.0028
3594.00,0.0029
3593.00,0.0029
3592.00,0.0030
3591.00,0.0031
3590.00,0.0031
3589.00,0.0032
3588.00,0.0032
3587.00,0.0033
3586.00,0.0033
3585.00,0.0033
3584.00,0.0034
3583.00,0.0034
3582.00,0.0035
3581.00,0.0036
3580.00,0.0036
3579.00,0.0037
3578.00,0.0037
3577.00,0.0038
3576.00,0.0038
3575.00,0.0039
3574.00,0.0039
3573.00,0.0040
3572.00,0.0040
3571.00,0.0041
3570.00,0.0041
3569.00,0.0041
3568.00,0.0042
3567.00,0.0042
3566.00,0.0043
3565.00,0.0043
3564.00,0.0044
3563.00,0.0045
3562.00,0.0045
3561.00,0.0046
3560.00,0.0046
3559.00,0.0047
3558.00,0.0047
3557.00,0.0048
3556.00,0.0048
3555.00,0.0049
3554.00,0.0049
3553.00,0.0050
3552.00,0.0051
3551.00,0.0051
3550.00,0.0052
3549.00,0.0052
3548.00,0.0053
3547.00,0.0053
3546.00,0.0054
3545.00,0.0054
3544.00,0.0055
3543.00,0.0055
3542.00,0.0056
3541.00,0.0056
3540.00,0.0057
3539.00,0.0057
3538.00,0.0058
3537.00,0.0058
3536.00,0.0059
3535.00,0.0059
3534.00,0.0060
3533.00,0.0061
3532.00,0.0061
3531.00,0.0062
3530.00,0.0063
3529.00,0.0063
3528.00,0.0064
3527.00,0.0064
3526.00,0.0065
3525.00,0.0065
3524.00,0.0066
3523.00,0.0066
3522.00,0.0067
3521.00,0.0068
3520.00,0.0068
3519.00,0.0069
3518.00,0.0070
3517.00,0.0070
3516.00,0.0071
3515.00,0.0071
3514.00,0.0072
3513.00,0.0073
3512.00,0.0073
3511.00,0.0074
3510.00,0.0074
3509.00,0.0075
3508.00,0.0075
3507.00,0.0076
3506.00,0.0076
3505.00,0.0077
3504.00,0.0078
3503.00,0.0078
3502.00,0.0079
3501.00,0.0080
3500.00,0.0081
3499.00,0.0081
3498.00,0.0082
3497.00,0.0083
3496.00,0.0083
3495.00,0.0084
3494.00,0.0084
3493.00,0.0085
3492.00,0.0086
3491.00,0.0086
3490.00,0.0087
3489.00,0.0088
3488.00,0.0088
3487.00,0.0089
3486.00,0.0090
3485.00,0.0090
3484.00,0.0091
3483.00,0.0092
3482.00,0.0092
3481.00,0.0093
3480.00,0.0094
3479.00,0.0095
3478.00,0.0095
3477.00,0.0096
3476.00,0.0096
3475.00,0.0097
3474.00,0.0098
3473.00,0.0098
3472.00,0.0099
3471.00,0.0100
3470.00,0.0100
3469.00,0.0101
3468.00,0.0102
3467.00,0.0102
3466.00,0.0103
3465.00,0.0104
3464.00,0.0105
3463.00,0.0105
3462.00,0.0106
3461.00,0.0107
3460.00,0.0107
3459.00,0.0108
3458.00,0.0109
3457.00,0.0109
3456.00,0.0110
3455.00,0.0111
3454.00,0.0111
3453.00,0.0112
3452.00,0.0113
3451.00,0.0114
3450.00,0.0114
3449.00,0.0115
3448.00,0.0116
3447.00,0.0117
3446.00,0.0117
3445.00,0.0118
3444.00,0.0119
3443.00,0.0120
3442.00,0.0121
3441.00,0.0122
3440.00,0.0122
3439.00,0.0123
3438.00,0.0124
3437.00,0.0125
3436.00,0.0126
3435.00,0.0127
3434.00,0.0128
3433.00,0.0129
3432.00,0.0129
3431.00,0.0130
3430.00,0.0131
3429.00,0.0132
3428.00,0.0133
3427.00,0.0134
3426.00,0.0135
3425.00,0.0136
3424.00,0.0137
3423.00,0.0138
3422.00,0.0139
3421.00,0.0140
3420.00,0.0140
3419.00,0.0141
3418.00,0.0142
3417.00,0.0143
3416.00,0.0144
3415.00,0.0145
3414.00,0.0146
3413.00,0.0147
3412.00,0.0147
3411.00,0.0148
3410.00,0.0149
3409.00,0.0150
3408.00,0.0151
3407.00,0.0152
3406.00,0.0152
3405.00,0.0153
3404.00,0.0154
3403.00,0.0155
3402.00,0.0156
3401.00,0.0156
3400.00,0.0157
3399.00,0.0158
3398.00,0.0159
3397.00,0.0160
3396.00,0.0160
3395.00,0.0161
3394.00,0.0162
3393.00,0.0163
3392.00,0.0163
3391.00,0.0164
3390.00,0.0165
3389.00,0.0166
3388.00,0.0168
3387.00,0.0169
3386.00,0.0170
3385.00,0.0170
3384.00,0.0171
3383.00,0.0172
3382.00,0.0173
3381.00,0.0174
3380.00,0.0175
3379.00,0.0176
3378.00,0.0177
3377.00,0.0178
3376.00,0.0179
3375.00,0.0180
3374.00,0.0181
3373.00,0.0182
3372.00,0.0183
3371.00,0.0184
3370.00,0.0185
3369.00,0.0186
3368.00,0.0187
3367.00,0.0189
3366.00,0.0190
3365.00,0.0191
3364.00,0.0193
3363.00,0.0194
3362.00,0.0195
3361.00,0.0196
3360.00,0.0197
3359.00,0.0198
3358.00,0.0199
3357.00,0.0201
3356.00,0.0202
3355.00,0.0203
3354.00,0.0205
3353.00,0.0206
3352.00,0.0207
3351.00,0.0208
3350.00,0.0209
3349.00,0.0211
3348.00,0.0212
3347.00,0.0214
3346.00,0.0215
3345.00,0.0217
3344.00,0.0218
3343.00,0.0219
3342.00,0.0220
3341.00,0.0222
3340.00,0.0223
3339.00,0.0224
3338.00,0.0226
3337.00,0.0227
3336.00,0.0229
3335.00,0.0231
3334.00,0.0232
3333.00,0.0234
3332.00,0.0236
3331.00,0.0237
3330.00,0.0239
3329.00,0.0240
3328.00,0.0242
3327.00,0.0243
3326.00,0.0245
3325.00,0.0246
3324.00,0.0248
3323.00,0.0250
3322.00,0.0252
3321.00,0.0253
3320.00,0.0255
3319.00,0.0257
3318.00,0.0258
3317.00,0.0260
3316.00,0.0262
3315.00,0.0263
3314.00,0.0265
3313.00,0.0266
3312.00,0.0268
3311.00,0.0269
3310.00,0.0271
3309.00,0.0272
3308.00,0.0273
3307.00,0.0275
3306.00,0.0277
3305.00,0.0279
3304.00,0.0281
3303.00,0.0283
3302.00,0.0285
3301.00,0.0287
3300.00,0.0288
3299.00,0.0289
3298.00,0.0291
3297.00,0.0292
3296.00,0.0293
3295.00,0.0294
3294.00,0.0296
3293.00,0.0297
3292.00,0.0298
3291.00,0.0299
3290.00,0.0301
3289.00,0.0302
3288.00,0.0303
3287.00,0.0304
3286.00,0.0305
3285.00,0.0306
3284.00,0.0306
3283.00,0.0307
3282.00,0.0307
3281.00,0.0307
3280.00,0.0308
3279.00,0.0308
3278.00,0.0308
3277.00,0.0307
3276.00,0.0307
3275.00,0.0306
3274.00,0.0306
3273.00,0.0305
3272.00,0.0304
3271.00,0.0304
3270.00,0.0303
3269.00,0.0302
3268.00,0.0301
3267.00,0.0300
3266.00,0.0299
3265.00,0.0298
3264.00,0.0297
3263.00,0.0295
3262.00,0.0294
3261.00,0.0292
3260.00,0.0290
3259.00,0.0289
3258.00,0.0287
3257.00,0.0285
3256.00,0.0284
3255.00,0.0282
3254.00,0.0280
3253.00,0.0279
3252.00,0.0277
3251.00,0.0276
3250.00,0.0274
3249.00,0.0272
3248.00,0.0270
3247.00,0.0269
3246.00,0.0267
3245.00,0.0266
3244.00,0.0265
3243.00,0.0264
3242.00,0.0262
3241.00,0.0261
3240.00,0.0259
3239.00,0.0258
3238.00,0.0257
3237.00,0.0255
3236.00,0.0254
3235.00,0.0252
3234.00,0.0251
3233.00,0.0250
3232.00,0.0250
3231.00,0.0249
3230.00,0.0248
3229.00,0.0247
3228.00,0.0246
3227.00,0.0245
3226.00,0.0244
3225.00,0.0243
3224.00,0.0242
3223.00,0.0241
3222.00,0.0240
3221.00,0.0240
3220.00,0.0239
3219.00,0.0238
3218.00,0.0237
3217.00,0.0237
3216.00,0.0236
3215.00,0.0235
3214.00,0.0234
3213.00,0.0234
3212.00,0.0233
3211.00,0.0232
3210.00,0.0231
3209.00,0.0230
3208.00,0.0230
3207.00,0.0229
3206.00,0.0228
3205.00,0.0227
3204.00,0.0227
3203.00,0.0226
3202.00,0.0225
3201.00,0.0224
3200.00,0.0224
3199.00,0.0223
3198.00,0.0222
3197.00,0.0221
3196.00,0.0220
3195.00,0.0220
3194.00,0.0219
3193.00,0.0218
3192.00,0.0217
3191.00,0.0216
3190.00,0.0215
3189.00,0.0214
3188.00,0.0214
3187.00,0.0213
3186.00,0.0212
3185.00,0.0211
3184.00,0.0210
3183.00,0.0209
3182.00,0.0208
3181.00,0.0207
3180.00,0.0206
3179.00,0.0205
3178.00,0.0204
3177.00,0.0204
3176.00,0.0203
3175.00,0.0202
3174.00,0.0201
3173.00,0.0200
3172.00,0.0199
3171.00,0.0198
3170.00,0.0197
3169.00,0.0196
3168.00,0.0195
3167.00,0.0194
3166.00,0.0193
3165.00,0.0192
3164.00,0.0191
3163.00,0.0190
3162.00,0.0189
3161.00,0.0188
3160.00,0.0188
3159.00,0.0187
3158.00,0.0186
3157.00,0.0185
3156.00,0.0184
3155.00,0.0183
3154.00,0.0182
3153.00,0.0182
3152.00,0.0181
3151.00,0.0180
3150.00,0.0180
3149.00,0.0179
3148.00,0.0178
3147.00,0.0178
3146.00,0.0177
3145.00,0.0176
3144.00,0.0175
3143.00,0.0175
3142.00,0.0174
3141.00,0.0173
3140.00,0.0172
3139.00,0.0172
3138.00,0.0171
3137.00,0.0171
3136.00,0.0170
3135.00,0.0170
3134.00,0.0169
3133.00,0.0169
3132.00,0.0168
3131.00,0.0168
3130.00,0.0167
3129.00,0.0167
3128.00,0.0167
3127.00,0.0166
3126.00,0.0166
3125.00,0.0166
3124.00,0.0165
3123.00,0.0165
3122.00,0.0164
3121.00,0.0163
3120.00,0.0163
3119.00,0.0163
3118.00,0.0162
3117.00,0.0162
3116.00,0.0162
3115.00,0.0163
3114.00,0.0163
3113.00,0.0163
3112.00,0.0163
3111.00,0.0163
3110.00,0.0163
3109.00,0.0163
3108.00,0.0163
3107.00,0.0163
3106.00,0.0163
3105.00,0.0163
3104.00,0.0164
3103.00,0.0164
3102.00,0.0164
3101.00,0.0164
3100.00,0.0164
3099.00,0.0164
3098.00,0.0164
3097.00,0.0165
3096.00,0.0165
3095.00,0.0165
3094.00,0.0166
3093.00,0.0166
3092.00,0.0166
3091.00,0.0166
3090.00,0.0166
3089.00,0.0166
3088.00,0.0166
3087.00,0.0167
3086.00,0.0167
3085.00,0.0167
3084.00,0.0167
3083.00,0.0167
3082.00,0.0167
3081.00,0.0167
3080.00,0.0167
3079.00,0.0167
3078.00,0.0168
3077.00,0.0168
3076.00,0.0168
3075.00,0.0169
3074.00,0.0169
3073.00,0.0169
3072.00,0.0169
3071.00,0.0169
3070.00,0.0169
3069.00,0.0168
3068.00,0.0168
3067.00,0.0168
3066.00,0.0168
3065.00,0.0168
3064.00,0.0168
3063.00,0.0168
3062.00,0.0167
3061.00,0.0167
3060.00,0.0167
3059.00,0.0166
3058.00,0.0165
3057.00,0.0165
3056.00,0.0164
3055.00,0.0163
3054.00,0.0162
3053.00,0.0162
3052.00,0.0161
3051.00,0.0160
3050.00,0.0160
3049.00,0.0159
3048.00,0.0158
3047.00,0.0158
3046.00,0.0157
3045.00,0.0156
3044.00,0.0155
3043.00,0.0154
3042.00,0.0153
3041.00,0.0153
3040.00,0.0153
3039.00,0.0152
3038.00,0.0152
3037.00,0.0151
3036.00,0.0150
3035.00,0.0150
3034.00,0.0149
3033.00,0.0148
3032.00,0.0148
3031.00,0.0147
3030.00,0.0147
3029.00,0.0146
3028.00,0.0146
3027.00,0.0145
3026.00,0.0144
3025.00,0.0143
3024.00,0.0143
3023.00,0.0142
3022.00,0.0141
3021.00,0.0141
3020.00,0.0140
3019.00,0.0139
3018.00,0.0138
3017.00,0.0137
3016.00,0.0136
3015.00,0.0135
3014.00,0.0135
3013.00,0.0134
3012.00,0.0134
3011.00,0.0134
3010.00,0.0134
3009.00,0.0134
3008.00,0.0134
3007.00,0.0134
3006.00,0.0133
3005.00,0.0133
3004.00,0.0133
3003.00,0.0133
3002.00,0.0132
3001.00,0.0132
3000.00,0.0132
2999.00,0.0132
2998.00,0.0132
2997.00,0.0133
2996.00,0.0133
2995.00,0.0134
2994.00,0.0134
2993.00,0.0135
2992.00,0.0136
2991.00,0.0137
2990.00,0.0138
2989.00,0.0140
2988.00,0.0141
2987.00,0.0143
2986.00,0.0145
2985.00,0.0146
2984.00,0.0148
2983.00,0.0150
2982.00,0.0152
2981.00,0.0154
2980.00,0.0157
2979.00,0.0159
2978.00,0.0162
2977.00,0.0165
2976.00,0.0168
2975.00,0.0171
2974.00,0.0174
2973.00,0.0177
2972.00,0.0180
2971.00,0.0183
2970.00,0.0185
2969.00,0.0188
2968.00,0.0190
2967.00,0.0192
2966.00,0.0194
2965.00,0.0196
2964.00,0.0197
2963.00,0.0199
2962.00,0.0199
2961.00,0.0200
2960.00,0.0200
2959.00,0.0200
2958.00,0.0200
2957.00,0.0199
2956.00,0.0198
2955.00,0.0197
2954.00,0.0195
2953.00,0.0194
2952.00,0.0193
2951.00,0.0191
2950.00,0.0190
2949.00,0.0190
2948.00,0.0189
2947.00,0.0189
2946.00,0.0189
2945.00,0.0190
2944.00,0.0191
2943.00,0.0193
2942.00,0.0194
2941.00,0.0197
2940.00,0.0199
2939.00,0.0201
2938.00,0.0203
2937.00,0.0206
2936.00,0.0208
2935.00,0.0210
2934.00,0.0212
2933.00,0.0214
2932.00,0.0215
2931.00,0.0217
2930.00,0.0218
2929.00,0.0219
2928.00,0.0220
2927.00,0.0220
2926.00,0.0220
2925.00,0.0220
2924.00,0.0219
2923.00,0.0219
2922.00,0.0217
2921.00,0.0216
2920.00,0.0214
2919.00,0.0211
2918.00,0.0209
2917.00,0.0206
2916.00,0.0203
2915.00,0.0199
2914.00,0.0196
2913.00,0.0193
2912.00,0.0190
2911.00,0.0187
2910.00,0.0185
2909.00,0.0182
2908.00,0.0180
2907.00,0.0178
2906.00,0.0176
2905.00,0.0174
2904.00,0.0172
2903.00,0.0170
2902.00,0.0169
2901.00,0.0167
2900.00,0.0166
2899.00,0.0164
2898.00,0.0163
2897.00,0.0161
2896.00,0.0160
2895.00,0.0159
2894.00,0.0158
2893.00,0.0157
2892.00,0.0156
2891.00,0.0155
2890.00,0.0155
2889.00,0.0154
2888.00,0.0154
2887.00,0.0153
2886.00,0.0153
2885.00,0.0153
2884.00,0.0153
2883.00,0.0154
2882.00,0.0154
2881.00,0.0155
2880.00,0.0156
2879.00,0.0157
2878.00,0.0157
2877.00,0.0158
2876.00,0.0158
2875.00,0.0159
2874.00,0.0159
2873.00,0.0159
2872.00,0.0158
2871.00,0.0158
2870.00,0.0157
2869.00,0.0156
2868.00,0.0154
2867.00,0.0153
2866.00,0.0152
2865.00,0.0151
2864.00,0.0150
2863.00,0.0149
2862.00,0.0149
2861.00,0.0148
2860.00,0.0148
2859.00,0.0148
2858.00,0.0149
2857.00,0.0149
2856.00,0.0149
2855.00,0.0149
2854.00,0.0149
2853.00,0.0149
2852.00,0.0148
2851.00,0.0146
2850.00,0.0143
2849.00,0.0141
2848.00,0.0138
2847.00,0.0135
2846.00,0.0132
2845.00,0.0129
2844.00,0.0126
2843.00,0.0124
2842.00,0.0122
2841.00,0.0120
2840.00,0.0118
2839.00,0.0116
2838.00,0.0114
2837.00,0.0113
2836.00,0.0112
2835.00,0.0111
2834.00,0.0110
2833.00,0.0110
2832.00,0.0109
2831.00,0.0108
2830.00,0.0107
2829.00,0.0107
2828.00,0.0106
2827.00,0.0106
2826.00,0.0105
2825.00,0.0104
2824.00,0.0104
2823.00,0.0103
2822.00,0.0103
2821.00,0.0102
2820.00,0.0102
2819.00,0.0101
2818.00,0.0101
2817.00,0.0100
2816.00,0.0100
2815.00,0.0099
2814.00,0.0099
2813.00,0.0098
2812.00,0.0098
2811.00,0.0098
2810.00,0.0097
2809.00,0.0097
2808.00,0.0097
2807.00,0.0096
2806.00,0.0096
2805.00,0.0095
2804.00,0.0095
2803.00,0.0095
2802.00,0.0094
2801.00,0.0094
2800.00,0.0093
2799.00,0.0093
2798.00,0.0093
2797.00,0.0092
2796.00,0.0092
2795.00,0.0092
2794.00,0.0091
2793.00,0.0091
2792.00,0.0091
2791.00,0.0090
2790.00,0.0090
2789.00,0.0089
2788.00,0.0089
2787.00,0.0089
2786.00,0.0089
2785.00,0.0089
2784.00,0.0088
2783.00,0.0088
2782.00,0.0088
2781.00,0.0087
2780.00,0.0087
2779.00,0.0087
2778.00,0.0086
2777.00,0.0086
2776.00,0.0085
2775.00,0.0085
2774.00,0.0085
2773.00,0.0084
2772.00,0.0084
2771.00,0.0084
2770.00,0.0084
2769.00,0.0083
2768.00,0.0083
2767.00,0.0083
2766.00,0.0082
2765.00,0.0082
2764.00,0.0082
2763.00,0.0082
2762.00,0.0081
2761.00,0.0081
2760.00,0.0081
2759.00,0.0080
2758.00,0.0080
2757.00,0.0080
