Created as New Dataset,Sample 274 By YargerLab Date Wednesday, July 24 2024
cm-1,A
4000.00,0.0031
3999.00,0.0031
3998.00,0.0031
3997.00,0.0031
3996.00,0.0031
3995.00,0.0031
3994.00,0.0031
3993.00,0.0031
3992.00,0.0031
3991.00,0.0031
3990.00,0.0031
3989.00,0.0031
3988.00,0.0031
3987.00,0.0031
3986.00,0.0031
3985.00,0.0031
3984.00,0.0031
3983.00,0.0031
3982.00,0.0031
3981.00,0.0031
3980.00,0.0031
3979.00,0.0031
3978.00,0.0031
3977.00,0.0031
3976.00,0.0031
3975.00,0.0031
3974.00,0.0031
3973.00,0.0031
3972.00,0.0031
3971.00,0.0031
3970.00,0.0031
3969.00,0.0031
3968.00,0.0031
3967.00,0.0031
3966.00,0.0031
3965.00,0.0031
3964.00,0.0031
3963.00,0.0031
3962.00,0.0031
3961.00,0.0031
3960.00,0.0031
3959.00,0.0031
3958.00,0.0031
3957.00,0.0031
3956.00,0.0031
3955.00,0.0031
3954.00,0.0031
3953.00,0.0031
3952.00,0.0031
3951.00,0.0031
3950.00,0.0031
3949.00,0.0031
3948.00,0.0031
3947.00,0.0031
3946.00,0.0030
3945.00,0.0030
3944.00,0.0030
3943.00,0.0030
3942.00,0.0030
3941.00,0.0030
3940.00,0.0030
3939.00,0.0030
3938.00,0.0030
3937.00,0.0030
3936.00,0.0030
3935.00,0.0030
3934.00,0.0030
3933.00,0.0030
3932.00,0.0030
3931.00,0.0030
3930.00,0.0030
3929.00,0.0030
3928.00,0.0030
3927.00,0.0030
3926.00,0.0030
3925.00,0.0030
3924.00,0.0030
3923.00,0.0030
3922.00,0.0030
3921.00,0.0030
3920.00,0.0030
3919.00,0.0030
3918.00,0.0030
3917.00,0.0030
3916.00,0.0030
3915.00,0.0030
3914.00,0.0030
3913.00,0.0030
3912.00,0.0030
3911.00,0.0030
3910.00,0.0030
3909.00,0.0030
3908.00,0.0030
3907.00,0.0030
3906.00,0.0030
3905.00,0.0030
3904.00,0.0030
3903.00,0.0030
3902.00,0.0030
3901.00,0.0030
3900.00,0.0029
3899.00,0.0029
3898.00,0.0029
3897.00,0.0029
3896.00,0.0029
3895.00,0.0029
3894.00,0.0029
3893.00,0.0029
3892.00,0.0029
3891.00,0.0029
3890.00,0.0029
3889.00,0.0029
3888.00,0.0029
3887.00,0.0029
3886.00,0.0029
3885.00,0.0029
3884.00,0.0030
3883.00,0.0029
3882.00,0.0029
3881.00,0.0029
3880.00,0.0030
3879.00,0.0030
3878.00,0.0030
3877.00,0.0029
3876.00,0.0029
3875.00,0.0029
3874.00,0.0029
3873.00,0.0030
3872.00,0.0029
3871.00,0.0029
3870.00,0.0029
3869.00,0.0029
3868.00,0.0029
3867.00,0.0029
3866.00,0.0029
3865.00,0.0029
3864.00,0.0029
3863.00,0.0029
3862.00,0.0029
3861.00,0.0029
3860.00,0.0029
3859.00,0.0029
3858.00,0.0029
3857.00,0.0029
3856.00,0.0029
3855.00,0.0028
3854.00,0.0028
3853.00,0.0028
3852.00,0.0028
3851.00,0.0028
3850.00,0.0028
3849.00,0.0028
3848.00,0.0029
3847.00,0.0029
3846.00,0.0029
3845.00,0.0029
3844.00,0.0029
3843.00,0.0029
3842.00,0.0029
3841.00,0.0029
3840.00,0.0029
3839.00,0.0028
3838.00,0.0028
3837.00,0.0028
3836.00,0.0028
3835.00,0.0028
3834.00,0.0028
3833.00,0.0028
3832.00,0.0028
3831.00,0.0028
3830.00,0.0028
3829.00,0.0028
3828.00,0.0028
3827.00,0.0028
3826.00,0.0029
3825.00,0.0029
3824.00,0.0029
3823.00,0.0028
3822.00,0.0028
3821.00,0.0028
3820.00,0.0028
3819.00,0.0028
3818.00,0.0028
3817.00,0.0028
3816.00,0.0028
3815.00,0.0028
3814.00,0.0028
3813.00,0.0028
3812.00,0.0028
3811.00,0.0028
3810.00,0.0029
3809.00,0.0028
3808.00,0.0028
3807.00,0.0028
3806.00,0.0028
3805.00,0.0028
3804.00,0.0028
3803.00,0.0028
3802.00,0.0028
3801.00,0.0028
3800.00,0.0028
3799.00,0.0028
3798.00,0.0028
3797.00,0.0028
3796.00,0.0028
3795.00,0.0028
3794.00,0.0028
3793.00,0.0028
3792.00,0.0028
3791.00,0.0028
3790.00,0.0028
3789.00,0.0028
3788.00,0.0028
3787.00,0.0028
3786.00,0.0028
3785.00,0.0028
3784.00,0.0028
3783.00,0.0028
3782.00,0.0028
3781.00,0.0028
3780.00,0.0028
3779.00,0.0028
3778.00,0.0028
3777.00,0.0028
3776.00,0.0028
3775.00,0.0028
3774.00,0.0028
3773.00,0.0028
3772.00,0.0028
3771.00,0.0028
3770.00,0.0028
3769.00,0.0028
3768.00,0.0028
3767.00,0.0028
3766.00,0.0028
3765.00,0.0028
3764.00,0.0028
3763.00,0.0028
3762.00,0.0028
3761.00,0.0028
3760.00,0.0028
3759.00,0.0028
3758.00,0.0028
3757.00,0.0028
3756.00,0.0028
3755.00,0.0028
3754.00,0.0028
3753.00,0.0028
3752.00,0.0028
3751.00,0.0028
3750.00,0.0028
3749.00,0.0028
3748.00,0.0028
3747.00,0.0028
3746.00,0.0028
3745.00,0.0028
3744.00,0.0028
3743.00,0.0028
3742.00,0.0028
3741.00,0.0028
3740.00,0.0029
3739.00,0.0029
3738.00,0.0029
3737.00,0.0029
3736.00,0.0029
3735.00,0.0029
3734.00,0.0028
3733.00,0.0028
3732.00,0.0028
3731.00,0.0028
3730.00,0.0028
3729.00,0.0028
3728.00,0.0028
3727.00,0.0028
3726.00,0.0028
3725.00,0.0028
3724.00,0.0028
3723.00,0.0028
3722.00,0.0028
3721.00,0.0028
3720.00,0.0028
3719.00,0.0028
3718.00,0.0028
3717.00,0.0028
3716.00,0.0028
3715.00,0.0028
3714.00,0.0028
3713.00,0.0028
3712.00,0.0028
3711.00,0.0028
3710.00,0.0028
3709.00,0.0028
3708.00,0.0027
3707.00,0.0027
3706.00,0.0027
3705.00,0.0027
3704.00,0.0027
3703.00,0.0027
3702.00,0.0028
3701.00,0.0028
3700.00,0.0028
3699.00,0.0028
3698.00,0.0028
3697.00,0.0028
3696.00,0.0028
3695.00,0.0028
3694.00,0.0028
3693.00,0.0028
3692.00,0.0027
3691.00,0.0027
3690.00,0.0027
3689.00,0.0027
3688.00,0.0027
3687.00,0.0026
3686.00,0.0026
3685.00,0.0026
3684.00,0.0026
3683.00,0.0026
3682.00,0.0026
3681.00,0.0026
3680.00,0.0026
3679.00,0.0025
3678.00,0.0025
3677.00,0.0025
3676.00,0.0024
3675.00,0.0024
3674.00,0.0023
3673.00,0.0023
3672.00,0.0022
3671.00,0.0022
3670.00,0.0023
3669.00,0.0023
3668.00,0.0023
3667.00,0.0023
3666.00,0.0023
3665.00,0.0023
3664.00,0.0023
3663.00,0.0023
3662.00,0.0023
3661.00,0.0023
3660.00,0.0023
3659.00,0.0024
3658.00,0.0024
3657.00,0.0024
3656.00,0.0024
3655.00,0.0025
3654.00,0.0025
3653.00,0.0025
3652.00,0.0026
3651.00,0.0026
3650.00,0.0026
3649.00,0.0026
3648.00,0.0027
3647.00,0.0027
3646.00,0.0028
3645.00,0.0029
3644.00,0.0029
3643.00,0.0030
3642.00,0.0030
3641.00,0.0031
3640.00,0.0031
3639.00,0.0032
3638.00,0.0032
3637.00,0.0033
3636.00,0.0033
3635.00,0.0034
3634.00,0.0036
3633.00,0.0037
3632.00,0.0038
3631.00,0.0039
3630.00,0.0039
3629.00,0.0039
3628.00,0.0040
3627.00,0.0040
3626.00,0.0040
3625.00,0.0041
3624.00,0.0041
3623.00,0.0042
3622.00,0.0043
3621.00,0.0043
3620.00,0.0043
3619.00,0.0044
3618.00,0.0044
3617.00,0.0045
3616.00,0.0045
3615.00,0.0046
3614.00,0.0046
3613.00,0.0047
3612.00,0.0047
3611.00,0.0048
3610.00,0.0048
3609.00,0.0048
3608.00,0.0048
3607.00,0.0049
3606.00,0.0049
3605.00,0.0050
3604.00,0.0050
3603.00,0.0051
3602.00,0.0051
3601.00,0.0052
3600.00,0.0052
3599.00,0.0053
3598.00,0.0053
3597.00,0.0053
3596.00,0.0054
3595.00,0.0054
3594.00,0.0055
3593.00,0.0055
3592.00,0.0056
3591.00,0.0056
3590.00,0.0057
3589.00,0.0057
3588.00,0.0057
3587.00,0.0057
3586.00,0.0058
3585.00,0.0058
3584.00,0.0059
3583.00,0.0059
3582.00,0.0060
3581.00,0.0060
3580.00,0.0061
3579.00,0.0061
3578.00,0.0062
3577.00,0.0062
3576.00,0.0063
3575.00,0.0063
3574.00,0.0064
3573.00,0.0065
3572.00,0.0065
3571.00,0.0066
3570.00,0.0067
3569.00,0.0067
3568.00,0.0067
3567.00,0.0068
3566.00,0.0068
3565.00,0.0068
3564.00,0.0069
3563.00,0.0069
3562.00,0.0070
3561.00,0.0070
3560.00,0.0071
3559.00,0.0071
3558.00,0.0072
3557.00,0.0072
3556.00,0.0073
3555.00,0.0074
3554.00,0.0074
3553.00,0.0075
3552.00,0.0075
3551.00,0.0076
3550.00,0.0077
3549.00,0.0077
3548.00,0.0078
3547.00,0.0078
3546.00,0.0078
3545.00,0.0079
3544.00,0.0079
3543.00,0.0080
3542.00,0.0080
3541.00,0.0081
3540.00,0.0081
3539.00,0.0082
3538.00,0.0083
3537.00,0.0083
3536.00,0.0083
3535.00,0.0084
3534.00,0.0084
3533.00,0.0085
3532.00,0.0085
3531.00,0.0086
3530.00,0.0086
3529.00,0.0087
3528.00,0.0088
3527.00,0.0088
3526.00,0.0089
3525.00,0.0090
3524.00,0.0090
3523.00,0.0090
3522.00,0.0091
3521.00,0.0091
3520.00,0.0092
3519.00,0.0092
3518.00,0.0092
3517.00,0.0093
3516.00,0.0094
3515.00,0.0094
3514.00,0.0095
3513.00,0.0096
3512.00,0.0096
3511.00,0.0097
3510.00,0.0097
3509.00,0.0098
3508.00,0.0098
3507.00,0.0099
3506.00,0.0100
3505.00,0.0100
3504.00,0.0101
3503.00,0.0101
3502.00,0.0102
3501.00,0.0102
3500.00,0.0103
3499.00,0.0103
3498.00,0.0104
3497.00,0.0104
3496.00,0.0105
3495.00,0.0105
3494.00,0.0106
3493.00,0.0106
3492.00,0.0107
3491.00,0.0108
3490.00,0.0108
3489.00,0.0109
3488.00,0.0109
3487.00,0.0110
3486.00,0.0111
3485.00,0.0111
3484.00,0.0112
3483.00,0.0112
3482.00,0.0113
3481.00,0.0113
3480.00,0.0114
3479.00,0.0114
3478.00,0.0115
3477.00,0.0116
3476.00,0.0116
3475.00,0.0117
3474.00,0.0117
3473.00,0.0118
3472.00,0.0119
3471.00,0.0119
3470.00,0.0120
3469.00,0.0121
3468.00,0.0122
3467.00,0.0122
3466.00,0.0123
3465.00,0.0123
3464.00,0.0124
3463.00,0.0125
3462.00,0.0125
3461.00,0.0126
3460.00,0.0126
3459.00,0.0127
3458.00,0.0127
3457.00,0.0128
3456.00,0.0128
3455.00,0.0129
3454.00,0.0129
3453.00,0.0130
3452.00,0.0131
3451.00,0.0131
3450.00,0.0132
3449.00,0.0133
3448.00,0.0133
3447.00,0.0134
3446.00,0.0134
3445.00,0.0135
3444.00,0.0135
3443.00,0.0136
3442.00,0.0136
3441.00,0.0137
3440.00,0.0138
3439.00,0.0138
3438.00,0.0139
3437.00,0.0140
3436.00,0.0140
3435.00,0.0141
3434.00,0.0142
3433.00,0.0142
3432.00,0.0143
3431.00,0.0143
3430.00,0.0144
3429.00,0.0144
3428.00,0.0145
3427.00,0.0146
3426.00,0.0146
3425.00,0.0147
3424.00,0.0147
3423.00,0.0148
3422.00,0.0148
3421.00,0.0149
3420.00,0.0149
3419.00,0.0150
3418.00,0.0150
3417.00,0.0151
3416.00,0.0152
3415.00,0.0152
3414.00,0.0153
3413.00,0.0154
3412.00,0.0154
3411.00,0.0155
3410.00,0.0155
3409.00,0.0156
3408.00,0.0156
3407.00,0.0157
3406.00,0.0157
3405.00,0.0158
3404.00,0.0159
3403.00,0.0160
3402.00,0.0160
3401.00,0.0161
3400.00,0.0161
3399.00,0.0161
3398.00,0.0162
3397.00,0.0162
3396.00,0.0163
3395.00,0.0163
3394.00,0.0164
3393.00,0.0165
3392.00,0.0165
3391.00,0.0166
3390.00,0.0166
3389.00,0.0167
3388.00,0.0167
3387.00,0.0168
3386.00,0.0168
3385.00,0.0169
3384.00,0.0170
3383.00,0.0170
3382.00,0.0171
3381.00,0.0172
3380.00,0.0172
3379.00,0.0173
3378.00,0.0174
3377.00,0.0175
3376.00,0.0175
3375.00,0.0176
3374.00,0.0176
3373.00,0.0177
3372.00,0.0178
3371.00,0.0179
3370.00,0.0180
3369.00,0.0181
3368.00,0.0182
3367.00,0.0183
3366.00,0.0183
3365.00,0.0184
3364.00,0.0185
3363.00,0.0186
3362.00,0.0187
3361.00,0.0188
3360.00,0.0189
3359.00,0.0190
3358.00,0.0191
3357.00,0.0191
3356.00,0.0192
3355.00,0.0193
3354.00,0.0194
3353.00,0.0195
3352.00,0.0196
3351.00,0.0197
3350.00,0.0199
3349.00,0.0200
3348.00,0.0201
3347.00,0.0202
3346.00,0.0203
3345.00,0.0204
3344.00,0.0205
3343.00,0.0206
3342.00,0.0207
3341.00,0.0209
3340.00,0.0210
3339.00,0.0211
3338.00,0.0212
3337.00,0.0213
3336.00,0.0215
3335.00,0.0216
3334.00,0.0217
3333.00,0.0219
3332.00,0.0220
3331.00,0.0221
3330.00,0.0223
3329.00,0.0224
3328.00,0.0226
3327.00,0.0227
3326.00,0.0229
3325.00,0.0230
3324.00,0.0232
3323.00,0.0233
3322.00,0.0235
3321.00,0.0236
3320.00,0.0238
3319.00,0.0239
3318.00,0.0241
3317.00,0.0243
3316.00,0.0244
3315.00,0.0246
3314.00,0.0248
3313.00,0.0250
3312.00,0.0252
3311.00,0.0254
3310.00,0.0255
3309.00,0.0257
3308.00,0.0259
3307.00,0.0260
3306.00,0.0262
3305.00,0.0264
3304.00,0.0266
3303.00,0.0268
3302.00,0.0270
3301.00,0.0272
3300.00,0.0274
3299.00,0.0276
3298.00,0.0278
3297.00,0.0280
3296.00,0.0281
3295.00,0.0283
3294.00,0.0285
3293.00,0.0287
3292.00,0.0289
3291.00,0.0290
3290.00,0.0292
3289.00,0.0293
3288.00,0.0295
3287.00,0.0296
3286.00,0.0298
3285.00,0.0299
3284.00,0.0300
3283.00,0.0301
3282.00,0.0302
3281.00,0.0303
3280.00,0.0304
3279.00,0.0305
3278.00,0.0305
3277.00,0.0306
3276.00,0.0306
3275.00,0.0306
3274.00,0.0306
3273.00,0.0305
3272.00,0.0305
3271.00,0.0304
3270.00,0.0304
3269.00,0.0303
3268.00,0.0302
3267.00,0.0302
3266.00,0.0301
3265.00,0.0299
3264.00,0.0298
3263.00,0.0297
3262.00,0.0295
3261.00,0.0294
3260.00,0.0292
3259.00,0.0291
3258.00,0.0289
3257.00,0.0287
3256.00,0.0286
3255.00,0.0284
3254.00,0.0282
3253.00,0.0281
3252.00,0.0279
3251.00,0.0277
3250.00,0.0276
3249.00,0.0274
3248.00,0.0273
3247.00,0.0271
3246.00,0.0270
3245.00,0.0268
3244.00,0.0267
3243.00,0.0265
3242.00,0.0264
3241.00,0.0262
3240.00,0.0261
3239.00,0.0260
3238.00,0.0259
3237.00,0.0257
3236.00,0.0256
3235.00,0.0255
3234.00,0.0254
3233.00,0.0252
3232.00,0.0251
3231.00,0.0250
3230.00,0.0249
3229.00,0.0248
3228.00,0.0247
3227.00,0.0246
3226.00,0.0245
3225.00,0.0245
3224.00,0.0244
3223.00,0.0243
3222.00,0.0242
3221.00,0.0241
3220.00,0.0240
3219.00,0.0239
3218.00,0.0239
3217.00,0.0238
3216.00,0.0237
3215.00,0.0236
3214.00,0.0235
3213.00,0.0235
3212.00,0.0234
3211.00,0.0233
3210.00,0.0232
3209.00,0.0231
3208.00,0.0231
3207.00,0.0230
3206.00,0.0229
3205.00,0.0229
3204.00,0.0228
3203.00,0.0227
3202.00,0.0227
3201.00,0.0226
3200.00,0.0225
3199.00,0.0224
3198.00,0.0223
3197.00,0.0222
3196.00,0.0221
3195.00,0.0221
3194.00,0.0220
3193.00,0.0219
3192.00,0.0218
3191.00,0.0217
3190.00,0.0217
3189.00,0.0216
3188.00,0.0215
3187.00,0.0214
3186.00,0.0213
3185.00,0.0212
3184.00,0.0211
3183.00,0.0210
3182.00,0.0209
3181.00,0.0208
3180.00,0.0207
3179.00,0.0206
3178.00,0.0205
3177.00,0.0204
3176.00,0.0203
3175.00,0.0202
3174.00,0.0201
3173.00,0.0200
3172.00,0.0199
3171.00,0.0198
3170.00,0.0198
3169.00,0.0197
3168.00,0.0196
3167.00,0.0195
3166.00,0.0194
3165.00,0.0193
3164.00,0.0192
3163.00,0.0191
3162.00,0.0190
3161.00,0.0189
3160.00,0.0188
3159.00,0.0187
3158.00,0.0186
3157.00,0.0185
3156.00,0.0184
3155.00,0.0183
3154.00,0.0182
3153.00,0.0181
3152.00,0.0181
3151.00,0.0180
3150.00,0.0179
3149.00,0.0178
3148.00,0.0178
3147.00,0.0177
3146.00,0.0176
3145.00,0.0175
3144.00,0.0174
3143.00,0.0174
3142.00,0.0173
3141.00,0.0172
3140.00,0.0172
3139.00,0.0171
3138.00,0.0170
3137.00,0.0170
3136.00,0.0169
3135.00,0.0168
3134.00,0.0168
3133.00,0.0167
3132.00,0.0167
3131.00,0.0166
3130.00,0.0165
3129.00,0.0165
3128.00,0.0165
3127.00,0.0164
3126.00,0.0164
3125.00,0.0163
3124.00,0.0163
3123.00,0.0162
3122.00,0.0162
3121.00,0.0162
3120.00,0.0161
3119.00,0.0161
3118.00,0.0161
3117.00,0.0160
3116.00,0.0160
3115.00,0.0160
3114.00,0.0160
3113.00,0.0160
3112.00,0.0160
3111.00,0.0160
3110.00,0.0159
3109.00,0.0159
3108.00,0.0159
3107.00,0.0159
3106.00,0.0160
3105.00,0.0160
3104.00,0.0160
3103.00,0.0160
3102.00,0.0160
3101.00,0.0160
3100.00,0.0160
3099.00,0.0160
3098.00,0.0160
3097.00,0.0160
3096.00,0.0161
3095.00,0.0161
3094.00,0.0161
3093.00,0.0161
3092.00,0.0162
3091.00,0.0162
3090.00,0.0162
3089.00,0.0162
3088.00,0.0162
3087.00,0.0163
3086.00,0.0163
3085.00,0.0163
3084.00,0.0163
3083.00,0.0163
3082.00,0.0164
3081.00,0.0164
3080.00,0.0164
3079.00,0.0164
3078.00,0.0165
3077.00,0.0165
3076.00,0.0165
3075.00,0.0165
3074.00,0.0165
3073.00,0.0165
3072.00,0.0165
3071.00,0.0165
3070.00,0.0165
3069.00,0.0165
3068.00,0.0165
3067.00,0.0165
3066.00,0.0165
3065.00,0.0164
3064.00,0.0164
3063.00,0.0164
3062.00,0.0163
3061.00,0.0163
3060.00,0.0163
3059.00,0.0163
3058.00,0.0162
3057.00,0.0161
3056.00,0.0161
3055.00,0.0160
3054.00,0.0160
3053.00,0.0159
3052.00,0.0158
3051.00,0.0157
3050.00,0.0157
3049.00,0.0156
3048.00,0.0156
3047.00,0.0155
3046.00,0.0155
3045.00,0.0154
3044.00,0.0153
3043.00,0.0153
3042.00,0.0152
3041.00,0.0151
3040.00,0.0151
3039.00,0.0150
3038.00,0.0150
3037.00,0.0149
3036.00,0.0149
3035.00,0.0148
3034.00,0.0147
3033.00,0.0147
3032.00,0.0146
3031.00,0.0145
3030.00,0.0145
3029.00,0.0144
3028.00,0.0143
3027.00,0.0142
3026.00,0.0142
3025.00,0.0141
3024.00,0.0140
3023.00,0.0139
3022.00,0.0138
3021.00,0.0137
3020.00,0.0136
3019.00,0.0135
3018.00,0.0133
3017.00,0.0132
3016.00,0.0131
3015.00,0.0129
3014.00,0.0128
3013.00,0.0126
3012.00,0.0124
3011.00,0.0123
3010.00,0.0121
3009.00,0.0119
3008.00,0.0117
3007.00,0.0115
3006.00,0.0112
3005.00,0.0109
3004.00,0.0107
3003.00,0.0104
3002.00,0.0102
3001.00,0.0100
3000.00,0.0098
2999.00,0.0096
2998.00,0.0094
2997.00,0.0093
2996.00,0.0092
2995.00,0.0091
2994.00,0.0090
2993.00,0.0089
2992.00,0.0089
2991.00,0.0089
2990.00,0.0089
2989.00,0.0088
2988.00,0.0088
2987.00,0.0087
2986.00,0.0084
2985.00,0.0080
2984.00,0.0074
2983.00,0.0068
2982.00,0.0064
2981.00,0.0064
2980.00,0.0067
2979.00,0.0072
2978.00,0.0077
2977.00,0.0082
2976.00,0.0086
2975.00,0.0089
2974.00,0.0090
2973.00,0.0091
2972.00,0.0092
2971.00,0.0094
2970.00,0.0098
2969.00,0.0103
2968.00,0.0108
2967.00,0.0112
2966.00,0.0116
2965.00,0.0119
2964.00,0.0122
2963.00,0.0125
2962.00,0.0128
2961.00,0.0130
2960.00,0.0132
2959.00,0.0134
2958.00,0.0135
2957.00,0.0137
2956.00,0.0138
2955.00,0.0139
2954.00,0.0140
2953.00,0.0141
2952.00,0.0142
2951.00,0.0142
2950.00,0.0143
2949.00,0.0144
2948.00,0.0146
2947.00,0.0147
2946.00,0.0149
2945.00,0.0151
2944.00,0.0154
2943.00,0.0156
2942.00,0.0158
2941.00,0.0160
2940.00,0.0163
2939.00,0.0165
2938.00,0.0168
2937.00,0.0171
2936.00,0.0173
2935.00,0.0176
2934.00,0.0178
2933.00,0.0180
2932.00,0.0183
2931.00,0.0185
2930.00,0.0187
2929.00,0.0189
2928.00,0.0191
2927.00,0.0193
2926.00,0.0194
2925.00,0.0195
2924.00,0.0196
2923.00,0.0196
2922.00,0.0196
2921.00,0.0195
2920.00,0.0194
2919.00,0.0192
2918.00,0.0189
2917.00,0.0187
2916.00,0.0183
2915.00,0.0179
2914.00,0.0175
2913.00,0.0170
2912.00,0.0166
2911.00,0.0162
2910.00,0.0159
2909.00,0.0155
2908.00,0.0153
2907.00,0.0150
2906.00,0.0148
2905.00,0.0146
2904.00,0.0144
2903.00,0.0143
2902.00,0.0141
2901.00,0.0140
2900.00,0.0138
2899.00,0.0137
2898.00,0.0136
2897.00,0.0134
2896.00,0.0133
2895.00,0.0132
2894.00,0.0130
2893.00,0.0129
2892.00,0.0127
2891.00,0.0126
2890.00,0.0125
2889.00,0.0124
2888.00,0.0124
2887.00,0.0123
2886.00,0.0123
2885.00,0.0123
2884.00,0.0123
2883.00,0.0124
2882.00,0.0125
2881.00,0.0126
2880.00,0.0128
2879.00,0.0130
2878.00,0.0131
2877.00,0.0132
2876.00,0.0133
2875.00,0.0134
2874.00,0.0135
2873.00,0.0135
2872.00,0.0135
2871.00,0.0136
2870.00,0.0136
2869.00,0.0136
2868.00,0.0135
2867.00,0.0135
2866.00,0.0135
2865.00,0.0135
2864.00,0.0135
2863.00,0.0136
2862.00,0.0137
2861.00,0.0138
2860.00,0.0139
2859.00,0.0141
2858.00,0.0143
2857.00,0.0145
2856.00,0.0147
2855.00,0.0148
2854.00,0.0150
2853.00,0.0151
2852.00,0.0152
2851.00,0.0152
2850.00,0.0151
2849.00,0.0149
2848.00,0.0146
2847.00,0.0143
2846.00,0.0139
2845.00,0.0135
2844.00,0.0132
2843.00,0.0129
2842.00,0.0126
2841.00,0.0124
2840.00,0.0122
2839.00,0.0120
2838.00,0.0119
2837.00,0.0117
2836.00,0.0116
2835.00,0.0115
2834.00,0.0114
2833.00,0.0113
2832.00,0.0113
2831.00,0.0112
2830.00,0.0112
2829.00,0.0111
2828.00,0.0111
2827.00,0.0110
2826.00,0.0110
2825.00,0.0109
2824.00,0.0109
2823.00,0.0108
2822.00,0.0108
2821.00,0.0108
2820.00,0.0107
2819.00,0.0107
2818.00,0.0106
2817.00,0.0106
2816.00,0.0106
2815.00,0.0106
2814.00,0.0105
2813.00,0.0105
2812.00,0.0105
2811.00,0.0104
2810.00,0.0104
2809.00,0.0104
2808.00,0.0103
2807.00,0.0103
2806.00,0.0103
2805.00,0.0102
2804.00,0.0102
2803.00,0.0102
2802.00,0.0102
2801.00,0.0101
2800.00,0.0101
2799.00,0.0101
2798.00,0.0100
2797.00,0.0100
2796.00,0.0100
2795.00,0.0099
2794.00,0.0099
2793.00,0.0099
2792.00,0.0099
2791.00,0.0098
2790.00,0.0098
2789.00,0.0098
2788.00,0.0098
2787.00,0.0098
2786.00,0.0097
2785.00,0.0097
2784.00,0.0097
2783.00,0.0097
2782.00,0.0096
2781.00,0.0096
2780.00,0.0096
2779.00,0.0096
2778.00,0.0095
2777.00,0.0095
2776.00,0.0095
2775.00,0.0095
2774.00,0.0095
2773.00,0.0094
2772.00,0.0094
2771.00,0.0094
2770.00,0.0094
2769.00,0.0093
2768.00,0.0093
2767.00,0.0093
2766.00,0.0093
2765.00,0.0093
2764.00,0.0093
2763.00,0.0092
2762.00,0.0092
2761.00,0.0092
2760.00,0.0092
2759.00,0.0092
2758.00,0.0092
2757.00,0.0091
