Created as New Dataset,Sample 278 By YargerLab Date Wednesday, July 24 2024
cm-1,A
4000.00,0.0036
3999.00,0.0036
3998.00,0.0036
3997.00,0.0036
3996.00,0.0036
3995.00,0.0036
3994.00,0.0036
3993.00,0.0036
3992.00,0.0036
3991.00,0.0036
3990.00,0.0036
3989.00,0.0036
3988.00,0.0036
3987.00,0.0036
3986.00,0.0036
3985.00,0.0036
3984.00,0.0036
3983.00,0.0036
3982.00,0.0036
3981.00,0.0036
3980.00,0.0036
3979.00,0.0036
3978.00,0.0036
3977.00,0.0036
3976.00,0.0036
3975.00,0.0036
3974.00,0.0036
3973.00,0.0036
3972.00,0.0036
3971.00,0.0036
3970.00,0.0036
3969.00,0.0036
3968.00,0.0036
3967.00,0.0036
3966.00,0.0036
3965.00,0.0036
3964.00,0.0036
3963.00,0.0036
3962.00,0.0036
3961.00,0.0036
3960.00,0.0036
3959.00,0.0036
3958.00,0.0036
3957.00,0.0036
3956.00,0.0036
3955.00,0.0036
3954.00,0.0036
3953.00,0.0036
3952.00,0.0036
3951.00,0.0036
3950.00,0.0036
3949.00,0.0036
3948.00,0.0036
3947.00,0.0036
3946.00,0.0036
3945.00,0.0036
3944.00,0.0036
3943.00,0.0036
3942.00,0.0036
3941.00,0.0036
3940.00,0.0036
3939.00,0.0036
3938.00,0.0036
3937.00,0.0036
3936.00,0.0036
3935.00,0.0036
3934.00,0.0036
3933.00,0.0036
3932.00,0.0036
3931.00,0.0036
3930.00,0.0036
3929.00,0.0036
3928.00,0.0035
3927.00,0.0035
3926.00,0.0035
3925.00,0.0035
3924.00,0.0035
3923.00,0.0035
3922.00,0.0036
3921.00,0.0036
3920.00,0.0036
3919.00,0.0036
3918.00,0.0036
3917.00,0.0036
3916.00,0.0036
3915.00,0.0036
3914.00,0.0035
3913.00,0.0035
3912.00,0.0035
3911.00,0.0035
3910.00,0.0035
3909.00,0.0035
3908.00,0.0035
3907.00,0.0035
3906.00,0.0035
3905.00,0.0036
3904.00,0.0036
3903.00,0.0036
3902.00,0.0036
3901.00,0.0036
3900.00,0.0036
3899.00,0.0036
3898.00,0.0035
3897.00,0.0035
3896.00,0.0035
3895.00,0.0035
3894.00,0.0035
3893.00,0.0035
3892.00,0.0035
3891.00,0.0035
3890.00,0.0035
3889.00,0.0035
3888.00,0.0035
3887.00,0.0035
3886.00,0.0035
3885.00,0.0035
3884.00,0.0035
3883.00,0.0035
3882.00,0.0035
3881.00,0.0035
3880.00,0.0035
3879.00,0.0035
3878.00,0.0035
3877.00,0.0035
3876.00,0.0035
3875.00,0.0035
3874.00,0.0035
3873.00,0.0035
3872.00,0.0035
3871.00,0.0035
3870.00,0.0035
3869.00,0.0035
3868.00,0.0035
3867.00,0.0035
3866.00,0.0035
3865.00,0.0035
3864.00,0.0035
3863.00,0.0035
3862.00,0.0035
3861.00,0.0035
3860.00,0.0035
3859.00,0.0035
3858.00,0.0034
3857.00,0.0034
3856.00,0.0034
3855.00,0.0034
3854.00,0.0034
3853.00,0.0034
3852.00,0.0034
3851.00,0.0034
3850.00,0.0034
3849.00,0.0034
3848.00,0.0034
3847.00,0.0034
3846.00,0.0034
3845.00,0.0034
3844.00,0.0034
3843.00,0.0034
3842.00,0.0034
3841.00,0.0034
3840.00,0.0034
3839.00,0.0034
3838.00,0.0034
3837.00,0.0034
3836.00,0.0034
3835.00,0.0034
3834.00,0.0034
3833.00,0.0034
3832.00,0.0034
3831.00,0.0034
3830.00,0.0034
3829.00,0.0033
3828.00,0.0034
3827.00,0.0034
3826.00,0.0034
3825.00,0.0034
3824.00,0.0034
3823.00,0.0034
3822.00,0.0034
3821.00,0.0034
3820.00,0.0034
3819.00,0.0034
3818.00,0.0034
3817.00,0.0034
3816.00,0.0033
3815.00,0.0033
3814.00,0.0033
3813.00,0.0033
3812.00,0.0033
3811.00,0.0033
3810.00,0.0033
3809.00,0.0033
3808.00,0.0033
3807.00,0.0033
3806.00,0.0033
3805.00,0.0033
3804.00,0.0033
3803.00,0.0033
3802.00,0.0033
3801.00,0.0033
3800.00,0.0033
3799.00,0.0033
3798.00,0.0033
3797.00,0.0033
3796.00,0.0033
3795.00,0.0033
3794.00,0.0033
3793.00,0.0033
3792.00,0.0033
3791.00,0.0033
3790.00,0.0033
3789.00,0.0033
3788.00,0.0033
3787.00,0.0033
3786.00,0.0033
3785.00,0.0033
3784.00,0.0033
3783.00,0.0033
3782.00,0.0033
3781.00,0.0033
3780.00,0.0033
3779.00,0.0033
3778.00,0.0033
3777.00,0.0033
3776.00,0.0033
3775.00,0.0033
3774.00,0.0033
3773.00,0.0033
3772.00,0.0033
3771.00,0.0033
3770.00,0.0033
3769.00,0.0033
3768.00,0.0033
3767.00,0.0033
3766.00,0.0033
3765.00,0.0033
3764.00,0.0033
3763.00,0.0033
3762.00,0.0033
3761.00,0.0034
3760.00,0.0033
3759.00,0.0033
3758.00,0.0034
3757.00,0.0034
3756.00,0.0034
3755.00,0.0034
3754.00,0.0034
3753.00,0.0034
3752.00,0.0034
3751.00,0.0034
3750.00,0.0034
3749.00,0.0034
3748.00,0.0034
3747.00,0.0034
3746.00,0.0034
3745.00,0.0035
3744.00,0.0035
3743.00,0.0034
3742.00,0.0034
3741.00,0.0034
3740.00,0.0034
3739.00,0.0035
3738.00,0.0035
3737.00,0.0035
3736.00,0.0035
3735.00,0.0035
3734.00,0.0035
3733.00,0.0035
3732.00,0.0035
3731.00,0.0035
3730.00,0.0034
3729.00,0.0034
3728.00,0.0034
3727.00,0.0034
3726.00,0.0034
3725.00,0.0034
3724.00,0.0034
3723.00,0.0034
3722.00,0.0034
3721.00,0.0033
3720.00,0.0033
3719.00,0.0033
3718.00,0.0033
3717.00,0.0033
3716.00,0.0033
3715.00,0.0033
3714.00,0.0033
3713.00,0.0033
3712.00,0.0033
3711.00,0.0033
3710.00,0.0033
3709.00,0.0033
3708.00,0.0033
3707.00,0.0033
3706.00,0.0033
3705.00,0.0033
3704.00,0.0033
3703.00,0.0033
3702.00,0.0033
3701.00,0.0033
3700.00,0.0033
3699.00,0.0033
3698.00,0.0033
3697.00,0.0033
3696.00,0.0033
3695.00,0.0033
3694.00,0.0033
3693.00,0.0032
3692.00,0.0032
3691.00,0.0032
3690.00,0.0032
3689.00,0.0032
3688.00,0.0032
3687.00,0.0032
3686.00,0.0032
3685.00,0.0032
3684.00,0.0032
3683.00,0.0031
3682.00,0.0031
3681.00,0.0031
3680.00,0.0031
3679.00,0.0030
3678.00,0.0030
3677.00,0.0030
3676.00,0.0029
3675.00,0.0029
3674.00,0.0029
3673.00,0.0029
3672.00,0.0029
3671.00,0.0029
3670.00,0.0029
3669.00,0.0029
3668.00,0.0029
3667.00,0.0029
3666.00,0.0029
3665.00,0.0029
3664.00,0.0029
3663.00,0.0029
3662.00,0.0029
3661.00,0.0029
3660.00,0.0029
3659.00,0.0030
3658.00,0.0030
3657.00,0.0030
3656.00,0.0031
3655.00,0.0031
3654.00,0.0031
3653.00,0.0032
3652.00,0.0033
3651.00,0.0033
3650.00,0.0034
3649.00,0.0034
3648.00,0.0035
3647.00,0.0036
3646.00,0.0036
3645.00,0.0037
3644.00,0.0037
3643.00,0.0038
3642.00,0.0038
3641.00,0.0039
3640.00,0.0039
3639.00,0.0040
3638.00,0.0040
3637.00,0.0040
3636.00,0.0041
3635.00,0.0042
3634.00,0.0044
3633.00,0.0045
3632.00,0.0046
3631.00,0.0047
3630.00,0.0048
3629.00,0.0049
3628.00,0.0049
3627.00,0.0050
3626.00,0.0050
3625.00,0.0051
3624.00,0.0051
3623.00,0.0052
3622.00,0.0052
3621.00,0.0053
3620.00,0.0053
3619.00,0.0054
3618.00,0.0055
3617.00,0.0055
3616.00,0.0056
3615.00,0.0057
3614.00,0.0057
3613.00,0.0058
3612.00,0.0058
3611.00,0.0059
3610.00,0.0060
3609.00,0.0060
3608.00,0.0060
3607.00,0.0061
3606.00,0.0061
3605.00,0.0062
3604.00,0.0062
3603.00,0.0063
3602.00,0.0063
3601.00,0.0063
3600.00,0.0064
3599.00,0.0065
3598.00,0.0065
3597.00,0.0066
3596.00,0.0066
3595.00,0.0066
3594.00,0.0067
3593.00,0.0068
3592.00,0.0069
3591.00,0.0070
3590.00,0.0070
3589.00,0.0071
3588.00,0.0071
3587.00,0.0072
3586.00,0.0072
3585.00,0.0073
3584.00,0.0073
3583.00,0.0074
3582.00,0.0074
3581.00,0.0075
3580.00,0.0075
3579.00,0.0076
3578.00,0.0076
3577.00,0.0077
3576.00,0.0077
3575.00,0.0078
3574.00,0.0079
3573.00,0.0080
3572.00,0.0081
3571.00,0.0082
3570.00,0.0083
3569.00,0.0083
3568.00,0.0084
3567.00,0.0085
3566.00,0.0085
3565.00,0.0086
3564.00,0.0086
3563.00,0.0087
3562.00,0.0088
3561.00,0.0088
3560.00,0.0088
3559.00,0.0089
3558.00,0.0089
3557.00,0.0090
3556.00,0.0091
3555.00,0.0091
3554.00,0.0092
3553.00,0.0093
3552.00,0.0094
3551.00,0.0094
3550.00,0.0095
3549.00,0.0096
3548.00,0.0097
3547.00,0.0098
3546.00,0.0098
3545.00,0.0099
3544.00,0.0099
3543.00,0.0100
3542.00,0.0100
3541.00,0.0101
3540.00,0.0102
3539.00,0.0102
3538.00,0.0103
3537.00,0.0104
3536.00,0.0104
3535.00,0.0105
3534.00,0.0106
3533.00,0.0106
3532.00,0.0107
3531.00,0.0107
3530.00,0.0108
3529.00,0.0109
3528.00,0.0110
3527.00,0.0110
3526.00,0.0111
3525.00,0.0112
3524.00,0.0113
3523.00,0.0113
3522.00,0.0114
3521.00,0.0114
3520.00,0.0115
3519.00,0.0115
3518.00,0.0116
3517.00,0.0117
3516.00,0.0117
3515.00,0.0118
3514.00,0.0119
3513.00,0.0119
3512.00,0.0120
3511.00,0.0121
3510.00,0.0121
3509.00,0.0122
3508.00,0.0123
3507.00,0.0124
3506.00,0.0125
3505.00,0.0125
3504.00,0.0126
3503.00,0.0127
3502.00,0.0127
3501.00,0.0128
3500.00,0.0129
3499.00,0.0129
3498.00,0.0130
3497.00,0.0130
3496.00,0.0131
3495.00,0.0132
3494.00,0.0132
3493.00,0.0133
3492.00,0.0134
3491.00,0.0135
3490.00,0.0136
3489.00,0.0136
3488.00,0.0137
3487.00,0.0138
3486.00,0.0139
3485.00,0.0139
3484.00,0.0140
3483.00,0.0141
3482.00,0.0141
3481.00,0.0142
3480.00,0.0143
3479.00,0.0143
3478.00,0.0144
3477.00,0.0145
3476.00,0.0145
3475.00,0.0146
3474.00,0.0147
3473.00,0.0148
3472.00,0.0148
3471.00,0.0149
3470.00,0.0150
3469.00,0.0151
3468.00,0.0152
3467.00,0.0153
3466.00,0.0153
3465.00,0.0154
3464.00,0.0155
3463.00,0.0156
3462.00,0.0156
3461.00,0.0157
3460.00,0.0158
3459.00,0.0158
3458.00,0.0159
3457.00,0.0159
3456.00,0.0160
3455.00,0.0161
3454.00,0.0161
3453.00,0.0162
3452.00,0.0163
3451.00,0.0164
3450.00,0.0164
3449.00,0.0165
3448.00,0.0166
3447.00,0.0166
3446.00,0.0167
3445.00,0.0168
3444.00,0.0169
3443.00,0.0170
3442.00,0.0170
3441.00,0.0171
3440.00,0.0172
3439.00,0.0172
3438.00,0.0173
3437.00,0.0174
3436.00,0.0175
3435.00,0.0176
3434.00,0.0176
3433.00,0.0177
3432.00,0.0178
3431.00,0.0178
3430.00,0.0179
3429.00,0.0180
3428.00,0.0180
3427.00,0.0181
3426.00,0.0182
3425.00,0.0182
3424.00,0.0183
3423.00,0.0184
3422.00,0.0185
3421.00,0.0185
3420.00,0.0186
3419.00,0.0187
3418.00,0.0188
3417.00,0.0188
3416.00,0.0189
3415.00,0.0190
3414.00,0.0191
3413.00,0.0192
3412.00,0.0192
3411.00,0.0193
3410.00,0.0194
3409.00,0.0195
3408.00,0.0195
3407.00,0.0196
3406.00,0.0197
3405.00,0.0198
3404.00,0.0198
3403.00,0.0199
3402.00,0.0200
3401.00,0.0201
3400.00,0.0201
3399.00,0.0202
3398.00,0.0203
3397.00,0.0203
3396.00,0.0204
3395.00,0.0205
3394.00,0.0205
3393.00,0.0206
3392.00,0.0207
3391.00,0.0207
3390.00,0.0208
3389.00,0.0209
3388.00,0.0210
3387.00,0.0210
3386.00,0.0211
3385.00,0.0212
3384.00,0.0213
3383.00,0.0213
3382.00,0.0214
3381.00,0.0215
3380.00,0.0216
3379.00,0.0217
3378.00,0.0217
3377.00,0.0218
3376.00,0.0219
3375.00,0.0220
3374.00,0.0221
3373.00,0.0222
3372.00,0.0223
3371.00,0.0224
3370.00,0.0225
3369.00,0.0226
3368.00,0.0227
3367.00,0.0228
3366.00,0.0229
3365.00,0.0230
3364.00,0.0231
3363.00,0.0232
3362.00,0.0234
3361.00,0.0235
3360.00,0.0236
3359.00,0.0237
3358.00,0.0239
3357.00,0.0240
3356.00,0.0241
3355.00,0.0242
3354.00,0.0243
3353.00,0.0244
3352.00,0.0246
3351.00,0.0247
3350.00,0.0248
3349.00,0.0250
3348.00,0.0251
3347.00,0.0252
3346.00,0.0254
3345.00,0.0255
3344.00,0.0256
3343.00,0.0258
3342.00,0.0259
3341.00,0.0260
3340.00,0.0262
3339.00,0.0263
3338.00,0.0265
3337.00,0.0266
3336.00,0.0268
3335.00,0.0270
3334.00,0.0271
3333.00,0.0273
3332.00,0.0275
3331.00,0.0276
3330.00,0.0278
3329.00,0.0280
3328.00,0.0281
3327.00,0.0283
3326.00,0.0285
3325.00,0.0287
3324.00,0.0289
3323.00,0.0291
3322.00,0.0292
3321.00,0.0294
3320.00,0.0296
3319.00,0.0298
3318.00,0.0300
3317.00,0.0302
3316.00,0.0304
3315.00,0.0306
3314.00,0.0308
3313.00,0.0310
3312.00,0.0312
3311.00,0.0314
3310.00,0.0316
3309.00,0.0317
3308.00,0.0319
3307.00,0.0321
3306.00,0.0324
3305.00,0.0326
3304.00,0.0328
3303.00,0.0331
3302.00,0.0333
3301.00,0.0335
3300.00,0.0338
3299.00,0.0340
3298.00,0.0341
3297.00,0.0343
3296.00,0.0345
3295.00,0.0347
3294.00,0.0349
3293.00,0.0351
3292.00,0.0353
3291.00,0.0355
3290.00,0.0357
3289.00,0.0359
3288.00,0.0361
3287.00,0.0363
3286.00,0.0364
3285.00,0.0365
3284.00,0.0366
3283.00,0.0367
3282.00,0.0368
3281.00,0.0369
3280.00,0.0370
3279.00,0.0371
3278.00,0.0371
3277.00,0.0371
3276.00,0.0371
3275.00,0.0371
3274.00,0.0371
3273.00,0.0370
3272.00,0.0370
3271.00,0.0369
3270.00,0.0369
3269.00,0.0368
3268.00,0.0367
3267.00,0.0366
3266.00,0.0365
3265.00,0.0364
3264.00,0.0362
3263.00,0.0361
3262.00,0.0359
3261.00,0.0357
3260.00,0.0356
3259.00,0.0354
3258.00,0.0352
3257.00,0.0350
3256.00,0.0348
3255.00,0.0346
3254.00,0.0344
3253.00,0.0343
3252.00,0.0341
3251.00,0.0339
3250.00,0.0337
3249.00,0.0335
3248.00,0.0333
3247.00,0.0331
3246.00,0.0329
3245.00,0.0328
3244.00,0.0327
3243.00,0.0325
3242.00,0.0323
3241.00,0.0322
3240.00,0.0320
3239.00,0.0318
3238.00,0.0317
3237.00,0.0315
3236.00,0.0313
3235.00,0.0312
3234.00,0.0310
3233.00,0.0309
3232.00,0.0308
3231.00,0.0307
3230.00,0.0306
3229.00,0.0305
3228.00,0.0304
3227.00,0.0303
3226.00,0.0301
3225.00,0.0300
3224.00,0.0299
3223.00,0.0298
3222.00,0.0297
3221.00,0.0296
3220.00,0.0295
3219.00,0.0294
3218.00,0.0293
3217.00,0.0292
3216.00,0.0291
3215.00,0.0290
3214.00,0.0289
3213.00,0.0288
3212.00,0.0287
3211.00,0.0286
3210.00,0.0285
3209.00,0.0284
3208.00,0.0283
3207.00,0.0282
3206.00,0.0281
3205.00,0.0280
3204.00,0.0279
3203.00,0.0278
3202.00,0.0277
3201.00,0.0276
3200.00,0.0275
3199.00,0.0274
3198.00,0.0273
3197.00,0.0272
3196.00,0.0271
3195.00,0.0270
3194.00,0.0268
3193.00,0.0267
3192.00,0.0266
3191.00,0.0265
3190.00,0.0264
3189.00,0.0263
3188.00,0.0261
3187.00,0.0260
3186.00,0.0259
3185.00,0.0258
3184.00,0.0257
3183.00,0.0255
3182.00,0.0254
3181.00,0.0253
3180.00,0.0251
3179.00,0.0250
3178.00,0.0249
3177.00,0.0248
3176.00,0.0246
3175.00,0.0245
3174.00,0.0243
3173.00,0.0242
3172.00,0.0241
3171.00,0.0240
3170.00,0.0238
3169.00,0.0237
3168.00,0.0236
3167.00,0.0235
3166.00,0.0233
3165.00,0.0232
3164.00,0.0231
3163.00,0.0230
3162.00,0.0228
3161.00,0.0227
3160.00,0.0226
3159.00,0.0224
3158.00,0.0223
3157.00,0.0222
3156.00,0.0221
3155.00,0.0219
3154.00,0.0218
3153.00,0.0217
3152.00,0.0216
3151.00,0.0215
3150.00,0.0214
3149.00,0.0213
3148.00,0.0212
3147.00,0.0211
3146.00,0.0210
3145.00,0.0209
3144.00,0.0208
3143.00,0.0207
3142.00,0.0206
3141.00,0.0205
3140.00,0.0204
3139.00,0.0203
3138.00,0.0202
3137.00,0.0202
3136.00,0.0201
3135.00,0.0200
3134.00,0.0200
3133.00,0.0199
3132.00,0.0198
3131.00,0.0197
3130.00,0.0196
3129.00,0.0196
3128.00,0.0195
3127.00,0.0195
3126.00,0.0194
3125.00,0.0193
3124.00,0.0193
3123.00,0.0192
3122.00,0.0191
3121.00,0.0191
3120.00,0.0190
3119.00,0.0190
3118.00,0.0190
3117.00,0.0189
3116.00,0.0189
3115.00,0.0189
3114.00,0.0189
3113.00,0.0189
3112.00,0.0189
3111.00,0.0189
3110.00,0.0188
3109.00,0.0188
3108.00,0.0188
3107.00,0.0189
3106.00,0.0189
3105.00,0.0189
3104.00,0.0189
3103.00,0.0189
3102.00,0.0189
3101.00,0.0189
3100.00,0.0189
3099.00,0.0189
3098.00,0.0190
3097.00,0.0190
3096.00,0.0190
3095.00,0.0190
3094.00,0.0190
3093.00,0.0191
3092.00,0.0191
3091.00,0.0191
3090.00,0.0191
3089.00,0.0191
3088.00,0.0192
3087.00,0.0192
3086.00,0.0192
3085.00,0.0192
3084.00,0.0192
3083.00,0.0193
3082.00,0.0193
3081.00,0.0193
3080.00,0.0193
3079.00,0.0193
3078.00,0.0194
3077.00,0.0194
3076.00,0.0195
3075.00,0.0195
3074.00,0.0195
3073.00,0.0196
3072.00,0.0195
3071.00,0.0195
3070.00,0.0195
3069.00,0.0194
3068.00,0.0194
3067.00,0.0194
3066.00,0.0194
3065.00,0.0194
3064.00,0.0194
3063.00,0.0193
3062.00,0.0193
3061.00,0.0193
3060.00,0.0192
3059.00,0.0192
3058.00,0.0191
3057.00,0.0190
3056.00,0.0189
3055.00,0.0189
3054.00,0.0188
3053.00,0.0187
3052.00,0.0186
3051.00,0.0185
3050.00,0.0185
3049.00,0.0184
3048.00,0.0183
3047.00,0.0182
3046.00,0.0181
3045.00,0.0180
3044.00,0.0179
3043.00,0.0179
3042.00,0.0178
3041.00,0.0177
3040.00,0.0177
3039.00,0.0176
3038.00,0.0176
3037.00,0.0175
3036.00,0.0174
3035.00,0.0173
3034.00,0.0172
3033.00,0.0171
3032.00,0.0171
3031.00,0.0170
3030.00,0.0169
3029.00,0.0169
3028.00,0.0168
3027.00,0.0167
3026.00,0.0166
3025.00,0.0164
3024.00,0.0163
3023.00,0.0162
3022.00,0.0161
3021.00,0.0160
3020.00,0.0158
3019.00,0.0157
3018.00,0.0155
3017.00,0.0154
3016.00,0.0152
3015.00,0.0150
3014.00,0.0149
3013.00,0.0147
3012.00,0.0146
3011.00,0.0144
3010.00,0.0142
3009.00,0.0140
3008.00,0.0138
3007.00,0.0135
3006.00,0.0133
3005.00,0.0130
3004.00,0.0127
3003.00,0.0125
3002.00,0.0122
3001.00,0.0120
3000.00,0.0118
2999.00,0.0116
2998.00,0.0114
2997.00,0.0113
2996.00,0.0112
2995.00,0.0111
2994.00,0.0110
2993.00,0.0109
2992.00,0.0109
2991.00,0.0109
2990.00,0.0109
2989.00,0.0109
2988.00,0.0109
2987.00,0.0108
2986.00,0.0106
2985.00,0.0101
2984.00,0.0095
2983.00,0.0089
2982.00,0.0085
2981.00,0.0084
2980.00,0.0088
2979.00,0.0093
2978.00,0.0099
2977.00,0.0104
2976.00,0.0108
2975.00,0.0111
2974.00,0.0113
2973.00,0.0114
2972.00,0.0115
2971.00,0.0117
2970.00,0.0121
2969.00,0.0126
2968.00,0.0131
2967.00,0.0136
2966.00,0.0139
2965.00,0.0143
2964.00,0.0146
2963.00,0.0148
2962.00,0.0151
2961.00,0.0153
2960.00,0.0155
2959.00,0.0157
2958.00,0.0158
2957.00,0.0159
2956.00,0.0161
2955.00,0.0162
2954.00,0.0163
2953.00,0.0164
2952.00,0.0165
2951.00,0.0166
2950.00,0.0167
2949.00,0.0168
2948.00,0.0169
2947.00,0.0171
2946.00,0.0173
2945.00,0.0175
2944.00,0.0178
2943.00,0.0180
2942.00,0.0182
2941.00,0.0185
2940.00,0.0187
2939.00,0.0189
2938.00,0.0191
2937.00,0.0193
2936.00,0.0195
2935.00,0.0197
2934.00,0.0199
2933.00,0.0200
2932.00,0.0201
2931.00,0.0202
2930.00,0.0202
2929.00,0.0203
2928.00,0.0204
2927.00,0.0204
2926.00,0.0205
2925.00,0.0205
2924.00,0.0205
2923.00,0.0204
2922.00,0.0203
2921.00,0.0203
2920.00,0.0201
2919.00,0.0200
2918.00,0.0197
2917.00,0.0195
2916.00,0.0192
2915.00,0.0188
2914.00,0.0184
2913.00,0.0180
2912.00,0.0177
2911.00,0.0173
2910.00,0.0170
2909.00,0.0168
2908.00,0.0165
2907.00,0.0163
2906.00,0.0161
2905.00,0.0159
2904.00,0.0158
2903.00,0.0156
2902.00,0.0155
2901.00,0.0153
2900.00,0.0152
2899.00,0.0151
2898.00,0.0149
2897.00,0.0148
2896.00,0.0147
2895.00,0.0146
2894.00,0.0144
2893.00,0.0143
2892.00,0.0142
2891.00,0.0141
2890.00,0.0140
2889.00,0.0140
2888.00,0.0139
2887.00,0.0139
2886.00,0.0139
2885.00,0.0139
2884.00,0.0140
2883.00,0.0141
2882.00,0.0142
2881.00,0.0144
2880.00,0.0146
2879.00,0.0148
2878.00,0.0149
2877.00,0.0151
2876.00,0.0152
2875.00,0.0152
2874.00,0.0153
2873.00,0.0153
2872.00,0.0153
2871.00,0.0153
2870.00,0.0153
2869.00,0.0153
2868.00,0.0152
2867.00,0.0152
2866.00,0.0151
2865.00,0.0151
2864.00,0.0151
2863.00,0.0151
2862.00,0.0151
2861.00,0.0152
2860.00,0.0152
2859.00,0.0153
2858.00,0.0154
2857.00,0.0155
2856.00,0.0156
2855.00,0.0157
2854.00,0.0158
2853.00,0.0158
2852.00,0.0159
2851.00,0.0159
2850.00,0.0158
2849.00,0.0156
2848.00,0.0154
2847.00,0.0151
2846.00,0.0148
2845.00,0.0144
2844.00,0.0142
2843.00,0.0139
2842.00,0.0137
2841.00,0.0135
2840.00,0.0133
2839.00,0.0132
2838.00,0.0131
2837.00,0.0130
2836.00,0.0129
2835.00,0.0128
2834.00,0.0127
2833.00,0.0126
2832.00,0.0126
2831.00,0.0125
2830.00,0.0125
2829.00,0.0124
2828.00,0.0124
2827.00,0.0123
2826.00,0.0123
2825.00,0.0122
2824.00,0.0122
2823.00,0.0122
2822.00,0.0121
2821.00,0.0121
2820.00,0.0121
2819.00,0.0120
2818.00,0.0120
2817.00,0.0119
2816.00,0.0119
2815.00,0.0119
2814.00,0.0118
2813.00,0.0118
2812.00,0.0118
2811.00,0.0117
2810.00,0.0117
2809.00,0.0116
2808.00,0.0116
2807.00,0.0116
2806.00,0.0116
2805.00,0.0115
2804.00,0.0115
2803.00,0.0115
2802.00,0.0115
2801.00,0.0114
2800.00,0.0114
2799.00,0.0114
2798.00,0.0113
2797.00,0.0113
2796.00,0.0113
2795.00,0.0112
2794.00,0.0112
2793.00,0.0112
2792.00,0.0111
2791.00,0.0111
2790.00,0.0111
2789.00,0.0111
2788.00,0.0110
2787.00,0.0110
2786.00,0.0110
2785.00,0.0110
2784.00,0.0110
2783.00,0.0109
2782.00,0.0109
2781.00,0.0109
2780.00,0.0108
2779.00,0.0108
2778.00,0.0108
2777.00,0.0108
2776.00,0.0107
2775.00,0.0107
2774.00,0.0107
2773.00,0.0107
2772.00,0.0106
2771.00,0.0106
2770.00,0.0106
2769.00,0.0106
2768.00,0.0105
2767.00,0.0105
2766.00,0.0105
2765.00,0.0105
2764.00,0.0104
2763.00,0.0104
2762.00,0.0104
2761.00,0.0104
2760.00,0.0104
2759.00,0.0103
2758.00,0.0103
2757.00,0.0103
