Created as New Dataset,Sample 279 By YargerLab Date Wednesday, July 24 2024
cm-1,A
4000.00,0.0050
3999.00,0.0050
3998.00,0.0049
3997.00,0.0049
3996.00,0.0049
3995.00,0.0049
3994.00,0.0049
3993.00,0.0049
3992.00,0.0049
3991.00,0.0050
3990.00,0.0050
3989.00,0.0050
3988.00,0.0050
3987.00,0.0050
3986.00,0.0050
3985.00,0.0050
3984.00,0.0050
3983.00,0.0050
3982.00,0.0050
3981.00,0.0049
3980.00,0.0049
3979.00,0.0049
3978.00,0.0049
3977.00,0.0049
3976.00,0.0049
3975.00,0.0050
3974.00,0.0050
3973.00,0.0050
3972.00,0.0050
3971.00,0.0050
3970.00,0.0049
3969.00,0.0049
3968.00,0.0049
3967.00,0.0049
3966.00,0.0049
3965.00,0.0049
3964.00,0.0049
3963.00,0.0049
3962.00,0.0049
3961.00,0.0049
3960.00,0.0049
3959.00,0.0049
3958.00,0.0049
3957.00,0.0049
3956.00,0.0049
3955.00,0.0049
3954.00,0.0049
3953.00,0.0049
3952.00,0.0049
3951.00,0.0049
3950.00,0.0049
3949.00,0.0049
3948.00,0.0049
3947.00,0.0049
3946.00,0.0049
3945.00,0.0049
3944.00,0.0049
3943.00,0.0049
3942.00,0.0049
3941.00,0.0049
3940.00,0.0049
3939.00,0.0049
3938.00,0.0049
3937.00,0.0049
3936.00,0.0049
3935.00,0.0049
3934.00,0.0049
3933.00,0.0049
3932.00,0.0049
3931.00,0.0049
3930.00,0.0049
3929.00,0.0049
3928.00,0.0049
3927.00,0.0049
3926.00,0.0049
3925.00,0.0049
3924.00,0.0049
3923.00,0.0049
3922.00,0.0049
3921.00,0.0048
3920.00,0.0048
3919.00,0.0048
3918.00,0.0048
3917.00,0.0048
3916.00,0.0048
3915.00,0.0048
3914.00,0.0048
3913.00,0.0048
3912.00,0.0048
3911.00,0.0048
3910.00,0.0048
3909.00,0.0048
3908.00,0.0048
3907.00,0.0048
3906.00,0.0048
3905.00,0.0048
3904.00,0.0048
3903.00,0.0048
3902.00,0.0048
3901.00,0.0048
3900.00,0.0049
3899.00,0.0048
3898.00,0.0048
3897.00,0.0048
3896.00,0.0048
3895.00,0.0048
3894.00,0.0048
3893.00,0.0048
3892.00,0.0048
3891.00,0.0048
3890.00,0.0047
3889.00,0.0048
3888.00,0.0048
3887.00,0.0048
3886.00,0.0048
3885.00,0.0047
3884.00,0.0048
3883.00,0.0048
3882.00,0.0048
3881.00,0.0048
3880.00,0.0048
3879.00,0.0048
3878.00,0.0048
3877.00,0.0048
3876.00,0.0048
3875.00,0.0048
3874.00,0.0047
3873.00,0.0048
3872.00,0.0048
3871.00,0.0048
3870.00,0.0048
3869.00,0.0047
3868.00,0.0048
3867.00,0.0048
3866.00,0.0048
3865.00,0.0048
3864.00,0.0047
3863.00,0.0048
3862.00,0.0047
3861.00,0.0047
3860.00,0.0047
3859.00,0.0047
3858.00,0.0047
3857.00,0.0047
3856.00,0.0047
3855.00,0.0047
3854.00,0.0047
3853.00,0.0047
3852.00,0.0048
3851.00,0.0048
3850.00,0.0048
3849.00,0.0048
3848.00,0.0047
3847.00,0.0047
3846.00,0.0047
3845.00,0.0047
3844.00,0.0047
3843.00,0.0047
3842.00,0.0047
3841.00,0.0047
3840.00,0.0047
3839.00,0.0048
3838.00,0.0048
3837.00,0.0048
3836.00,0.0048
3835.00,0.0047
3834.00,0.0047
3833.00,0.0047
3832.00,0.0047
3831.00,0.0047
3830.00,0.0047
3829.00,0.0047
3828.00,0.0047
3827.00,0.0047
3826.00,0.0046
3825.00,0.0046
3824.00,0.0046
3823.00,0.0047
3822.00,0.0047
3821.00,0.0047
3820.00,0.0047
3819.00,0.0047
3818.00,0.0047
3817.00,0.0047
3816.00,0.0047
3815.00,0.0047
3814.00,0.0047
3813.00,0.0047
3812.00,0.0046
3811.00,0.0046
3810.00,0.0046
3809.00,0.0046
3808.00,0.0046
3807.00,0.0046
3806.00,0.0046
3805.00,0.0046
3804.00,0.0047
3803.00,0.0047
3802.00,0.0047
3801.00,0.0046
3800.00,0.0046
3799.00,0.0047
3798.00,0.0047
3797.00,0.0046
3796.00,0.0046
3795.00,0.0046
3794.00,0.0046
3793.00,0.0046
3792.00,0.0046
3791.00,0.0046
3790.00,0.0046
3789.00,0.0046
3788.00,0.0046
3787.00,0.0046
3786.00,0.0046
3785.00,0.0046
3784.00,0.0046
3783.00,0.0046
3782.00,0.0046
3781.00,0.0046
3780.00,0.0046
3779.00,0.0045
3778.00,0.0045
3777.00,0.0045
3776.00,0.0045
3775.00,0.0045
3774.00,0.0045
3773.00,0.0045
3772.00,0.0045
3771.00,0.0045
3770.00,0.0045
3769.00,0.0046
3768.00,0.0046
3767.00,0.0046
3766.00,0.0046
3765.00,0.0046
3764.00,0.0046
3763.00,0.0046
3762.00,0.0046
3761.00,0.0046
3760.00,0.0046
3759.00,0.0045
3758.00,0.0045
3757.00,0.0045
3756.00,0.0045
3755.00,0.0046
3754.00,0.0046
3753.00,0.0046
3752.00,0.0046
3751.00,0.0047
3750.00,0.0047
3749.00,0.0046
3748.00,0.0046
3747.00,0.0047
3746.00,0.0047
3745.00,0.0046
3744.00,0.0046
3743.00,0.0046
3742.00,0.0046
3741.00,0.0046
3740.00,0.0045
3739.00,0.0045
3738.00,0.0045
3737.00,0.0045
3736.00,0.0045
3735.00,0.0045
3734.00,0.0045
3733.00,0.0045
3732.00,0.0045
3731.00,0.0045
3730.00,0.0045
3729.00,0.0045
3728.00,0.0045
3727.00,0.0045
3726.00,0.0045
3725.00,0.0045
3724.00,0.0045
3723.00,0.0045
3722.00,0.0045
3721.00,0.0045
3720.00,0.0045
3719.00,0.0045
3718.00,0.0045
3717.00,0.0044
3716.00,0.0044
3715.00,0.0044
3714.00,0.0044
3713.00,0.0045
3712.00,0.0045
3711.00,0.0045
3710.00,0.0045
3709.00,0.0045
3708.00,0.0044
3707.00,0.0044
3706.00,0.0044
3705.00,0.0044
3704.00,0.0044
3703.00,0.0044
3702.00,0.0044
3701.00,0.0044
3700.00,0.0044
3699.00,0.0044
3698.00,0.0044
3697.00,0.0044
3696.00,0.0044
3695.00,0.0044
3694.00,0.0044
3693.00,0.0044
3692.00,0.0044
3691.00,0.0044
3690.00,0.0045
3689.00,0.0045
3688.00,0.0045
3687.00,0.0045
3686.00,0.0045
3685.00,0.0045
3684.00,0.0045
3683.00,0.0045
3682.00,0.0045
3681.00,0.0045
3680.00,0.0045
3679.00,0.0045
3678.00,0.0045
3677.00,0.0046
3676.00,0.0046
3675.00,0.0046
3674.00,0.0046
3673.00,0.0047
3672.00,0.0047
3671.00,0.0047
3670.00,0.0046
3669.00,0.0046
3668.00,0.0047
3667.00,0.0047
3666.00,0.0047
3665.00,0.0047
3664.00,0.0047
3663.00,0.0047
3662.00,0.0047
3661.00,0.0047
3660.00,0.0047
3659.00,0.0047
3658.00,0.0048
3657.00,0.0048
3656.00,0.0048
3655.00,0.0048
3654.00,0.0048
3653.00,0.0049
3652.00,0.0049
3651.00,0.0049
3650.00,0.0050
3649.00,0.0050
3648.00,0.0051
3647.00,0.0051
3646.00,0.0051
3645.00,0.0051
3644.00,0.0051
3643.00,0.0051
3642.00,0.0052
3641.00,0.0052
3640.00,0.0052
3639.00,0.0052
3638.00,0.0052
3637.00,0.0053
3636.00,0.0053
3635.00,0.0054
3634.00,0.0054
3633.00,0.0054
3632.00,0.0054
3631.00,0.0055
3630.00,0.0055
3629.00,0.0056
3628.00,0.0056
3627.00,0.0056
3626.00,0.0057
3625.00,0.0057
3624.00,0.0058
3623.00,0.0058
3622.00,0.0059
3621.00,0.0059
3620.00,0.0059
3619.00,0.0059
3618.00,0.0059
3617.00,0.0060
3616.00,0.0060
3615.00,0.0061
3614.00,0.0061
3613.00,0.0061
3612.00,0.0062
3611.00,0.0062
3610.00,0.0063
3609.00,0.0063
3608.00,0.0063
3607.00,0.0064
3606.00,0.0064
3605.00,0.0064
3604.00,0.0065
3603.00,0.0065
3602.00,0.0065
3601.00,0.0066
3600.00,0.0066
3599.00,0.0066
3598.00,0.0067
3597.00,0.0067
3596.00,0.0068
3595.00,0.0068
3594.00,0.0068
3593.00,0.0069
3592.00,0.0069
3591.00,0.0070
3590.00,0.0070
3589.00,0.0070
3588.00,0.0071
3587.00,0.0071
3586.00,0.0072
3585.00,0.0072
3584.00,0.0073
3583.00,0.0073
3582.00,0.0074
3581.00,0.0074
3580.00,0.0074
3579.00,0.0075
3578.00,0.0075
3577.00,0.0076
3576.00,0.0076
3575.00,0.0077
3574.00,0.0077
3573.00,0.0078
3572.00,0.0078
3571.00,0.0079
3570.00,0.0079
3569.00,0.0079
3568.00,0.0080
3567.00,0.0080
3566.00,0.0080
3565.00,0.0081
3564.00,0.0082
3563.00,0.0082
3562.00,0.0083
3561.00,0.0083
3560.00,0.0084
3559.00,0.0084
3558.00,0.0084
3557.00,0.0085
3556.00,0.0085
3555.00,0.0086
3554.00,0.0087
3553.00,0.0087
3552.00,0.0087
3551.00,0.0088
3550.00,0.0088
3549.00,0.0089
3548.00,0.0089
3547.00,0.0090
3546.00,0.0090
3545.00,0.0091
3544.00,0.0091
3543.00,0.0092
3542.00,0.0092
3541.00,0.0093
3540.00,0.0094
3539.00,0.0094
3538.00,0.0095
3537.00,0.0095
3536.00,0.0095
3535.00,0.0096
3534.00,0.0096
3533.00,0.0097
3532.00,0.0097
3531.00,0.0098
3530.00,0.0098
3529.00,0.0099
3528.00,0.0099
3527.00,0.0099
3526.00,0.0100
3525.00,0.0100
3524.00,0.0101
3523.00,0.0101
3522.00,0.0102
3521.00,0.0102
3520.00,0.0103
3519.00,0.0103
3518.00,0.0104
3517.00,0.0104
3516.00,0.0105
3515.00,0.0105
3514.00,0.0105
3513.00,0.0106
3512.00,0.0106
3511.00,0.0107
3510.00,0.0107
3509.00,0.0108
3508.00,0.0108
3507.00,0.0109
3506.00,0.0109
3505.00,0.0110
3504.00,0.0110
3503.00,0.0111
3502.00,0.0111
3501.00,0.0112
3500.00,0.0112
3499.00,0.0113
3498.00,0.0113
3497.00,0.0114
3496.00,0.0114
3495.00,0.0115
3494.00,0.0115
3493.00,0.0116
3492.00,0.0116
3491.00,0.0117
3490.00,0.0117
3489.00,0.0118
3488.00,0.0119
3487.00,0.0119
3486.00,0.0120
3485.00,0.0120
3484.00,0.0121
3483.00,0.0121
3482.00,0.0122
3481.00,0.0122
3480.00,0.0123
3479.00,0.0123
3478.00,0.0124
3477.00,0.0124
3476.00,0.0125
3475.00,0.0125
3474.00,0.0125
3473.00,0.0126
3472.00,0.0127
3471.00,0.0127
3470.00,0.0128
3469.00,0.0128
3468.00,0.0129
3467.00,0.0129
3466.00,0.0130
3465.00,0.0130
3464.00,0.0131
3463.00,0.0131
3462.00,0.0132
3461.00,0.0132
3460.00,0.0133
3459.00,0.0133
3458.00,0.0134
3457.00,0.0134
3456.00,0.0135
3455.00,0.0135
3454.00,0.0136
3453.00,0.0137
3452.00,0.0137
3451.00,0.0137
3450.00,0.0138
3449.00,0.0138
3448.00,0.0139
3447.00,0.0139
3446.00,0.0139
3445.00,0.0140
3444.00,0.0140
3443.00,0.0141
3442.00,0.0141
3441.00,0.0142
3440.00,0.0143
3439.00,0.0143
3438.00,0.0144
3437.00,0.0144
3436.00,0.0145
3435.00,0.0145
3434.00,0.0146
3433.00,0.0146
3432.00,0.0147
3431.00,0.0147
3430.00,0.0148
3429.00,0.0148
3428.00,0.0149
3427.00,0.0149
3426.00,0.0150
3425.00,0.0150
3424.00,0.0151
3423.00,0.0151
3422.00,0.0152
3421.00,0.0152
3420.00,0.0153
3419.00,0.0153
3418.00,0.0154
3417.00,0.0154
3416.00,0.0155
3415.00,0.0155
3414.00,0.0156
3413.00,0.0156
3412.00,0.0157
3411.00,0.0157
3410.00,0.0158
3409.00,0.0158
3408.00,0.0159
3407.00,0.0159
3406.00,0.0160
3405.00,0.0160
3404.00,0.0161
3403.00,0.0161
3402.00,0.0162
3401.00,0.0162
3400.00,0.0163
3399.00,0.0163
3398.00,0.0164
3397.00,0.0164
3396.00,0.0164
3395.00,0.0165
3394.00,0.0165
3393.00,0.0166
3392.00,0.0166
3391.00,0.0167
3390.00,0.0167
3389.00,0.0168
3388.00,0.0168
3387.00,0.0169
3386.00,0.0169
3385.00,0.0169
3384.00,0.0170
3383.00,0.0170
3382.00,0.0171
3381.00,0.0171
3380.00,0.0172
3379.00,0.0173
3378.00,0.0173
3377.00,0.0174
3376.00,0.0174
3375.00,0.0175
3374.00,0.0176
3373.00,0.0176
3372.00,0.0177
3371.00,0.0178
3370.00,0.0178
3369.00,0.0179
3368.00,0.0180
3367.00,0.0180
3366.00,0.0181
3365.00,0.0182
3364.00,0.0183
3363.00,0.0183
3362.00,0.0184
3361.00,0.0185
3360.00,0.0186
3359.00,0.0187
3358.00,0.0188
3357.00,0.0189
3356.00,0.0190
3355.00,0.0191
3354.00,0.0191
3353.00,0.0192
3352.00,0.0193
3351.00,0.0194
3350.00,0.0195
3349.00,0.0196
3348.00,0.0197
3347.00,0.0199
3346.00,0.0200
3345.00,0.0200
3344.00,0.0201
3343.00,0.0202
3342.00,0.0204
3341.00,0.0205
3340.00,0.0206
3339.00,0.0207
3338.00,0.0209
3337.00,0.0210
3336.00,0.0211
3335.00,0.0212
3334.00,0.0214
3333.00,0.0215
3332.00,0.0216
3331.00,0.0218
3330.00,0.0219
3329.00,0.0220
3328.00,0.0222
3327.00,0.0223
3326.00,0.0225
3325.00,0.0226
3324.00,0.0228
3323.00,0.0229
3322.00,0.0231
3321.00,0.0233
3320.00,0.0234
3319.00,0.0236
3318.00,0.0238
3317.00,0.0239
3316.00,0.0241
3315.00,0.0243
3314.00,0.0244
3313.00,0.0246
3312.00,0.0248
3311.00,0.0250
3310.00,0.0252
3309.00,0.0254
3308.00,0.0255
3307.00,0.0257
3306.00,0.0259
3305.00,0.0261
3304.00,0.0263
3303.00,0.0265
3302.00,0.0267
3301.00,0.0269
3300.00,0.0271
3299.00,0.0273
3298.00,0.0275
3297.00,0.0277
3296.00,0.0279
3295.00,0.0281
3294.00,0.0283
3293.00,0.0284
3292.00,0.0286
3291.00,0.0288
3290.00,0.0290
3289.00,0.0292
3288.00,0.0293
3287.00,0.0295
3286.00,0.0296
3285.00,0.0298
3284.00,0.0299
3283.00,0.0300
3282.00,0.0301
3281.00,0.0302
3280.00,0.0303
3279.00,0.0304
3278.00,0.0304
3277.00,0.0305
3276.00,0.0305
3275.00,0.0305
3274.00,0.0305
3273.00,0.0305
3272.00,0.0304
3271.00,0.0304
3270.00,0.0303
3269.00,0.0303
3268.00,0.0302
3267.00,0.0301
3266.00,0.0300
3265.00,0.0299
3264.00,0.0298
3263.00,0.0297
3262.00,0.0295
3261.00,0.0294
3260.00,0.0292
3259.00,0.0291
3258.00,0.0289
3257.00,0.0287
3256.00,0.0285
3255.00,0.0284
3254.00,0.0282
3253.00,0.0281
3252.00,0.0279
3251.00,0.0277
3250.00,0.0276
3249.00,0.0274
3248.00,0.0272
3247.00,0.0270
3246.00,0.0269
3245.00,0.0267
3244.00,0.0266
3243.00,0.0264
3242.00,0.0263
3241.00,0.0262
3240.00,0.0260
3239.00,0.0259
3238.00,0.0258
3237.00,0.0256
3236.00,0.0255
3235.00,0.0253
3234.00,0.0252
3233.00,0.0251
3232.00,0.0250
3231.00,0.0249
3230.00,0.0248
3229.00,0.0247
3228.00,0.0245
3227.00,0.0244
3226.00,0.0243
3225.00,0.0242
3224.00,0.0241
3223.00,0.0240
3222.00,0.0239
3221.00,0.0238
3220.00,0.0237
3219.00,0.0236
3218.00,0.0235
3217.00,0.0235
3216.00,0.0234
3215.00,0.0233
3214.00,0.0232
3213.00,0.0231
3212.00,0.0230
3211.00,0.0229
3210.00,0.0228
3209.00,0.0227
3208.00,0.0226
3207.00,0.0226
3206.00,0.0225
3205.00,0.0224
3204.00,0.0223
3203.00,0.0222
3202.00,0.0222
3201.00,0.0221
3200.00,0.0220
3199.00,0.0219
3198.00,0.0218
3197.00,0.0217
3196.00,0.0216
3195.00,0.0215
3194.00,0.0214
3193.00,0.0213
3192.00,0.0212
3191.00,0.0211
3190.00,0.0210
3189.00,0.0209
3188.00,0.0208
3187.00,0.0207
3186.00,0.0206
3185.00,0.0205
3184.00,0.0204
3183.00,0.0203
3182.00,0.0202
3181.00,0.0202
3180.00,0.0200
3179.00,0.0199
3178.00,0.0198
3177.00,0.0197
3176.00,0.0196
3175.00,0.0195
3174.00,0.0194
3173.00,0.0193
3172.00,0.0192
3171.00,0.0191
3170.00,0.0190
3169.00,0.0189
3168.00,0.0188
3167.00,0.0186
3166.00,0.0185
3165.00,0.0184
3164.00,0.0183
3163.00,0.0182
3162.00,0.0181
3161.00,0.0180
3160.00,0.0179
3159.00,0.0178
3158.00,0.0177
3157.00,0.0176
3156.00,0.0175
3155.00,0.0174
3154.00,0.0174
3153.00,0.0173
3152.00,0.0172
3151.00,0.0171
3150.00,0.0170
3149.00,0.0169
3148.00,0.0168
3147.00,0.0167
3146.00,0.0167
3145.00,0.0166
3144.00,0.0165
3143.00,0.0164
3142.00,0.0164
3141.00,0.0163
3140.00,0.0162
3139.00,0.0162
3138.00,0.0161
3137.00,0.0160
3136.00,0.0160
3135.00,0.0159
3134.00,0.0158
3133.00,0.0158
3132.00,0.0157
3131.00,0.0156
3130.00,0.0156
3129.00,0.0155
3128.00,0.0155
3127.00,0.0154
3126.00,0.0154
3125.00,0.0153
3124.00,0.0153
3123.00,0.0152
3122.00,0.0152
3121.00,0.0151
3120.00,0.0151
3119.00,0.0151
3118.00,0.0150
3117.00,0.0150
3116.00,0.0150
3115.00,0.0150
3114.00,0.0150
3113.00,0.0150
3112.00,0.0149
3111.00,0.0149
3110.00,0.0149
3109.00,0.0149
3108.00,0.0149
3107.00,0.0149
3106.00,0.0149
3105.00,0.0149
3104.00,0.0149
3103.00,0.0149
3102.00,0.0149
3101.00,0.0149
3100.00,0.0149
3099.00,0.0149
3098.00,0.0150
3097.00,0.0150
3096.00,0.0150
3095.00,0.0150
3094.00,0.0150
3093.00,0.0150
3092.00,0.0150
3091.00,0.0151
3090.00,0.0151
3089.00,0.0151
3088.00,0.0151
3087.00,0.0151
3086.00,0.0151
3085.00,0.0151
3084.00,0.0151
3083.00,0.0151
3082.00,0.0152
3081.00,0.0152
3080.00,0.0152
3079.00,0.0152
3078.00,0.0152
3077.00,0.0152
3076.00,0.0153
3075.00,0.0153
3074.00,0.0153
3073.00,0.0153
3072.00,0.0153
3071.00,0.0153
3070.00,0.0153
3069.00,0.0152
3068.00,0.0152
3067.00,0.0152
3066.00,0.0152
3065.00,0.0152
3064.00,0.0152
3063.00,0.0152
3062.00,0.0152
3061.00,0.0151
3060.00,0.0151
3059.00,0.0150
3058.00,0.0150
3057.00,0.0149
3056.00,0.0149
3055.00,0.0148
3054.00,0.0148
3053.00,0.0147
3052.00,0.0146
3051.00,0.0146
3050.00,0.0145
3049.00,0.0145
3048.00,0.0144
3047.00,0.0143
3046.00,0.0143
3045.00,0.0142
3044.00,0.0141
3043.00,0.0141
3042.00,0.0140
3041.00,0.0140
3040.00,0.0140
3039.00,0.0139
3038.00,0.0139
3037.00,0.0138
3036.00,0.0137
3035.00,0.0136
3034.00,0.0136
3033.00,0.0135
3032.00,0.0134
3031.00,0.0134
3030.00,0.0133
3029.00,0.0133
3028.00,0.0132
3027.00,0.0132
3026.00,0.0131
3025.00,0.0130
3024.00,0.0130
3023.00,0.0129
3022.00,0.0128
3021.00,0.0127
3020.00,0.0126
3019.00,0.0126
3018.00,0.0125
3017.00,0.0124
3016.00,0.0123
3015.00,0.0123
3014.00,0.0122
3013.00,0.0122
3012.00,0.0121
3011.00,0.0121
3010.00,0.0121
3009.00,0.0120
3008.00,0.0120
3007.00,0.0120
3006.00,0.0119
3005.00,0.0119
3004.00,0.0119
3003.00,0.0118
3002.00,0.0118
3001.00,0.0118
3000.00,0.0118
2999.00,0.0118
2998.00,0.0118
2997.00,0.0118
2996.00,0.0118
2995.00,0.0118
2994.00,0.0119
2993.00,0.0119
2992.00,0.0119
2991.00,0.0120
2990.00,0.0121
2989.00,0.0121
2988.00,0.0122
2987.00,0.0123
2986.00,0.0123
2985.00,0.0124
2984.00,0.0124
2983.00,0.0124
2982.00,0.0124
2981.00,0.0125
2980.00,0.0126
2979.00,0.0127
2978.00,0.0129
2977.00,0.0130
2976.00,0.0131
2975.00,0.0132
2974.00,0.0133
2973.00,0.0133
2972.00,0.0134
2971.00,0.0135
2970.00,0.0136
2969.00,0.0136
2968.00,0.0137
2967.00,0.0138
2966.00,0.0139
2965.00,0.0139
2964.00,0.0140
2963.00,0.0140
2962.00,0.0140
2961.00,0.0140
2960.00,0.0140
2959.00,0.0140
2958.00,0.0140
2957.00,0.0139
2956.00,0.0139
2955.00,0.0139
2954.00,0.0138
2953.00,0.0138
2952.00,0.0138
2951.00,0.0137
2950.00,0.0137
2949.00,0.0137
2948.00,0.0137
2947.00,0.0137
2946.00,0.0138
2945.00,0.0138
2944.00,0.0139
2943.00,0.0139
2942.00,0.0140
2941.00,0.0141
2940.00,0.0142
2939.00,0.0142
2938.00,0.0143
2937.00,0.0144
2936.00,0.0144
2935.00,0.0145
2934.00,0.0145
2933.00,0.0145
2932.00,0.0145
2931.00,0.0145
2930.00,0.0144
2929.00,0.0144
2928.00,0.0143
2927.00,0.0143
2926.00,0.0142
2925.00,0.0142
2924.00,0.0141
2923.00,0.0141
2922.00,0.0140
2921.00,0.0139
2920.00,0.0139
2919.00,0.0138
2918.00,0.0137
2917.00,0.0136
2916.00,0.0135
2915.00,0.0134
2914.00,0.0133
2913.00,0.0132
2912.00,0.0131
2911.00,0.0130
2910.00,0.0129
2909.00,0.0128
2908.00,0.0128
2907.00,0.0127
2906.00,0.0126
2905.00,0.0125
2904.00,0.0125
2903.00,0.0124
2902.00,0.0124
2901.00,0.0123
2900.00,0.0123
2899.00,0.0123
2898.00,0.0122
2897.00,0.0122
2896.00,0.0122
2895.00,0.0121
2894.00,0.0121
2893.00,0.0121
2892.00,0.0121
2891.00,0.0121
2890.00,0.0121
2889.00,0.0120
2888.00,0.0120
2887.00,0.0121
2886.00,0.0121
2885.00,0.0121
2884.00,0.0121
2883.00,0.0122
2882.00,0.0122
2881.00,0.0123
2880.00,0.0123
2879.00,0.0124
2878.00,0.0124
2877.00,0.0124
2876.00,0.0124
2875.00,0.0124
2874.00,0.0124
2873.00,0.0124
2872.00,0.0124
2871.00,0.0123
2870.00,0.0123
2869.00,0.0122
2868.00,0.0121
2867.00,0.0120
2866.00,0.0119
2865.00,0.0118
2864.00,0.0117
2863.00,0.0116
2862.00,0.0115
2861.00,0.0115
2860.00,0.0114
2859.00,0.0114
2858.00,0.0113
2857.00,0.0113
2856.00,0.0113
2855.00,0.0113
2854.00,0.0112
2853.00,0.0112
2852.00,0.0112
2851.00,0.0112
2850.00,0.0111
2849.00,0.0111
2848.00,0.0110
2847.00,0.0109
2846.00,0.0109
2845.00,0.0108
2844.00,0.0107
2843.00,0.0106
2842.00,0.0106
2841.00,0.0105
2840.00,0.0104
2839.00,0.0104
2838.00,0.0103
2837.00,0.0103
2836.00,0.0103
2835.00,0.0102
2834.00,0.0102
2833.00,0.0102
2832.00,0.0102
2831.00,0.0101
2830.00,0.0101
2829.00,0.0101
2828.00,0.0101
2827.00,0.0101
2826.00,0.0100
2825.00,0.0100
2824.00,0.0100
2823.00,0.0100
2822.00,0.0100
2821.00,0.0099
2820.00,0.0099
2819.00,0.0099
2818.00,0.0099
2817.00,0.0098
2816.00,0.0098
2815.00,0.0098
2814.00,0.0098
2813.00,0.0097
2812.00,0.0097
2811.00,0.0097
2810.00,0.0097
2809.00,0.0097
2808.00,0.0096
2807.00,0.0096
2806.00,0.0096
2805.00,0.0096
2804.00,0.0096
2803.00,0.0096
2802.00,0.0096
2801.00,0.0095
2800.00,0.0095
2799.00,0.0095
2798.00,0.0095
2797.00,0.0094
2796.00,0.0094
2795.00,0.0094
2794.00,0.0094
2793.00,0.0094
2792.00,0.0094
2791.00,0.0093
2790.00,0.0093
2789.00,0.0093
2788.00,0.0093
2787.00,0.0093
2786.00,0.0093
2785.00,0.0093
2784.00,0.0092
2783.00,0.0092
2782.00,0.0092
2781.00,0.0092
2780.00,0.0092
2779.00,0.0092
2778.00,0.0091
2777.00,0.0091
2776.00,0.0091
2775.00,0.0091
2774.00,0.0091
2773.00,0.0091
2772.00,0.0090
2771.00,0.0090
2770.00,0.0090
2769.00,0.0090
2768.00,0.0090
2767.00,0.0090
2766.00,0.0089
2765.00,0.0089
2764.00,0.0089
2763.00,0.0089
2762.00,0.0088
2761.00,0.0088
2760.00,0.0088
2759.00,0.0088
2758.00,0.0088
2757.00,0.0088
