Created as New Dataset,Sample 649 By YargerLab Date Tuesday, June 10 2025
cm-1,A
4000.00,0.0040
3999.00,0.0040
3998.00,0.0040
3997.00,0.0040
3996.00,0.0040
3995.00,0.0040
3994.00,0.0040
3993.00,0.0040
3992.00,0.0040
3991.00,0.0040
3990.00,0.0040
3989.00,0.0040
3988.00,0.0040
3987.00,0.0040
3986.00,0.0040
3985.00,0.0040
3984.00,0.0040
3983.00,0.0040
3982.00,0.0040
3981.00,0.0040
3980.00,0.0039
3979.00,0.0039
3978.00,0.0039
3977.00,0.0039
3976.00,0.0039
3975.00,0.0039
3974.00,0.0039
3973.00,0.0039
3972.00,0.0039
3971.00,0.0039
3970.00,0.0040
3969.00,0.0040
3968.00,0.0040
3967.00,0.0040
3966.00,0.0040
3965.00,0.0039
3964.00,0.0039
3963.00,0.0039
3962.00,0.0039
3961.00,0.0039
3960.00,0.0040
3959.00,0.0040
3958.00,0.0040
3957.00,0.0040
3956.00,0.0040
3955.00,0.0040
3954.00,0.0040
3953.00,0.0039
3952.00,0.0039
3951.00,0.0039
3950.00,0.0039
3949.00,0.0039
3948.00,0.0039
3947.00,0.0040
3946.00,0.0040
3945.00,0.0040
3944.00,0.0040
3943.00,0.0039
3942.00,0.0039
3941.00,0.0039
3940.00,0.0039
3939.00,0.0039
3938.00,0.0039
3937.00,0.0039
3936.00,0.0040
3935.00,0.0040
3934.00,0.0040
3933.00,0.0040
3932.00,0.0040
3931.00,0.0040
3930.00,0.0039
3929.00,0.0039
3928.00,0.0039
3927.00,0.0039
3926.00,0.0039
3925.00,0.0039
3924.00,0.0039
3923.00,0.0039
3922.00,0.0039
3921.00,0.0039
3920.00,0.0039
3919.00,0.0039
3918.00,0.0039
3917.00,0.0039
3916.00,0.0039
3915.00,0.0038
3914.00,0.0039
3913.00,0.0039
3912.00,0.0039
3911.00,0.0039
3910.00,0.0039
3909.00,0.0039
3908.00,0.0039
3907.00,0.0039
3906.00,0.0039
3905.00,0.0039
3904.00,0.0039
3903.00,0.0039
3902.00,0.0040
3901.00,0.0040
3900.00,0.0040
3899.00,0.0040
3898.00,0.0041
3897.00,0.0041
3896.00,0.0041
3895.00,0.0040
3894.00,0.0040
3893.00,0.0039
3892.00,0.0039
3891.00,0.0039
3890.00,0.0039
3889.00,0.0039
3888.00,0.0039
3887.00,0.0039
3886.00,0.0039
3885.00,0.0039
3884.00,0.0039
3883.00,0.0038
3882.00,0.0038
3881.00,0.0038
3880.00,0.0038
3879.00,0.0038
3878.00,0.0038
3877.00,0.0039
3876.00,0.0039
3875.00,0.0039
3874.00,0.0039
3873.00,0.0039
3872.00,0.0039
3871.00,0.0039
3870.00,0.0039
3869.00,0.0039
3868.00,0.0039
3867.00,0.0039
3866.00,0.0039
3865.00,0.0039
3864.00,0.0039
3863.00,0.0039
3862.00,0.0039
3861.00,0.0039
3860.00,0.0039
3859.00,0.0038
3858.00,0.0038
3857.00,0.0038
3856.00,0.0038
3855.00,0.0038
3854.00,0.0038
3853.00,0.0038
3852.00,0.0039
3851.00,0.0039
3850.00,0.0039
3849.00,0.0039
3848.00,0.0039
3847.00,0.0039
3846.00,0.0039
3845.00,0.0039
3844.00,0.0039
3843.00,0.0038
3842.00,0.0038
3841.00,0.0038
3840.00,0.0038
3839.00,0.0038
3838.00,0.0038
3837.00,0.0038
3836.00,0.0038
3835.00,0.0038
3834.00,0.0038
3833.00,0.0038
3832.00,0.0038
3831.00,0.0038
3830.00,0.0038
3829.00,0.0038
3828.00,0.0038
3827.00,0.0038
3826.00,0.0038
3825.00,0.0038
3824.00,0.0038
3823.00,0.0038
3822.00,0.0037
3821.00,0.0037
3820.00,0.0037
3819.00,0.0037
3818.00,0.0037
3817.00,0.0037
3816.00,0.0037
3815.00,0.0037
3814.00,0.0037
3813.00,0.0037
3812.00,0.0037
3811.00,0.0037
3810.00,0.0037
3809.00,0.0037
3808.00,0.0037
3807.00,0.0038
3806.00,0.0038
3805.00,0.0038
3804.00,0.0038
3803.00,0.0038
3802.00,0.0038
3801.00,0.0038
3800.00,0.0038
3799.00,0.0038
3798.00,0.0038
3797.00,0.0038
3796.00,0.0038
3795.00,0.0038
3794.00,0.0038
3793.00,0.0038
3792.00,0.0038
3791.00,0.0038
3790.00,0.0038
3789.00,0.0038
3788.00,0.0038
3787.00,0.0037
3786.00,0.0037
3785.00,0.0037
3784.00,0.0037
3783.00,0.0037
3782.00,0.0037
3781.00,0.0038
3780.00,0.0038
3779.00,0.0038
3778.00,0.0038
3777.00,0.0038
3776.00,0.0038
3775.00,0.0038
3774.00,0.0038
3773.00,0.0038
3772.00,0.0039
3771.00,0.0039
3770.00,0.0039
3769.00,0.0038
3768.00,0.0038
3767.00,0.0037
3766.00,0.0038
3765.00,0.0038
3764.00,0.0038
3763.00,0.0038
3762.00,0.0038
3761.00,0.0038
3760.00,0.0038
3759.00,0.0038
3758.00,0.0038
3757.00,0.0038
3756.00,0.0037
3755.00,0.0037
3754.00,0.0037
3753.00,0.0037
3752.00,0.0037
3751.00,0.0037
3750.00,0.0037
3749.00,0.0037
3748.00,0.0037
3747.00,0.0037
3746.00,0.0037
3745.00,0.0037
3744.00,0.0038
3743.00,0.0038
3742.00,0.0038
3741.00,0.0038
3740.00,0.0037
3739.00,0.0037
3738.00,0.0037
3737.00,0.0037
3736.00,0.0038
3735.00,0.0038
3734.00,0.0038
3733.00,0.0038
3732.00,0.0038
3731.00,0.0038
3730.00,0.0038
3729.00,0.0038
3728.00,0.0038
3727.00,0.0038
3726.00,0.0038
3725.00,0.0037
3724.00,0.0037
3723.00,0.0038
3722.00,0.0038
3721.00,0.0038
3720.00,0.0038
3719.00,0.0037
3718.00,0.0037
3717.00,0.0037
3716.00,0.0037
3715.00,0.0037
3714.00,0.0037
3713.00,0.0037
3712.00,0.0037
3711.00,0.0037
3710.00,0.0037
3709.00,0.0037
3708.00,0.0037
3707.00,0.0037
3706.00,0.0037
3705.00,0.0037
3704.00,0.0037
3703.00,0.0036
3702.00,0.0036
3701.00,0.0036
3700.00,0.0037
3699.00,0.0037
3698.00,0.0037
3697.00,0.0037
3696.00,0.0037
3695.00,0.0037
3694.00,0.0037
3693.00,0.0037
3692.00,0.0037
3691.00,0.0036
3690.00,0.0036
3689.00,0.0036
3688.00,0.0036
3687.00,0.0036
3686.00,0.0036
3685.00,0.0036
3684.00,0.0037
3683.00,0.0037
3682.00,0.0037
3681.00,0.0037
3680.00,0.0038
3679.00,0.0038
3678.00,0.0039
3677.00,0.0039
3676.00,0.0039
3675.00,0.0039
3674.00,0.0038
3673.00,0.0038
3672.00,0.0038
3671.00,0.0038
3670.00,0.0038
3669.00,0.0037
3668.00,0.0038
3667.00,0.0038
3666.00,0.0038
3665.00,0.0037
3664.00,0.0038
3663.00,0.0038
3662.00,0.0038
3661.00,0.0038
3660.00,0.0038
3659.00,0.0038
3658.00,0.0038
3657.00,0.0038
3656.00,0.0039
3655.00,0.0039
3654.00,0.0039
3653.00,0.0039
3652.00,0.0039
3651.00,0.0039
3650.00,0.0039
3649.00,0.0039
3648.00,0.0039
3647.00,0.0039
3646.00,0.0039
3645.00,0.0038
3644.00,0.0038
3643.00,0.0037
3642.00,0.0038
3641.00,0.0038
3640.00,0.0039
3639.00,0.0039
3638.00,0.0039
3637.00,0.0039
3636.00,0.0038
3635.00,0.0038
3634.00,0.0038
3633.00,0.0038
3632.00,0.0038
3631.00,0.0039
3630.00,0.0039
3629.00,0.0040
3628.00,0.0040
3627.00,0.0041
3626.00,0.0041
3625.00,0.0041
3624.00,0.0040
3623.00,0.0040
3622.00,0.0040
3621.00,0.0039
3620.00,0.0039
3619.00,0.0039
3618.00,0.0039
3617.00,0.0040
3616.00,0.0040
3615.00,0.0040
3614.00,0.0040
3613.00,0.0040
3612.00,0.0041
3611.00,0.0041
3610.00,0.0042
3609.00,0.0042
3608.00,0.0041
3607.00,0.0041
3606.00,0.0041
3605.00,0.0041
3604.00,0.0041
3603.00,0.0041
3602.00,0.0041
3601.00,0.0041
3600.00,0.0042
3599.00,0.0042
3598.00,0.0042
3597.00,0.0043
3596.00,0.0043
3595.00,0.0043
3594.00,0.0043
3593.00,0.0043
3592.00,0.0043
3591.00,0.0043
3590.00,0.0043
3589.00,0.0043
3588.00,0.0043
3587.00,0.0043
3586.00,0.0044
3585.00,0.0044
3584.00,0.0044
3583.00,0.0044
3582.00,0.0044
3581.00,0.0044
3580.00,0.0044
3579.00,0.0043
3578.00,0.0043
3577.00,0.0043
3576.00,0.0043
3575.00,0.0043
3574.00,0.0044
3573.00,0.0044
3572.00,0.0044
3571.00,0.0045
3570.00,0.0045
3569.00,0.0046
3568.00,0.0046
3567.00,0.0046
3566.00,0.0046
3565.00,0.0046
3564.00,0.0046
3563.00,0.0046
3562.00,0.0046
3561.00,0.0046
3560.00,0.0046
3559.00,0.0046
3558.00,0.0046
3557.00,0.0046
3556.00,0.0046
3555.00,0.0046
3554.00,0.0046
3553.00,0.0046
3552.00,0.0046
3551.00,0.0046
3550.00,0.0046
3549.00,0.0047
3548.00,0.0047
3547.00,0.0048
3546.00,0.0048
3545.00,0.0048
3544.00,0.0048
3543.00,0.0048
3542.00,0.0048
3541.00,0.0048
3540.00,0.0048
3539.00,0.0048
3538.00,0.0049
3537.00,0.0049
3536.00,0.0049
3535.00,0.0049
3534.00,0.0049
3533.00,0.0049
3532.00,0.0049
3531.00,0.0049
3530.00,0.0050
3529.00,0.0050
3528.00,0.0050
3527.00,0.0050
3526.00,0.0051
3525.00,0.0051
3524.00,0.0051
3523.00,0.0051
3522.00,0.0052
3521.00,0.0052
3520.00,0.0053
3519.00,0.0053
3518.00,0.0052
3517.00,0.0052
3516.00,0.0052
3515.00,0.0052
3514.00,0.0052
3513.00,0.0052
3512.00,0.0052
3511.00,0.0052
3510.00,0.0052
3509.00,0.0052
3508.00,0.0052
3507.00,0.0052
3506.00,0.0052
3505.00,0.0053
3504.00,0.0053
3503.00,0.0053
3502.00,0.0053
3501.00,0.0053
3500.00,0.0053
3499.00,0.0054
3498.00,0.0054
3497.00,0.0054
3496.00,0.0054
3495.00,0.0054
3494.00,0.0054
3493.00,0.0054
3492.00,0.0054
3491.00,0.0054
3490.00,0.0054
3489.00,0.0054
3488.00,0.0054
3487.00,0.0055
3486.00,0.0055
3485.00,0.0055
3484.00,0.0055
3483.00,0.0055
3482.00,0.0055
3481.00,0.0056
3480.00,0.0056
3479.00,0.0057
3478.00,0.0057
3477.00,0.0057
3476.00,0.0057
3475.00,0.0057
3474.00,0.0057
3473.00,0.0057
3472.00,0.0057
3471.00,0.0057
3470.00,0.0057
3469.00,0.0057
3468.00,0.0057
3467.00,0.0057
3466.00,0.0057
3465.00,0.0057
3464.00,0.0058
3463.00,0.0058
3462.00,0.0058
3461.00,0.0059
3460.00,0.0060
3459.00,0.0060
3458.00,0.0061
3457.00,0.0062
3456.00,0.0063
3455.00,0.0062
3454.00,0.0061
3453.00,0.0060
3452.00,0.0060
3451.00,0.0060
3450.00,0.0060
3449.00,0.0060
3448.00,0.0061
3447.00,0.0061
3446.00,0.0061
3445.00,0.0061
3444.00,0.0061
3443.00,0.0061
3442.00,0.0061
3441.00,0.0061
3440.00,0.0062
3439.00,0.0062
3438.00,0.0062
3437.00,0.0062
3436.00,0.0062
3435.00,0.0062
3434.00,0.0062
3433.00,0.0062
3432.00,0.0063
3431.00,0.0063
3430.00,0.0064
3429.00,0.0064
3428.00,0.0064
3427.00,0.0065
3426.00,0.0065
3425.00,0.0065
3424.00,0.0064
3423.00,0.0065
3422.00,0.0065
3421.00,0.0066
3420.00,0.0066
3419.00,0.0067
3418.00,0.0067
3417.00,0.0067
3416.00,0.0067
3415.00,0.0068
3414.00,0.0068
3413.00,0.0068
3412.00,0.0068
3411.00,0.0068
3410.00,0.0069
3409.00,0.0069
3408.00,0.0069
3407.00,0.0070
3406.00,0.0070
3405.00,0.0070
3404.00,0.0070
3403.00,0.0070
3402.00,0.0071
3401.00,0.0071
3400.00,0.0071
3399.00,0.0072
3398.00,0.0072
3397.00,0.0072
3396.00,0.0072
3395.00,0.0072
3394.00,0.0072
3393.00,0.0073
3392.00,0.0073
3391.00,0.0073
3390.00,0.0074
3389.00,0.0074
3388.00,0.0075
3387.00,0.0075
3386.00,0.0075
3385.00,0.0076
3384.00,0.0076
3383.00,0.0076
3382.00,0.0077
3381.00,0.0077
3380.00,0.0077
3379.00,0.0077
3378.00,0.0078
3377.00,0.0078
3376.00,0.0079
3375.00,0.0079
3374.00,0.0079
3373.00,0.0080
3372.00,0.0080
3371.00,0.0080
3370.00,0.0080
3369.00,0.0080
3368.00,0.0081
3367.00,0.0082
3366.00,0.0082
3365.00,0.0083
3364.00,0.0084
3363.00,0.0084
3362.00,0.0085
3361.00,0.0085
3360.00,0.0085
3359.00,0.0085
3358.00,0.0086
3357.00,0.0086
3356.00,0.0086
3355.00,0.0087
3354.00,0.0088
3353.00,0.0088
3352.00,0.0089
3351.00,0.0089
3350.00,0.0090
3349.00,0.0091
3348.00,0.0091
3347.00,0.0092
3346.00,0.0093
3345.00,0.0093
3344.00,0.0094
3343.00,0.0094
3342.00,0.0095
3341.00,0.0096
3340.00,0.0097
3339.00,0.0098
3338.00,0.0099
3337.00,0.0100
3336.00,0.0100
3335.00,0.0101
3334.00,0.0101
3333.00,0.0101
3332.00,0.0102
3331.00,0.0102
3330.00,0.0103
3329.00,0.0104
3328.00,0.0105
3327.00,0.0105
3326.00,0.0106
3325.00,0.0106
3324.00,0.0107
3323.00,0.0107
3322.00,0.0108
3321.00,0.0108
3320.00,0.0109
3319.00,0.0109
3318.00,0.0110
3317.00,0.0110
3316.00,0.0111
3315.00,0.0111
3314.00,0.0112
3313.00,0.0112
3312.00,0.0113
3311.00,0.0113
3310.00,0.0113
3309.00,0.0113
3308.00,0.0113
3307.00,0.0114
3306.00,0.0114
3305.00,0.0115
3304.00,0.0115
3303.00,0.0116
3302.00,0.0117
3301.00,0.0117
3300.00,0.0118
3299.00,0.0118
3298.00,0.0119
3297.00,0.0119
3296.00,0.0119
3295.00,0.0120
3294.00,0.0120
3293.00,0.0120
3292.00,0.0120
3291.00,0.0120
3290.00,0.0120
3289.00,0.0119
3288.00,0.0119
3287.00,0.0119
3286.00,0.0119
3285.00,0.0119
3284.00,0.0120
3283.00,0.0119
3282.00,0.0119
3281.00,0.0118
3280.00,0.0118
3279.00,0.0117
3278.00,0.0117
3277.00,0.0116
3276.00,0.0116
3275.00,0.0115
3274.00,0.0115
3273.00,0.0114
3272.00,0.0113
3271.00,0.0113
3270.00,0.0112
3269.00,0.0111
3268.00,0.0111
3267.00,0.0110
3266.00,0.0109
3265.00,0.0109
3264.00,0.0108
3263.00,0.0107
3262.00,0.0106
3261.00,0.0106
3260.00,0.0105
3259.00,0.0104
3258.00,0.0103
3257.00,0.0103
3256.00,0.0102
3255.00,0.0102
3254.00,0.0101
3253.00,0.0100
3252.00,0.0100
3251.00,0.0099
3250.00,0.0099
3249.00,0.0099
3248.00,0.0098
3247.00,0.0098
3246.00,0.0097
3245.00,0.0097
3244.00,0.0096
3243.00,0.0096
3242.00,0.0095
3241.00,0.0095
3240.00,0.0094
3239.00,0.0094
3238.00,0.0093
3237.00,0.0093
3236.00,0.0093
3235.00,0.0092
3234.00,0.0092
3233.00,0.0092
3232.00,0.0091
3231.00,0.0091
3230.00,0.0090
3229.00,0.0090
3228.00,0.0089
3227.00,0.0089
3226.00,0.0089
3225.00,0.0089
3224.00,0.0088
3223.00,0.0088
3222.00,0.0087
3221.00,0.0087
3220.00,0.0086
3219.00,0.0086
3218.00,0.0086
3217.00,0.0086
3216.00,0.0085
3215.00,0.0085
3214.00,0.0085
3213.00,0.0084
3212.00,0.0084
3211.00,0.0084
3210.00,0.0084
3209.00,0.0083
3208.00,0.0083
3207.00,0.0083
3206.00,0.0083
3205.00,0.0082
3204.00,0.0082
3203.00,0.0082
3202.00,0.0081
3201.00,0.0081
3200.00,0.0081
3199.00,0.0080
3198.00,0.0080
3197.00,0.0080
3196.00,0.0080
3195.00,0.0079
3194.00,0.0079
3193.00,0.0078
3192.00,0.0077
3191.00,0.0077
3190.00,0.0077
3189.00,0.0076
3188.00,0.0076
3187.00,0.0076
3186.00,0.0075
3185.00,0.0075
3184.00,0.0075
3183.00,0.0074
3182.00,0.0074
3181.00,0.0074
3180.00,0.0074
3179.00,0.0074
3178.00,0.0073
3177.00,0.0073
3176.00,0.0073
3175.00,0.0073
3174.00,0.0073
3173.00,0.0072
3172.00,0.0072
3171.00,0.0071
3170.00,0.0071
3169.00,0.0071
3168.00,0.0071
3167.00,0.0071
3166.00,0.0070
3165.00,0.0070
3164.00,0.0069
3163.00,0.0069
3162.00,0.0068
3161.00,0.0068
3160.00,0.0068
3159.00,0.0068
3158.00,0.0067
3157.00,0.0067
3156.00,0.0067
3155.00,0.0066
3154.00,0.0066
3153.00,0.0066
3152.00,0.0066
3151.00,0.0066
3150.00,0.0066
3149.00,0.0066
3148.00,0.0066
3147.00,0.0066
3146.00,0.0066
3145.00,0.0065
3144.00,0.0066
3143.00,0.0066
3142.00,0.0066
3141.00,0.0065
3140.00,0.0065
3139.00,0.0064
3138.00,0.0064
3137.00,0.0064
3136.00,0.0063
3135.00,0.0063
3134.00,0.0063
3133.00,0.0063
3132.00,0.0063
3131.00,0.0063
3130.00,0.0064
3129.00,0.0064
3128.00,0.0064
3127.00,0.0063
3126.00,0.0063
3125.00,0.0063
3124.00,0.0063
3123.00,0.0063
3122.00,0.0063
3121.00,0.0063
3120.00,0.0064
3119.00,0.0064
3118.00,0.0064
3117.00,0.0065
3116.00,0.0065
3115.00,0.0065
3114.00,0.0066
3113.00,0.0066
3112.00,0.0067
3111.00,0.0068
3110.00,0.0070
3109.00,0.0071
3108.00,0.0073
3107.00,0.0074
3106.00,0.0075
3105.00,0.0075
3104.00,0.0076
3103.00,0.0077
3102.00,0.0077
3101.00,0.0077
3100.00,0.0077
3099.00,0.0076
3098.00,0.0076
3097.00,0.0076
3096.00,0.0076
3095.00,0.0076
3094.00,0.0077
3093.00,0.0078
3092.00,0.0080
3091.00,0.0082
3090.00,0.0085
3089.00,0.0088
3088.00,0.0091
3087.00,0.0095
3086.00,0.0100
3085.00,0.0103
3084.00,0.0106
3083.00,0.0108
3082.00,0.0108
3081.00,0.0107
3080.00,0.0105
3079.00,0.0103
3078.00,0.0100
3077.00,0.0098
3076.00,0.0097
3075.00,0.0095
3074.00,0.0095
3073.00,0.0095
3072.00,0.0095
3071.00,0.0096
3070.00,0.0098
3069.00,0.0100
3068.00,0.0102
3067.00,0.0105
3066.00,0.0109
3065.00,0.0113
3064.00,0.0117
3063.00,0.0121
3062.00,0.0125
3061.00,0.0127
3060.00,0.0128
3059.00,0.0127
3058.00,0.0125
3057.00,0.0122
3056.00,0.0119
3055.00,0.0114
3054.00,0.0110
3053.00,0.0106
3052.00,0.0103
3051.00,0.0100
3050.00,0.0097
3049.00,0.0095
3048.00,0.0094
3047.00,0.0093
3046.00,0.0092
3045.00,0.0091
3044.00,0.0091
3043.00,0.0092
3042.00,0.0093
3041.00,0.0094
3040.00,0.0096
3039.00,0.0098
3038.00,0.0101
3037.00,0.0105
3036.00,0.0109
3035.00,0.0115
3034.00,0.0121
3033.00,0.0129
3032.00,0.0137
3031.00,0.0147
3030.00,0.0157
3029.00,0.0167
3028.00,0.0176
3027.00,0.0183
3026.00,0.0187
3025.00,0.0188
3024.00,0.0185
3023.00,0.0178
3022.00,0.0169
3021.00,0.0158
3020.00,0.0145
3019.00,0.0133
3018.00,0.0122
3017.00,0.0113
3016.00,0.0106
3015.00,0.0100
3014.00,0.0095
3013.00,0.0091
3012.00,0.0088
3011.00,0.0086
3010.00,0.0085
3009.00,0.0084
3008.00,0.0084
3007.00,0.0084
3006.00,0.0085
3005.00,0.0086
3004.00,0.0087
3003.00,0.0088
3002.00,0.0088
3001.00,0.0088
3000.00,0.0087
2999.00,0.0085
2998.00,0.0083
2997.00,0.0081
2996.00,0.0079
2995.00,0.0076
2994.00,0.0075
2993.00,0.0073
2992.00,0.0072
2991.00,0.0071
2990.00,0.0071
2989.00,0.0070
2988.00,0.0070
2987.00,0.0070
2986.00,0.0070
2985.00,0.0071
2984.00,0.0071
2983.00,0.0071
2982.00,0.0071
2981.00,0.0071
2980.00,0.0071
2979.00,0.0072
2978.00,0.0072
2977.00,0.0073
2976.00,0.0073
2975.00,0.0073
2974.00,0.0074
2973.00,0.0075
2972.00,0.0076
2971.00,0.0077
2970.00,0.0077
2969.00,0.0078
2968.00,0.0079
2967.00,0.0080
2966.00,0.0081
2965.00,0.0082
2964.00,0.0083
2963.00,0.0084
2962.00,0.0085
2961.00,0.0087
2960.00,0.0088
2959.00,0.0089
2958.00,0.0090
2957.00,0.0091
2956.00,0.0093
2955.00,0.0094
2954.00,0.0096
2953.00,0.0098
2952.00,0.0100
2951.00,0.0102
2950.00,0.0104
2949.00,0.0107
2948.00,0.0110
2947.00,0.0113
2946.00,0.0117
2945.00,0.0121
2944.00,0.0125
2943.00,0.0130
2942.00,0.0135
2941.00,0.0141
2940.00,0.0146
2939.00,0.0152
2938.00,0.0159
2937.00,0.0165
2936.00,0.0172
2935.00,0.0179
2934.00,0.0187
2933.00,0.0194
2932.00,0.0201
2931.00,0.0209
2930.00,0.0216
2929.00,0.0223
2928.00,0.0230
2927.00,0.0236
2926.00,0.0242
2925.00,0.0247
2924.00,0.0251
2923.00,0.0254
2922.00,0.0257
2921.00,0.0259
2920.00,0.0260
2919.00,0.0259
2918.00,0.0258
2917.00,0.0255
2916.00,0.0251
2915.00,0.0245
2914.00,0.0238
2913.00,0.0231
2912.00,0.0223
2911.00,0.0216
2910.00,0.0209
2909.00,0.0203
2908.00,0.0197
2907.00,0.0191
2906.00,0.0186
2905.00,0.0181
2904.00,0.0175
2903.00,0.0170
2902.00,0.0165
2901.00,0.0161
2900.00,0.0156
2899.00,0.0151
2898.00,0.0147
2897.00,0.0143
2896.00,0.0139
2895.00,0.0135
2894.00,0.0132
2893.00,0.0129
2892.00,0.0126
2891.00,0.0124
2890.00,0.0121
2889.00,0.0119
2888.00,0.0117
2887.00,0.0115
2886.00,0.0114
2885.00,0.0112
2884.00,0.0111
2883.00,0.0109
2882.00,0.0107
2881.00,0.0106
2880.00,0.0104
2879.00,0.0103
2878.00,0.0102
2877.00,0.0101
2876.00,0.0100
2875.00,0.0099
2874.00,0.0098
2873.00,0.0097
2872.00,0.0097
2871.00,0.0096
2870.00,0.0096
2869.00,0.0095
2868.00,0.0095
2867.00,0.0096
2866.00,0.0096
2865.00,0.0097
2864.00,0.0098
2863.00,0.0100
2862.00,0.0103
2861.00,0.0105
2860.00,0.0109
2859.00,0.0113
2858.00,0.0117
2857.00,0.0122
2856.00,0.0127
2855.00,0.0132
2854.00,0.0136
2853.00,0.0141
2852.00,0.0144
2851.00,0.0147
2850.00,0.0148
2849.00,0.0147
2848.00,0.0144
2847.00,0.0140
2846.00,0.0135
2845.00,0.0129
2844.00,0.0123
2843.00,0.0117
2842.00,0.0111
2841.00,0.0105
2840.00,0.0100
2839.00,0.0094
2838.00,0.0090
2837.00,0.0085
2836.00,0.0081
2835.00,0.0078
2834.00,0.0076
2833.00,0.0073
2832.00,0.0071
2831.00,0.0070
2830.00,0.0068
2829.00,0.0067
2828.00,0.0066
2827.00,0.0065
2826.00,0.0065
2825.00,0.0064
2824.00,0.0063
2823.00,0.0063
2822.00,0.0062
2821.00,0.0062
2820.00,0.0062
2819.00,0.0062
2818.00,0.0061
2817.00,0.0061
2816.00,0.0060
2815.00,0.0060
2814.00,0.0060
2813.00,0.0060
2812.00,0.0059
2811.00,0.0059
2810.00,0.0059
2809.00,0.0059
2808.00,0.0059
2807.00,0.0058
2806.00,0.0058
2805.00,0.0058
2804.00,0.0058
2803.00,0.0058
2802.00,0.0057
2801.00,0.0057
2800.00,0.0057
2799.00,0.0056
2798.00,0.0056
2797.00,0.0056
2796.00,0.0055
2795.00,0.0055
2794.00,0.0055
2793.00,0.0055
2792.00,0.0055
2791.00,0.0054
2790.00,0.0054
2789.00,0.0054
2788.00,0.0054
2787.00,0.0054
2786.00,0.0054
2785.00,0.0054
2784.00,0.0054
2783.00,0.0054
2782.00,0.0054
2781.00,0.0054
2780.00,0.0053
2779.00,0.0053
2778.00,0.0053
2777.00,0.0053
2776.00,0.0053
2775.00,0.0053
2774.00,0.0053
2773.00,0.0052
2772.00,0.0052
2771.00,0.0052
2770.00,0.0052
2769.00,0.0052
2768.00,0.0052
2767.00,0.0051
2766.00,0.0051
2765.00,0.0051
2764.00,0.0050
2763.00,0.0050
2762.00,0.0050
2761.00,0.0051
2760.00,0.0051
2759.00,0.0051
2758.00,0.0051
2757.00,0.0051
