Created as New Dataset,Sample 514 By YargerLab Date Monday, May 19 2025
cm-1,A
4000.00,0.0889
3999.00,0.0890
3998.00,0.0892
3997.00,0.0895
3996.00,0.0899
3995.00,0.0904
3994.00,0.0912
3993.00,0.0921
3992.00,0.0930
3991.00,0.0938
3990.00,0.0945
3989.00,0.0950
3988.00,0.0952
3987.00,0.0951
3986.00,0.0947
3985.00,0.0942
3984.00,0.0936
3983.00,0.0930
3982.00,0.0924
3981.00,0.0920
3980.00,0.0916
3979.00,0.0913
3978.00,0.0911
3977.00,0.0908
3976.00,0.0905
3975.00,0.0902
3974.00,0.0899
3973.00,0.0896
3972.00,0.0894
3971.00,0.0892
3970.00,0.0891
3969.00,0.0890
3968.00,0.0889
3967.00,0.0888
3966.00,0.0888
3965.00,0.0888
3964.00,0.0889
3963.00,0.0890
3962.00,0.0891
3961.00,0.0894
3960.00,0.0897
3959.00,0.0900
3958.00,0.0902
3957.00,0.0903
3956.00,0.0902
3955.00,0.0901
3954.00,0.0899
3953.00,0.0897
3952.00,0.0896
3951.00,0.0895
3950.00,0.0894
3949.00,0.0893
3948.00,0.0892
3947.00,0.0891
3946.00,0.0891
3945.00,0.0891
3944.00,0.0892
3943.00,0.0893
3942.00,0.0894
3941.00,0.0895
3940.00,0.0896
3939.00,0.0895
3938.00,0.0894
3937.00,0.0891
3936.00,0.0889
3935.00,0.0888
3934.00,0.0886
3933.00,0.0884
3932.00,0.0883
3931.00,0.0881
3930.00,0.0880
3929.00,0.0878
3928.00,0.0877
3927.00,0.0876
3926.00,0.0874
3925.00,0.0873
3924.00,0.0871
3923.00,0.0870
3922.00,0.0870
3921.00,0.0870
3920.00,0.0870
3919.00,0.0869
3918.00,0.0869
3917.00,0.0868
3916.00,0.0868
3915.00,0.0867
3914.00,0.0867
3913.00,0.0866
3912.00,0.0866
3911.00,0.0866
3910.00,0.0867
3909.00,0.0868
3908.00,0.0870
3907.00,0.0872
3906.00,0.0873
3905.00,0.0875
3904.00,0.0876
3903.00,0.0878
3902.00,0.0881
3901.00,0.0884
3900.00,0.0885
3899.00,0.0884
3898.00,0.0883
3897.00,0.0882
3896.00,0.0882
3895.00,0.0882
3894.00,0.0882
3893.00,0.0882
3892.00,0.0882
3891.00,0.0881
3890.00,0.0880
3889.00,0.0880
3888.00,0.0881
3887.00,0.0880
3886.00,0.0878
3885.00,0.0877
3884.00,0.0877
3883.00,0.0879
3882.00,0.0881
3881.00,0.0881
3880.00,0.0879
3879.00,0.0877
3878.00,0.0876
3877.00,0.0876
3876.00,0.0875
3875.00,0.0874
3874.00,0.0873
3873.00,0.0873
3872.00,0.0874
3871.00,0.0875
3870.00,0.0874
3869.00,0.0873
3868.00,0.0873
3867.00,0.0874
3866.00,0.0875
3865.00,0.0874
3864.00,0.0872
3863.00,0.0872
3862.00,0.0873
3861.00,0.0874
3860.00,0.0875
3859.00,0.0878
3858.00,0.0883
3857.00,0.0890
3856.00,0.0898
3855.00,0.0906
3854.00,0.0912
3853.00,0.0919
3852.00,0.0924
3851.00,0.0926
3850.00,0.0926
3849.00,0.0923
3848.00,0.0919
3847.00,0.0915
3846.00,0.0911
3845.00,0.0907
3844.00,0.0903
3843.00,0.0899
3842.00,0.0896
3841.00,0.0894
3840.00,0.0892
3839.00,0.0890
3838.00,0.0889
3837.00,0.0887
3836.00,0.0887
3835.00,0.0888
3834.00,0.0888
3833.00,0.0888
3832.00,0.0887
3831.00,0.0886
3830.00,0.0885
3829.00,0.0884
3828.00,0.0882
3827.00,0.0880
3826.00,0.0878
3825.00,0.0877
3824.00,0.0877
3823.00,0.0878
3822.00,0.0877
3821.00,0.0876
3820.00,0.0876
3819.00,0.0878
3818.00,0.0880
3817.00,0.0880
3816.00,0.0877
3815.00,0.0875
3814.00,0.0874
3813.00,0.0874
3812.00,0.0874
3811.00,0.0873
3810.00,0.0873
3809.00,0.0875
3808.00,0.0878
3807.00,0.0881
3806.00,0.0885
3805.00,0.0890
3804.00,0.0895
3803.00,0.0898
3802.00,0.0897
3801.00,0.0894
3800.00,0.0893
3799.00,0.0893
3798.00,0.0892
3797.00,0.0889
3796.00,0.0885
3795.00,0.0881
3794.00,0.0878
3793.00,0.0876
3792.00,0.0873
3791.00,0.0871
3790.00,0.0869
3789.00,0.0868
3788.00,0.0867
3787.00,0.0867
3786.00,0.0867
3785.00,0.0867
3784.00,0.0868
3783.00,0.0868
3782.00,0.0868
3781.00,0.0868
3780.00,0.0868
3779.00,0.0867
3778.00,0.0866
3777.00,0.0865
3776.00,0.0865
3775.00,0.0864
3774.00,0.0863
3773.00,0.0862
3772.00,0.0862
3771.00,0.0862
3770.00,0.0861
3769.00,0.0861
3768.00,0.0861
3767.00,0.0861
3766.00,0.0860
3765.00,0.0858
3764.00,0.0856
3763.00,0.0856
3762.00,0.0855
3761.00,0.0855
3760.00,0.0854
3759.00,0.0853
3758.00,0.0854
3757.00,0.0854
3756.00,0.0856
3755.00,0.0857
3754.00,0.0859
3753.00,0.0859
3752.00,0.0858
3751.00,0.0858
3750.00,0.0859
3749.00,0.0861
3748.00,0.0863
3747.00,0.0866
3746.00,0.0868
3745.00,0.0867
3744.00,0.0863
3743.00,0.0861
3742.00,0.0861
3741.00,0.0862
3740.00,0.0861
3739.00,0.0861
3738.00,0.0861
3737.00,0.0861
3736.00,0.0862
3735.00,0.0863
3734.00,0.0864
3733.00,0.0865
3732.00,0.0864
3731.00,0.0862
3730.00,0.0861
3729.00,0.0861
3728.00,0.0861
3727.00,0.0860
3726.00,0.0859
3725.00,0.0859
3724.00,0.0859
3723.00,0.0859
3722.00,0.0859
3721.00,0.0858
3720.00,0.0856
3719.00,0.0855
3718.00,0.0853
3717.00,0.0852
3716.00,0.0853
3715.00,0.0854
3714.00,0.0856
3713.00,0.0857
3712.00,0.0857
3711.00,0.0858
3710.00,0.0859
3709.00,0.0859
3708.00,0.0858
3707.00,0.0856
3706.00,0.0855
3705.00,0.0854
3704.00,0.0853
3703.00,0.0852
3702.00,0.0851
3701.00,0.0850
3700.00,0.0850
3699.00,0.0849
3698.00,0.0849
3697.00,0.0848
3696.00,0.0848
3695.00,0.0848
3694.00,0.0849
3693.00,0.0850
3692.00,0.0851
3691.00,0.0852
3690.00,0.0853
3689.00,0.0854
3688.00,0.0854
3687.00,0.0855
3686.00,0.0855
3685.00,0.0854
3684.00,0.0853
3683.00,0.0851
3682.00,0.0850
3681.00,0.0849
3680.00,0.0850
3679.00,0.0851
3678.00,0.0854
3677.00,0.0857
3676.00,0.0860
3675.00,0.0863
3674.00,0.0867
3673.00,0.0870
3672.00,0.0872
3671.00,0.0870
3670.00,0.0867
3669.00,0.0863
3668.00,0.0861
3667.00,0.0860
3666.00,0.0857
3665.00,0.0854
3664.00,0.0852
3663.00,0.0850
3662.00,0.0850
3661.00,0.0850
3660.00,0.0852
3659.00,0.0855
3658.00,0.0859
3657.00,0.0862
3656.00,0.0864
3655.00,0.0867
3654.00,0.0870
3653.00,0.0873
3652.00,0.0874
3651.00,0.0874
3650.00,0.0872
3649.00,0.0871
3648.00,0.0871
3647.00,0.0870
3646.00,0.0868
3645.00,0.0865
3644.00,0.0862
3643.00,0.0859
3642.00,0.0857
3641.00,0.0855
3640.00,0.0853
3639.00,0.0853
3638.00,0.0852
3637.00,0.0852
3636.00,0.0852
3635.00,0.0853
3634.00,0.0853
3633.00,0.0855
3632.00,0.0858
3631.00,0.0862
3630.00,0.0866
3629.00,0.0868
3628.00,0.0870
3627.00,0.0872
3626.00,0.0872
3625.00,0.0871
3624.00,0.0869
3623.00,0.0867
3622.00,0.0865
3621.00,0.0864
3620.00,0.0863
3619.00,0.0862
3618.00,0.0861
3617.00,0.0860
3616.00,0.0860
3615.00,0.0860
3614.00,0.0860
3613.00,0.0860
3612.00,0.0860
3611.00,0.0861
3610.00,0.0862
3609.00,0.0862
3608.00,0.0861
3607.00,0.0860
3606.00,0.0860
3605.00,0.0859
3604.00,0.0859
3603.00,0.0858
3602.00,0.0858
3601.00,0.0858
3600.00,0.0859
3599.00,0.0861
3598.00,0.0862
3597.00,0.0864
3596.00,0.0865
3595.00,0.0865
3594.00,0.0865
3593.00,0.0865
3592.00,0.0866
3591.00,0.0867
3590.00,0.0868
3589.00,0.0868
3588.00,0.0868
3587.00,0.0868
3586.00,0.0868
3585.00,0.0868
3584.00,0.0868
3583.00,0.0868
3582.00,0.0868
3581.00,0.0869
3580.00,0.0870
3579.00,0.0871
3578.00,0.0872
3577.00,0.0874
3576.00,0.0876
3575.00,0.0878
3574.00,0.0879
3573.00,0.0880
3572.00,0.0880
3571.00,0.0881
3570.00,0.0882
3569.00,0.0884
3568.00,0.0885
3567.00,0.0886
3566.00,0.0888
3565.00,0.0889
3564.00,0.0890
3563.00,0.0890
3562.00,0.0890
3561.00,0.0890
3560.00,0.0889
3559.00,0.0888
3558.00,0.0887
3557.00,0.0886
3556.00,0.0885
3555.00,0.0885
3554.00,0.0885
3553.00,0.0884
3552.00,0.0884
3551.00,0.0883
3550.00,0.0883
3549.00,0.0884
3548.00,0.0885
3547.00,0.0886
3546.00,0.0886
3545.00,0.0886
3544.00,0.0887
3543.00,0.0887
3542.00,0.0887
3541.00,0.0887
3540.00,0.0888
3539.00,0.0888
3538.00,0.0888
3537.00,0.0888
3536.00,0.0888
3535.00,0.0888
3534.00,0.0889
3533.00,0.0889
3532.00,0.0890
3531.00,0.0891
3530.00,0.0891
3529.00,0.0891
3528.00,0.0892
3527.00,0.0892
3526.00,0.0893
3525.00,0.0893
3524.00,0.0893
3523.00,0.0893
3522.00,0.0893
3521.00,0.0893
3520.00,0.0893
3519.00,0.0893
3518.00,0.0894
3517.00,0.0895
3516.00,0.0896
3515.00,0.0897
3514.00,0.0897
3513.00,0.0898
3512.00,0.0898
3511.00,0.0898
3510.00,0.0898
3509.00,0.0898
3508.00,0.0899
3507.00,0.0899
3506.00,0.0899
3505.00,0.0900
3504.00,0.0900
3503.00,0.0900
3502.00,0.0900
3501.00,0.0901
3500.00,0.0901
3499.00,0.0901
3498.00,0.0901
3497.00,0.0901
3496.00,0.0901
3495.00,0.0902
3494.00,0.0902
3493.00,0.0903
3492.00,0.0904
3491.00,0.0904
3490.00,0.0905
3489.00,0.0905
3488.00,0.0905
3487.00,0.0906
3486.00,0.0906
3485.00,0.0906
3484.00,0.0907
3483.00,0.0907
3482.00,0.0908
3481.00,0.0909
3480.00,0.0909
3479.00,0.0910
3478.00,0.0911
3477.00,0.0911
3476.00,0.0912
3475.00,0.0912
3474.00,0.0913
3473.00,0.0913
3472.00,0.0913
3471.00,0.0913
3470.00,0.0914
3469.00,0.0914
3468.00,0.0914
3467.00,0.0914
3466.00,0.0915
3465.00,0.0915
3464.00,0.0915
3463.00,0.0916
3462.00,0.0916
3461.00,0.0916
3460.00,0.0917
3459.00,0.0917
3458.00,0.0917
3457.00,0.0917
3456.00,0.0918
3455.00,0.0918
3454.00,0.0918
3453.00,0.0919
3452.00,0.0919
3451.00,0.0920
3450.00,0.0920
3449.00,0.0920
3448.00,0.0921
3447.00,0.0921
3446.00,0.0921
3445.00,0.0922
3444.00,0.0922
3443.00,0.0923
3442.00,0.0923
3441.00,0.0923
3440.00,0.0923
3439.00,0.0923
3438.00,0.0923
3437.00,0.0924
3436.00,0.0924
3435.00,0.0924
3434.00,0.0924
3433.00,0.0924
3432.00,0.0924
3431.00,0.0924
3430.00,0.0924
3429.00,0.0924
3428.00,0.0924
3427.00,0.0924
3426.00,0.0924
3425.00,0.0924
3424.00,0.0924
3423.00,0.0925
3422.00,0.0926
3421.00,0.0927
3420.00,0.0928
3419.00,0.0928
3418.00,0.0929
3417.00,0.0929
3416.00,0.0930
3415.00,0.0929
3414.00,0.0929
3413.00,0.0928
3412.00,0.0928
3411.00,0.0927
3410.00,0.0926
3409.00,0.0926
3408.00,0.0926
3407.00,0.0925
3406.00,0.0925
3405.00,0.0925
3404.00,0.0925
3403.00,0.0926
3402.00,0.0926
3401.00,0.0925
3400.00,0.0925
3399.00,0.0925
3398.00,0.0926
3397.00,0.0926
3396.00,0.0926
3395.00,0.0926
3394.00,0.0926
3393.00,0.0926
3392.00,0.0925
3391.00,0.0925
3390.00,0.0924
3389.00,0.0924
3388.00,0.0923
3387.00,0.0923
3386.00,0.0923
3385.00,0.0923
3384.00,0.0923
3383.00,0.0922
3382.00,0.0922
3381.00,0.0921
3380.00,0.0921
3379.00,0.0921
3378.00,0.0921
3377.00,0.0921
3376.00,0.0921
3375.00,0.0921
3374.00,0.0921
3373.00,0.0921
3372.00,0.0921
3371.00,0.0921
3370.00,0.0921
3369.00,0.0921
3368.00,0.0920
3367.00,0.0920
3366.00,0.0920
3365.00,0.0920
3364.00,0.0920
3363.00,0.0920
3362.00,0.0919
3361.00,0.0919
3360.00,0.0918
3359.00,0.0918
3358.00,0.0918
3357.00,0.0917
3356.00,0.0917
3355.00,0.0916
3354.00,0.0916
3353.00,0.0915
3352.00,0.0915
3351.00,0.0914
3350.00,0.0914
3349.00,0.0913
3348.00,0.0913
3347.00,0.0912
3346.00,0.0912
3345.00,0.0911
3344.00,0.0911
3343.00,0.0910
3342.00,0.0910
3341.00,0.0910
3340.00,0.0909
3339.00,0.0908
3338.00,0.0908
3337.00,0.0907
3336.00,0.0907
3335.00,0.0907
3334.00,0.0906
3333.00,0.0906
3332.00,0.0905
3331.00,0.0905
3330.00,0.0904
3329.00,0.0903
3328.00,0.0903
3327.00,0.0902
3326.00,0.0902
3325.00,0.0902
3324.00,0.0901
3323.00,0.0900
3322.00,0.0900
3321.00,0.0899
3320.00,0.0898
3319.00,0.0898
3318.00,0.0897
3317.00,0.0897
3316.00,0.0896
3315.00,0.0896
3314.00,0.0895
3313.00,0.0895
3312.00,0.0895
3311.00,0.0894
3310.00,0.0894
3309.00,0.0894
3308.00,0.0894
3307.00,0.0893
3306.00,0.0893
3305.00,0.0892
3304.00,0.0891
3303.00,0.0891
3302.00,0.0890
3301.00,0.0890
3300.00,0.0889
3299.00,0.0889
3298.00,0.0888
3297.00,0.0888
3296.00,0.0887
3295.00,0.0887
3294.00,0.0887
3293.00,0.0886
3292.00,0.0886
3291.00,0.0885
3290.00,0.0884
3289.00,0.0884
3288.00,0.0883
3287.00,0.0883
3286.00,0.0882
3285.00,0.0882
3284.00,0.0881
3283.00,0.0880
3282.00,0.0880
3281.00,0.0879
3280.00,0.0878
3279.00,0.0877
3278.00,0.0877
3277.00,0.0876
3276.00,0.0876
3275.00,0.0876
3274.00,0.0875
3273.00,0.0875
3272.00,0.0875
3271.00,0.0874
3270.00,0.0874
3269.00,0.0873
3268.00,0.0873
3267.00,0.0872
3266.00,0.0872
3265.00,0.0871
3264.00,0.0871
3263.00,0.0870
3262.00,0.0869
3261.00,0.0868
3260.00,0.0868
3259.00,0.0867
3258.00,0.0866
3257.00,0.0865
3256.00,0.0864
3255.00,0.0863
3254.00,0.0862
3253.00,0.0862
3252.00,0.0862
3251.00,0.0861
3250.00,0.0861
3249.00,0.0860
3248.00,0.0859
3247.00,0.0859
3246.00,0.0858
3245.00,0.0858
3244.00,0.0857
3243.00,0.0856
3242.00,0.0856
3241.00,0.0855
3240.00,0.0854
3239.00,0.0853
3238.00,0.0852
3237.00,0.0852
3236.00,0.0851
3235.00,0.0851
3234.00,0.0850
3233.00,0.0849
3232.00,0.0848
3231.00,0.0847
3230.00,0.0846
3229.00,0.0845
3228.00,0.0845
3227.00,0.0844
3226.00,0.0844
3225.00,0.0845
3224.00,0.0846
3223.00,0.0848
3222.00,0.0852
3221.00,0.0857
3220.00,0.0862
3219.00,0.0866
3218.00,0.0868
3217.00,0.0867
3216.00,0.0864
3215.00,0.0860
3214.00,0.0856
3213.00,0.0852
3212.00,0.0848
3211.00,0.0846
3210.00,0.0843
3209.00,0.0841
3208.00,0.0839
3207.00,0.0838
3206.00,0.0836
3205.00,0.0834
3204.00,0.0833
3203.00,0.0832
3202.00,0.0830
3201.00,0.0829
3200.00,0.0829
3199.00,0.0828
3198.00,0.0827
3197.00,0.0826
3196.00,0.0825
3195.00,0.0825
3194.00,0.0824
3193.00,0.0824
3192.00,0.0824
3191.00,0.0825
3190.00,0.0826
3189.00,0.0828
3188.00,0.0830
3187.00,0.0830
3186.00,0.0830
3185.00,0.0829
3184.00,0.0827
3183.00,0.0825
3182.00,0.0823
3181.00,0.0822
3180.00,0.0821
3179.00,0.0820
3178.00,0.0819
3177.00,0.0818
3176.00,0.0818
3175.00,0.0818
3174.00,0.0818
3173.00,0.0819
3172.00,0.0820
3171.00,0.0822
3170.00,0.0823
3169.00,0.0824
3168.00,0.0823
3167.00,0.0820
3166.00,0.0818
3165.00,0.0815
3164.00,0.0813
3163.00,0.0811
3162.00,0.0810
3161.00,0.0808
3160.00,0.0807
3159.00,0.0806
3158.00,0.0805
3157.00,0.0804
3156.00,0.0803
3155.00,0.0802
3154.00,0.0801
3153.00,0.0800
3152.00,0.0800
3151.00,0.0799
3150.00,0.0799
3149.00,0.0798
3148.00,0.0797
3147.00,0.0797
3146.00,0.0796
3145.00,0.0796
3144.00,0.0795
3143.00,0.0794
3142.00,0.0793
3141.00,0.0793
3140.00,0.0792
3139.00,0.0792
3138.00,0.0791
3137.00,0.0791
3136.00,0.0790
3135.00,0.0789
3134.00,0.0789
3133.00,0.0788
3132.00,0.0787
3131.00,0.0787
3130.00,0.0786
3129.00,0.0785
3128.00,0.0785
3127.00,0.0783
3126.00,0.0782
3125.00,0.0780
3124.00,0.0778
3123.00,0.0776
3122.00,0.0775
3121.00,0.0773
3120.00,0.0772
3119.00,0.0771
3118.00,0.0770
3117.00,0.0769
3116.00,0.0768
3115.00,0.0767
3114.00,0.0766
3113.00,0.0765
3112.00,0.0764
3111.00,0.0763
3110.00,0.0761
3109.00,0.0760
3108.00,0.0759
3107.00,0.0759
3106.00,0.0759
3105.00,0.0761
3104.00,0.0763
3103.00,0.0767
3102.00,0.0774
3101.00,0.0784
3100.00,0.0799
3099.00,0.0817
3098.00,0.0835
3097.00,0.0850
3096.00,0.0858
3095.00,0.0859
3094.00,0.0856
3093.00,0.0854
3092.00,0.0858
3091.00,0.0872
3090.00,0.0896
3089.00,0.0926
3088.00,0.0955
3087.00,0.0975
3086.00,0.0985
3085.00,0.0985
3084.00,0.0980
3083.00,0.0970
3082.00,0.0956
3081.00,0.0938
3080.00,0.0916
3079.00,0.0894
3078.00,0.0873
3077.00,0.0854
3076.00,0.0838
3075.00,0.0825
3074.00,0.0816
3073.00,0.0814
3072.00,0.0823
3071.00,0.0843
3070.00,0.0874
3069.00,0.0909
3068.00,0.0949
3067.00,0.1001
3066.00,0.1078
3065.00,0.1187
3064.00,0.1314
3063.00,0.1429
3062.00,0.1502
3061.00,0.1524
3060.00,0.1511
3059.00,0.1489
3058.00,0.1477
3057.00,0.1483
3056.00,0.1507
3055.00,0.1542
3054.00,0.1585
3053.00,0.1639
3052.00,0.1703
3051.00,0.1771
3050.00,0.1821
3049.00,0.1829
3048.00,0.1784
3047.00,0.1695
3046.00,0.1586
3045.00,0.1482
3044.00,0.1399
3043.00,0.1339
3042.00,0.1298
3041.00,0.1265
3040.00,0.1233
3039.00,0.1195
3038.00,0.1155
3037.00,0.1120
3036.00,0.1100
3035.00,0.1103
3034.00,0.1131
3033.00,0.1180
3032.00,0.1239
3031.00,0.1293
3030.00,0.1332
3029.00,0.1349
3028.00,0.1346
3027.00,0.1326
3026.00,0.1295
3025.00,0.1261
3024.00,0.1227
3023.00,0.1197
3022.00,0.1170
3021.00,0.1145
3020.00,0.1120
3019.00,0.1095
3018.00,0.1071
3017.00,0.1049
3016.00,0.1031
3015.00,0.1016
3014.00,0.1006
3013.00,0.0999
3012.00,0.0995
3011.00,0.0994
3010.00,0.0999
3009.00,0.1011
3008.00,0.1032
3007.00,0.1065
3006.00,0.1106
3005.00,0.1148
3004.00,0.1180
3003.00,0.1193
3002.00,0.1186
3001.00,0.1164
3000.00,0.1133
2999.00,0.1103
2998.00,0.1075
2997.00,0.1052
2996.00,0.1033
2995.00,0.1017
2994.00,0.1003
2993.00,0.0991
2992.00,0.0979
2991.00,0.0969
2990.00,0.0960
2989.00,0.0952
2988.00,0.0945
2987.00,0.0941
2986.00,0.0938
2985.00,0.0935
2984.00,0.0934
2983.00,0.0932
2982.00,0.0931
2981.00,0.0929
2980.00,0.0926
2979.00,0.0923
2978.00,0.0920
2977.00,0.0917
2976.00,0.0915
2975.00,0.0914
2974.00,0.0914
2973.00,0.0916
2972.00,0.0921
2971.00,0.0927
2970.00,0.0934
2969.00,0.0943
2968.00,0.0951
2967.00,0.0961
2966.00,0.0969
2965.00,0.0976
2964.00,0.0980
2963.00,0.0980
2962.00,0.0978
2961.00,0.0973
2960.00,0.0968
2959.00,0.0963
2958.00,0.0960
2957.00,0.0959
2956.00,0.0960
2955.00,0.0963
2954.00,0.0965
2953.00,0.0965
2952.00,0.0964
2951.00,0.0963
2950.00,0.0964
2949.00,0.0969
2948.00,0.0975
2947.00,0.0981
2946.00,0.0982
2945.00,0.0978
2944.00,0.0970
2943.00,0.0960
2942.00,0.0951
2941.00,0.0944
2940.00,0.0939
2939.00,0.0937
2938.00,0.0937
2937.00,0.0939
2936.00,0.0941
2935.00,0.0943
2934.00,0.0943
2933.00,0.0941
2932.00,0.0938
2931.00,0.0934
2930.00,0.0931
2929.00,0.0928
2928.00,0.0927
2927.00,0.0927
2926.00,0.0927
2925.00,0.0926
2924.00,0.0924
2923.00,0.0920
2922.00,0.0914
2921.00,0.0909
2920.00,0.0903
2919.00,0.0899
2918.00,0.0895
2917.00,0.0892
2916.00,0.0889
2915.00,0.0887
2914.00,0.0885
2913.00,0.0883
2912.00,0.0882
2911.00,0.0881
2910.00,0.0880
2909.00,0.0879
2908.00,0.0878
2907.00,0.0877
2906.00,0.0876
2905.00,0.0876
2904.00,0.0876
2903.00,0.0877
2902.00,0.0878
2901.00,0.0880
2900.00,0.0881
2899.00,0.0882
2898.00,0.0883
2897.00,0.0883
2896.00,0.0883
2895.00,0.0883
2894.00,0.0882
2893.00,0.0882
2892.00,0.0882
2891.00,0.0882
2890.00,0.0883
2889.00,0.0884
2888.00,0.0885
2887.00,0.0886
2886.00,0.0888
2885.00,0.0889
2884.00,0.0890
2883.00,0.0890
2882.00,0.0890
2881.00,0.0889
2880.00,0.0888
2879.00,0.0887
2878.00,0.0886
2877.00,0.0886
2876.00,0.0885
2875.00,0.0885
2874.00,0.0884
2873.00,0.0884
2872.00,0.0883
2871.00,0.0882
2870.00,0.0881
2869.00,0.0880
2868.00,0.0879
2867.00,0.0877
2866.00,0.0876
2865.00,0.0874
2864.00,0.0872
2863.00,0.0870
2862.00,0.0869
2861.00,0.0867
2860.00,0.0865
2859.00,0.0864
2858.00,0.0862
2857.00,0.0861
2856.00,0.0860
2855.00,0.0859
2854.00,0.0859
2853.00,0.0859
2852.00,0.0859
2851.00,0.0860
2850.00,0.0862
2849.00,0.0863
2848.00,0.0864
2847.00,0.0864
2846.00,0.0864
2845.00,0.0862
2844.00,0.0860
2843.00,0.0858
2842.00,0.0855
2841.00,0.0852
2840.00,0.0850
2839.00,0.0849
2838.00,0.0850
2837.00,0.0852
2836.00,0.0855
2835.00,0.0857
2834.00,0.0856
2833.00,0.0854
2832.00,0.0850
2831.00,0.0845
2830.00,0.0841
2829.00,0.0838
2828.00,0.0835
2827.00,0.0832
2826.00,0.0830
2825.00,0.0829
2824.00,0.0827
2823.00,0.0827
2822.00,0.0826
2821.00,0.0825
2820.00,0.0824
2819.00,0.0824
2818.00,0.0823
2817.00,0.0822
2816.00,0.0821
2815.00,0.0820
2814.00,0.0820
2813.00,0.0819
2812.00,0.0819
2811.00,0.0818
2810.00,0.0818
2809.00,0.0818
2808.00,0.0818
2807.00,0.0817
2806.00,0.0817
2805.00,0.0817
2804.00,0.0816
2803.00,0.0815
2802.00,0.0814
2801.00,0.0813
2800.00,0.0812
2799.00,0.0811
2798.00,0.0810
2797.00,0.0809
2796.00,0.0808
2795.00,0.0807
2794.00,0.0807
2793.00,0.0806
2792.00,0.0806
2791.00,0.0807
2790.00,0.0807
2789.00,0.0808
2788.00,0.0809
2787.00,0.0809
2786.00,0.0809
2785.00,0.0809
2784.00,0.0809
2783.00,0.0808
2782.00,0.0807
2781.00,0.0806
2780.00,0.0805
2779.00,0.0804
2778.00,0.0802
2777.00,0.0800
2776.00,0.0798
2775.00,0.0797
2774.00,0.0796
2773.00,0.0795
2772.00,0.0795
2771.00,0.0795
2770.00,0.0795
2769.00,0.0795
2768.00,0.0794
2767.00,0.0794
2766.00,0.0794
2765.00,0.0794
2764.00,0.0794
2763.00,0.0794
2762.00,0.0793
2761.00,0.0793
2760.00,0.0794
2759.00,0.0794
2758.00,0.0795
2757.00,0.0796
