Created as New Dataset,Sample 371 By YargerLab Date Sunday, November 16 2025
cm-1,A
4000.00,0.0029
3999.00,0.0029
3998.00,0.0029
3997.00,0.0029
3996.00,0.0029
3995.00,0.0029
3994.00,0.0028
3993.00,0.0028
3992.00,0.0028
3991.00,0.0028
3990.00,0.0028
3989.00,0.0028
3988.00,0.0028
3987.00,0.0028
3986.00,0.0028
3985.00,0.0028
3984.00,0.0028
3983.00,0.0028
3982.00,0.0028
3981.00,0.0028
3980.00,0.0028
3979.00,0.0028
3978.00,0.0028
3977.00,0.0028
3976.00,0.0028
3975.00,0.0028
3974.00,0.0028
3973.00,0.0028
3972.00,0.0028
3971.00,0.0028
3970.00,0.0028
3969.00,0.0028
3968.00,0.0028
3967.00,0.0028
3966.00,0.0028
3965.00,0.0028
3964.00,0.0028
3963.00,0.0027
3962.00,0.0027
3961.00,0.0027
3960.00,0.0027
3959.00,0.0027
3958.00,0.0027
3957.00,0.0027
3956.00,0.0027
3955.00,0.0028
3954.00,0.0028
3953.00,0.0028
3952.00,0.0028
3951.00,0.0028
3950.00,0.0028
3949.00,0.0028
3948.00,0.0028
3947.00,0.0028
3946.00,0.0028
3945.00,0.0028
3944.00,0.0028
3943.00,0.0027
3942.00,0.0027
3941.00,0.0028
3940.00,0.0028
3939.00,0.0028
3938.00,0.0028
3937.00,0.0028
3936.00,0.0028
3935.00,0.0028
3934.00,0.0028
3933.00,0.0028
3932.00,0.0027
3931.00,0.0027
3930.00,0.0028
3929.00,0.0028
3928.00,0.0028
3927.00,0.0028
3926.00,0.0028
3925.00,0.0028
3924.00,0.0028
3923.00,0.0028
3922.00,0.0028
3921.00,0.0028
3920.00,0.0028
3919.00,0.0028
3918.00,0.0027
3917.00,0.0027
3916.00,0.0027
3915.00,0.0027
3914.00,0.0027
3913.00,0.0027
3912.00,0.0027
3911.00,0.0027
3910.00,0.0027
3909.00,0.0028
3908.00,0.0028
3907.00,0.0028
3906.00,0.0028
3905.00,0.0028
3904.00,0.0028
3903.00,0.0028
3902.00,0.0028
3901.00,0.0028
3900.00,0.0027
3899.00,0.0027
3898.00,0.0027
3897.00,0.0027
3896.00,0.0027
3895.00,0.0027
3894.00,0.0028
3893.00,0.0028
3892.00,0.0028
3891.00,0.0028
3890.00,0.0028
3889.00,0.0028
3888.00,0.0028
3887.00,0.0028
3886.00,0.0028
3885.00,0.0028
3884.00,0.0028
3883.00,0.0027
3882.00,0.0027
3881.00,0.0027
3880.00,0.0027
3879.00,0.0027
3878.00,0.0027
3877.00,0.0028
3876.00,0.0028
3875.00,0.0028
3874.00,0.0028
3873.00,0.0028
3872.00,0.0028
3871.00,0.0028
3870.00,0.0028
3869.00,0.0028
3868.00,0.0028
3867.00,0.0028
3866.00,0.0028
3865.00,0.0028
3864.00,0.0027
3863.00,0.0027
3862.00,0.0027
3861.00,0.0027
3860.00,0.0027
3859.00,0.0028
3858.00,0.0028
3857.00,0.0029
3856.00,0.0030
3855.00,0.0031
3854.00,0.0030
3853.00,0.0030
3852.00,0.0029
3851.00,0.0029
3850.00,0.0028
3849.00,0.0027
3848.00,0.0027
3847.00,0.0027
3846.00,0.0028
3845.00,0.0028
3844.00,0.0028
3843.00,0.0028
3842.00,0.0028
3841.00,0.0028
3840.00,0.0029
3839.00,0.0029
3838.00,0.0029
3837.00,0.0029
3836.00,0.0029
3835.00,0.0029
3834.00,0.0028
3833.00,0.0028
3832.00,0.0028
3831.00,0.0028
3830.00,0.0028
3829.00,0.0028
3828.00,0.0027
3827.00,0.0027
3826.00,0.0027
3825.00,0.0028
3824.00,0.0029
3823.00,0.0029
3822.00,0.0029
3821.00,0.0029
3820.00,0.0030
3819.00,0.0030
3818.00,0.0030
3817.00,0.0029
3816.00,0.0028
3815.00,0.0028
3814.00,0.0028
3813.00,0.0028
3812.00,0.0028
3811.00,0.0028
3810.00,0.0029
3809.00,0.0029
3808.00,0.0029
3807.00,0.0029
3806.00,0.0029
3805.00,0.0029
3804.00,0.0029
3803.00,0.0029
3802.00,0.0028
3801.00,0.0028
3800.00,0.0029
3799.00,0.0029
3798.00,0.0028
3797.00,0.0028
3796.00,0.0027
3795.00,0.0027
3794.00,0.0027
3793.00,0.0027
3792.00,0.0027
3791.00,0.0027
3790.00,0.0027
3789.00,0.0027
3788.00,0.0027
3787.00,0.0027
3786.00,0.0027
3785.00,0.0027
3784.00,0.0027
3783.00,0.0027
3782.00,0.0028
3781.00,0.0028
3780.00,0.0027
3779.00,0.0027
3778.00,0.0027
3777.00,0.0028
3776.00,0.0028
3775.00,0.0028
3774.00,0.0028
3773.00,0.0028
3772.00,0.0028
3771.00,0.0028
3770.00,0.0027
3769.00,0.0027
3768.00,0.0028
3767.00,0.0028
3766.00,0.0028
3765.00,0.0028
3764.00,0.0028
3763.00,0.0028
3762.00,0.0028
3761.00,0.0028
3760.00,0.0027
3759.00,0.0027
3758.00,0.0027
3757.00,0.0028
3756.00,0.0028
3755.00,0.0028
3754.00,0.0029
3753.00,0.0029
3752.00,0.0029
3751.00,0.0029
3750.00,0.0028
3749.00,0.0029
3748.00,0.0029
3747.00,0.0029
3746.00,0.0028
3745.00,0.0028
3744.00,0.0028
3743.00,0.0028
3742.00,0.0028
3741.00,0.0027
3740.00,0.0027
3739.00,0.0027
3738.00,0.0027
3737.00,0.0027
3736.00,0.0027
3735.00,0.0027
3734.00,0.0028
3733.00,0.0028
3732.00,0.0028
3731.00,0.0027
3730.00,0.0027
3729.00,0.0027
3728.00,0.0027
3727.00,0.0026
3726.00,0.0026
3725.00,0.0027
3724.00,0.0027
3723.00,0.0027
3722.00,0.0027
3721.00,0.0027
3720.00,0.0027
3719.00,0.0027
3718.00,0.0026
3717.00,0.0026
3716.00,0.0026
3715.00,0.0027
3714.00,0.0027
3713.00,0.0027
3712.00,0.0027
3711.00,0.0027
3710.00,0.0027
3709.00,0.0027
3708.00,0.0027
3707.00,0.0027
3706.00,0.0027
3705.00,0.0027
3704.00,0.0027
3703.00,0.0027
3702.00,0.0027
3701.00,0.0027
3700.00,0.0028
3699.00,0.0027
3698.00,0.0027
3697.00,0.0027
3696.00,0.0027
3695.00,0.0027
3694.00,0.0027
3693.00,0.0027
3692.00,0.0027
3691.00,0.0028
3690.00,0.0028
3689.00,0.0029
3688.00,0.0029
3687.00,0.0028
3686.00,0.0028
3685.00,0.0027
3684.00,0.0027
3683.00,0.0027
3682.00,0.0028
3681.00,0.0028
3680.00,0.0028
3679.00,0.0029
3678.00,0.0029
3677.00,0.0029
3676.00,0.0029
3675.00,0.0029
3674.00,0.0029
3673.00,0.0029
3672.00,0.0029
3671.00,0.0029
3670.00,0.0028
3669.00,0.0028
3668.00,0.0029
3667.00,0.0029
3666.00,0.0028
3665.00,0.0028
3664.00,0.0028
3663.00,0.0028
3662.00,0.0029
3661.00,0.0029
3660.00,0.0029
3659.00,0.0030
3658.00,0.0030
3657.00,0.0030
3656.00,0.0030
3655.00,0.0031
3654.00,0.0031
3653.00,0.0031
3652.00,0.0031
3651.00,0.0030
3650.00,0.0030
3649.00,0.0031
3648.00,0.0031
3647.00,0.0031
3646.00,0.0031
3645.00,0.0031
3644.00,0.0031
3643.00,0.0030
3642.00,0.0030
3641.00,0.0030
3640.00,0.0030
3639.00,0.0030
3638.00,0.0030
3637.00,0.0030
3636.00,0.0030
3635.00,0.0030
3634.00,0.0030
3633.00,0.0031
3632.00,0.0031
3631.00,0.0031
3630.00,0.0031
3629.00,0.0031
3628.00,0.0031
3627.00,0.0031
3626.00,0.0031
3625.00,0.0031
3624.00,0.0031
3623.00,0.0032
3622.00,0.0032
3621.00,0.0033
3620.00,0.0033
3619.00,0.0033
3618.00,0.0033
3617.00,0.0033
3616.00,0.0033
3615.00,0.0032
3614.00,0.0032
3613.00,0.0032
3612.00,0.0032
3611.00,0.0032
3610.00,0.0033
3609.00,0.0033
3608.00,0.0033
3607.00,0.0033
3606.00,0.0033
3605.00,0.0033
3604.00,0.0033
3603.00,0.0033
3602.00,0.0033
3601.00,0.0033
3600.00,0.0033
3599.00,0.0033
3598.00,0.0033
3597.00,0.0033
3596.00,0.0033
3595.00,0.0033
3594.00,0.0034
3593.00,0.0034
3592.00,0.0035
3591.00,0.0035
3590.00,0.0035
3589.00,0.0035
3588.00,0.0034
3587.00,0.0034
3586.00,0.0034
3585.00,0.0035
3584.00,0.0035
3583.00,0.0036
3582.00,0.0036
3581.00,0.0036
3580.00,0.0035
3579.00,0.0035
3578.00,0.0035
3577.00,0.0035
3576.00,0.0036
3575.00,0.0036
3574.00,0.0036
3573.00,0.0037
3572.00,0.0037
3571.00,0.0037
3570.00,0.0037
3569.00,0.0037
3568.00,0.0037
3567.00,0.0037
3566.00,0.0037
3565.00,0.0037
3564.00,0.0037
3563.00,0.0038
3562.00,0.0038
3561.00,0.0038
3560.00,0.0039
3559.00,0.0039
3558.00,0.0039
3557.00,0.0039
3556.00,0.0039
3555.00,0.0040
3554.00,0.0040
3553.00,0.0040
3552.00,0.0040
3551.00,0.0040
3550.00,0.0040
3549.00,0.0040
3548.00,0.0041
3547.00,0.0041
3546.00,0.0041
3545.00,0.0041
3544.00,0.0041
3543.00,0.0042
3542.00,0.0042
3541.00,0.0042
3540.00,0.0043
3539.00,0.0043
3538.00,0.0043
3537.00,0.0043
3536.00,0.0043
3535.00,0.0044
3534.00,0.0044
3533.00,0.0044
3532.00,0.0044
3531.00,0.0044
3530.00,0.0044
3529.00,0.0044
3528.00,0.0044
3527.00,0.0044
3526.00,0.0044
3525.00,0.0044
3524.00,0.0044
3523.00,0.0045
3522.00,0.0045
3521.00,0.0045
3520.00,0.0045
3519.00,0.0045
3518.00,0.0045
3517.00,0.0046
3516.00,0.0046
3515.00,0.0047
3514.00,0.0047
3513.00,0.0047
3512.00,0.0047
3511.00,0.0047
3510.00,0.0047
3509.00,0.0047
3508.00,0.0047
3507.00,0.0047
3506.00,0.0047
3505.00,0.0047
3504.00,0.0047
3503.00,0.0048
3502.00,0.0048
3501.00,0.0048
3500.00,0.0049
3499.00,0.0049
3498.00,0.0049
3497.00,0.0049
3496.00,0.0049
3495.00,0.0049
3494.00,0.0050
3493.00,0.0050
3492.00,0.0050
3491.00,0.0050
3490.00,0.0050
3489.00,0.0050
3488.00,0.0050
3487.00,0.0051
3486.00,0.0051
3485.00,0.0052
3484.00,0.0052
3483.00,0.0052
3482.00,0.0052
3481.00,0.0052
3480.00,0.0052
3479.00,0.0052
3478.00,0.0053
3477.00,0.0053
3476.00,0.0053
3475.00,0.0053
3474.00,0.0053
3473.00,0.0053
3472.00,0.0053
3471.00,0.0053
3470.00,0.0054
3469.00,0.0054
3468.00,0.0054
3467.00,0.0054
3466.00,0.0054
3465.00,0.0055
3464.00,0.0055
3463.00,0.0055
3462.00,0.0055
3461.00,0.0055
3460.00,0.0055
3459.00,0.0055
3458.00,0.0055
3457.00,0.0055
3456.00,0.0055
3455.00,0.0055
3454.00,0.0055
3453.00,0.0055
3452.00,0.0056
3451.00,0.0056
3450.00,0.0056
3449.00,0.0056
3448.00,0.0057
3447.00,0.0057
3446.00,0.0057
3445.00,0.0057
3444.00,0.0056
3443.00,0.0056
3442.00,0.0056
3441.00,0.0056
3440.00,0.0056
3439.00,0.0057
3438.00,0.0057
3437.00,0.0057
3436.00,0.0056
3435.00,0.0056
3434.00,0.0056
3433.00,0.0057
3432.00,0.0057
3431.00,0.0057
3430.00,0.0057
3429.00,0.0057
3428.00,0.0057
3427.00,0.0057
3426.00,0.0057
3425.00,0.0057
3424.00,0.0057
3423.00,0.0057
3422.00,0.0057
3421.00,0.0057
3420.00,0.0056
3419.00,0.0056
3418.00,0.0056
3417.00,0.0057
3416.00,0.0057
3415.00,0.0057
3414.00,0.0057
3413.00,0.0057
3412.00,0.0057
3411.00,0.0057
3410.00,0.0057
3409.00,0.0057
3408.00,0.0058
3407.00,0.0057
3406.00,0.0057
3405.00,0.0057
3404.00,0.0057
3403.00,0.0058
3402.00,0.0058
3401.00,0.0058
3400.00,0.0058
3399.00,0.0058
3398.00,0.0058
3397.00,0.0058
3396.00,0.0058
3395.00,0.0058
3394.00,0.0058
3393.00,0.0058
3392.00,0.0058
3391.00,0.0058
3390.00,0.0058
3389.00,0.0058
3388.00,0.0058
3387.00,0.0058
3386.00,0.0058
3385.00,0.0058
3384.00,0.0058
3383.00,0.0059
3382.00,0.0059
3381.00,0.0059
3380.00,0.0059
3379.00,0.0059
3378.00,0.0059
3377.00,0.0059
3376.00,0.0059
3375.00,0.0058
3374.00,0.0058
3373.00,0.0058
3372.00,0.0058
3371.00,0.0058
3370.00,0.0058
3369.00,0.0058
3368.00,0.0058
3367.00,0.0058
3366.00,0.0058
3365.00,0.0058
3364.00,0.0058
3363.00,0.0058
3362.00,0.0058
3361.00,0.0059
3360.00,0.0059
3359.00,0.0059
3358.00,0.0059
3357.00,0.0059
3356.00,0.0059
3355.00,0.0059
3354.00,0.0059
3353.00,0.0059
3352.00,0.0058
3351.00,0.0058
3350.00,0.0058
3349.00,0.0058
3348.00,0.0058
3347.00,0.0059
3346.00,0.0059
3345.00,0.0059
3344.00,0.0059
3343.00,0.0059
3342.00,0.0059
3341.00,0.0059
3340.00,0.0058
3339.00,0.0058
3338.00,0.0058
3337.00,0.0058
3336.00,0.0058
3335.00,0.0058
3334.00,0.0058
3333.00,0.0059
3332.00,0.0059
3331.00,0.0059
3330.00,0.0059
3329.00,0.0059
3328.00,0.0059
3327.00,0.0059
3326.00,0.0059
3325.00,0.0058
3324.00,0.0058
3323.00,0.0058
3322.00,0.0058
3321.00,0.0058
3320.00,0.0059
3319.00,0.0059
3318.00,0.0059
3317.00,0.0059
3316.00,0.0059
3315.00,0.0059
3314.00,0.0059
3313.00,0.0059
3312.00,0.0059
3311.00,0.0059
3310.00,0.0058
3309.00,0.0058
3308.00,0.0058
3307.00,0.0058
3306.00,0.0058
3305.00,0.0058
3304.00,0.0058
3303.00,0.0058
3302.00,0.0058
3301.00,0.0058
3300.00,0.0058
3299.00,0.0058
3298.00,0.0058
3297.00,0.0057
3296.00,0.0057
3295.00,0.0057
3294.00,0.0057
3293.00,0.0057
3292.00,0.0057
3291.00,0.0057
3290.00,0.0057
3289.00,0.0057
3288.00,0.0057
3287.00,0.0057
3286.00,0.0057
3285.00,0.0057
3284.00,0.0057
3283.00,0.0057
3282.00,0.0057
3281.00,0.0057
3280.00,0.0057
3279.00,0.0057
3278.00,0.0057
3277.00,0.0057
3276.00,0.0057
3275.00,0.0057
3274.00,0.0057
3273.00,0.0057
3272.00,0.0057
3271.00,0.0056
3270.00,0.0056
3269.00,0.0056
3268.00,0.0056
3267.00,0.0056
3266.00,0.0056
3265.00,0.0056
3264.00,0.0056
3263.00,0.0055
3262.00,0.0055
3261.00,0.0056
3260.00,0.0056
3259.00,0.0056
3258.00,0.0056
3257.00,0.0056
3256.00,0.0055
3255.00,0.0055
3254.00,0.0055
3253.00,0.0055
3252.00,0.0055
3251.00,0.0055
3250.00,0.0055
3249.00,0.0054
3248.00,0.0054
3247.00,0.0054
3246.00,0.0054
3245.00,0.0053
3244.00,0.0053
3243.00,0.0053
3242.00,0.0053
3241.00,0.0053
3240.00,0.0053
3239.00,0.0053
3238.00,0.0053
3237.00,0.0053
3236.00,0.0053
3235.00,0.0052
3234.00,0.0052
3233.00,0.0052
3232.00,0.0052
3231.00,0.0052
3230.00,0.0052
3229.00,0.0052
3228.00,0.0052
3227.00,0.0052
3226.00,0.0052
3225.00,0.0051
3224.00,0.0051
3223.00,0.0051
3222.00,0.0051
3221.00,0.0051
3220.00,0.0051
3219.00,0.0051
3218.00,0.0051
3217.00,0.0051
3216.00,0.0051
3215.00,0.0051
3214.00,0.0051
3213.00,0.0052
3212.00,0.0052
3211.00,0.0052
3210.00,0.0052
3209.00,0.0052
3208.00,0.0052
3207.00,0.0052
3206.00,0.0052
3205.00,0.0052
3204.00,0.0052
3203.00,0.0052
3202.00,0.0052
3201.00,0.0052
3200.00,0.0052
3199.00,0.0051
3198.00,0.0051
3197.00,0.0051
3196.00,0.0051
3195.00,0.0050
3194.00,0.0050
3193.00,0.0050
3192.00,0.0050
3191.00,0.0050
3190.00,0.0050
3189.00,0.0049
3188.00,0.0049
3187.00,0.0049
3186.00,0.0049
3185.00,0.0049
3184.00,0.0049
3183.00,0.0049
3182.00,0.0049
3181.00,0.0049
3180.00,0.0048
3179.00,0.0048
3178.00,0.0048
3177.00,0.0048
3176.00,0.0048
3175.00,0.0048
3174.00,0.0048
3173.00,0.0048
3172.00,0.0048
3171.00,0.0048
3170.00,0.0048
3169.00,0.0049
3168.00,0.0049
3167.00,0.0049
3166.00,0.0049
3165.00,0.0049
3164.00,0.0049
3163.00,0.0049
3162.00,0.0049
3161.00,0.0049
3160.00,0.0049
3159.00,0.0048
3158.00,0.0048
3157.00,0.0047
3156.00,0.0047
3155.00,0.0046
3154.00,0.0046
3153.00,0.0046
3152.00,0.0046
3151.00,0.0046
3150.00,0.0046
3149.00,0.0046
3148.00,0.0046
3147.00,0.0045
3146.00,0.0045
3145.00,0.0045
3144.00,0.0045
3143.00,0.0045
3142.00,0.0045
3141.00,0.0045
3140.00,0.0045
3139.00,0.0045
3138.00,0.0045
3137.00,0.0045
3136.00,0.0045
3135.00,0.0045
3134.00,0.0045
3133.00,0.0045
3132.00,0.0045
3131.00,0.0045
3130.00,0.0045
3129.00,0.0045
3128.00,0.0045
3127.00,0.0045
3126.00,0.0046
3125.00,0.0046
3124.00,0.0046
3123.00,0.0046
3122.00,0.0046
3121.00,0.0047
3120.00,0.0047
3119.00,0.0048
3118.00,0.0049
3117.00,0.0050
3116.00,0.0051
3115.00,0.0052
3114.00,0.0054
3113.00,0.0056
3112.00,0.0059
3111.00,0.0062
3110.00,0.0065
3109.00,0.0069
3108.00,0.0073
3107.00,0.0077
3106.00,0.0080
3105.00,0.0082
3104.00,0.0084
3103.00,0.0084
3102.00,0.0084
3101.00,0.0083
3100.00,0.0082
3099.00,0.0081
3098.00,0.0080
3097.00,0.0079
3096.00,0.0080
3095.00,0.0081
3094.00,0.0083
3093.00,0.0086
3092.00,0.0091
3091.00,0.0098
3090.00,0.0106
3089.00,0.0117
3088.00,0.0128
3087.00,0.0141
3086.00,0.0154
3085.00,0.0165
3084.00,0.0174
3083.00,0.0179
3082.00,0.0181
3081.00,0.0178
3080.00,0.0172
3079.00,0.0164
3078.00,0.0155
3077.00,0.0148
3076.00,0.0142
3075.00,0.0137
3074.00,0.0135
3073.00,0.0135
3072.00,0.0136
3071.00,0.0139
3070.00,0.0144
3069.00,0.0151
3068.00,0.0160
3067.00,0.0171
3066.00,0.0184
3065.00,0.0198
3064.00,0.0212
3063.00,0.0225
3062.00,0.0235
3061.00,0.0243
3060.00,0.0246
3059.00,0.0244
3058.00,0.0237
3057.00,0.0227
3056.00,0.0215
3055.00,0.0201
3054.00,0.0188
3053.00,0.0176
3052.00,0.0165
3051.00,0.0155
3050.00,0.0147
3049.00,0.0141
3048.00,0.0136
3047.00,0.0132
3046.00,0.0129
3045.00,0.0129
3044.00,0.0129
3043.00,0.0131
3042.00,0.0135
3041.00,0.0141
3040.00,0.0148
3039.00,0.0156
3038.00,0.0167
3037.00,0.0180
3036.00,0.0196
3035.00,0.0215
3034.00,0.0238
3033.00,0.0265
3032.00,0.0295
3031.00,0.0327
3030.00,0.0361
3029.00,0.0394
3028.00,0.0423
3027.00,0.0445
3026.00,0.0458
3025.00,0.0458
3024.00,0.0447
3023.00,0.0423
3022.00,0.0391
3021.00,0.0354
3020.00,0.0315
3019.00,0.0278
3018.00,0.0245
3017.00,0.0216
3016.00,0.0192
3015.00,0.0173
3014.00,0.0157
3013.00,0.0145
3012.00,0.0136
3011.00,0.0129
3010.00,0.0125
3009.00,0.0123
3008.00,0.0123
3007.00,0.0124
3006.00,0.0127
3005.00,0.0131
3004.00,0.0135
3003.00,0.0139
3002.00,0.0141
3001.00,0.0141
3000.00,0.0138
2999.00,0.0133
2998.00,0.0127
2997.00,0.0120
2996.00,0.0112
2995.00,0.0105
2994.00,0.0099
2993.00,0.0094
2992.00,0.0092
2991.00,0.0090
2990.00,0.0089
2989.00,0.0088
2988.00,0.0088
2987.00,0.0088
2986.00,0.0088
2985.00,0.0089
2984.00,0.0089
2983.00,0.0090
2982.00,0.0091
2981.00,0.0092
2980.00,0.0094
2979.00,0.0096
2978.00,0.0098
2977.00,0.0100
2976.00,0.0101
2975.00,0.0103
2974.00,0.0105
2973.00,0.0107
2972.00,0.0109
2971.00,0.0112
2970.00,0.0115
2969.00,0.0118
2968.00,0.0121
2967.00,0.0125
2966.00,0.0129
2965.00,0.0133
2964.00,0.0138
2963.00,0.0143
2962.00,0.0148
2961.00,0.0152
2960.00,0.0157
2959.00,0.0162
2958.00,0.0167
2957.00,0.0172
2956.00,0.0178
2955.00,0.0183
2954.00,0.0188
2953.00,0.0195
2952.00,0.0201
2951.00,0.0208
2950.00,0.0216
2949.00,0.0224
2948.00,0.0233
2947.00,0.0244
2946.00,0.0255
2945.00,0.0267
2944.00,0.0280
2943.00,0.0295
2942.00,0.0311
2941.00,0.0327
2940.00,0.0346
2939.00,0.0365
2938.00,0.0385
2937.00,0.0407
2936.00,0.0429
2935.00,0.0452
2934.00,0.0475
2933.00,0.0499
2932.00,0.0522
2931.00,0.0544
2930.00,0.0566
2929.00,0.0586
2928.00,0.0603
2927.00,0.0619
2926.00,0.0632
2925.00,0.0642
2924.00,0.0649
2923.00,0.0654
2922.00,0.0654
2921.00,0.0652
2920.00,0.0646
2919.00,0.0637
2918.00,0.0626
2917.00,0.0612
2916.00,0.0597
2915.00,0.0581
2914.00,0.0565
2913.00,0.0549
2912.00,0.0532
2911.00,0.0516
2910.00,0.0499
2909.00,0.0483
2908.00,0.0467
2907.00,0.0451
2906.00,0.0434
2905.00,0.0418
2904.00,0.0402
2903.00,0.0387
2902.00,0.0371
2901.00,0.0356
2900.00,0.0341
2899.00,0.0327
2898.00,0.0314
2897.00,0.0301
2896.00,0.0289
2895.00,0.0279
2894.00,0.0269
2893.00,0.0261
2892.00,0.0253
2891.00,0.0245
2890.00,0.0238
2889.00,0.0232
2888.00,0.0226
2887.00,0.0220
2886.00,0.0215
2885.00,0.0210
2884.00,0.0206
2883.00,0.0201
2882.00,0.0197
2881.00,0.0193
2880.00,0.0190
2879.00,0.0187
2878.00,0.0184
2877.00,0.0182
2876.00,0.0180
2875.00,0.0178
2874.00,0.0176
2873.00,0.0175
2872.00,0.0174
2871.00,0.0174
2870.00,0.0173
2869.00,0.0174
2868.00,0.0175
2867.00,0.0177
2866.00,0.0181
2865.00,0.0186
2864.00,0.0192
2863.00,0.0199
2862.00,0.0208
2861.00,0.0217
2860.00,0.0227
2859.00,0.0238
2858.00,0.0249
2857.00,0.0259
2856.00,0.0269
2855.00,0.0277
2854.00,0.0284
2853.00,0.0290
2852.00,0.0293
2851.00,0.0294
2850.00,0.0293
2849.00,0.0290
2848.00,0.0284
2847.00,0.0275
2846.00,0.0264
2845.00,0.0251
2844.00,0.0236
2843.00,0.0221
2842.00,0.0204
2841.00,0.0188
2840.00,0.0172
2839.00,0.0157
2838.00,0.0143
2837.00,0.0131
2836.00,0.0120
2835.00,0.0111
2834.00,0.0104
2833.00,0.0097
2832.00,0.0092
2831.00,0.0088
2830.00,0.0084
2829.00,0.0081
2828.00,0.0079
2827.00,0.0077
2826.00,0.0075
2825.00,0.0073
2824.00,0.0072
2823.00,0.0071
2822.00,0.0070
2821.00,0.0069
2820.00,0.0068
2819.00,0.0067
2818.00,0.0067
2817.00,0.0066
2816.00,0.0065
2815.00,0.0065
2814.00,0.0064
2813.00,0.0064
2812.00,0.0063
2811.00,0.0063
2810.00,0.0063
2809.00,0.0062
2808.00,0.0062
2807.00,0.0061
2806.00,0.0061
2805.00,0.0060
2804.00,0.0059
2803.00,0.0059
2802.00,0.0058
2801.00,0.0058
2800.00,0.0058
2799.00,0.0057
2798.00,0.0057
2797.00,0.0056
2796.00,0.0056
2795.00,0.0055
2794.00,0.0055
2793.00,0.0054
2792.00,0.0054
2791.00,0.0054
2790.00,0.0053
2789.00,0.0053
2788.00,0.0053
2787.00,0.0053
2786.00,0.0052
2785.00,0.0052
2784.00,0.0052
2783.00,0.0052
2782.00,0.0052
2781.00,0.0052
2780.00,0.0051
2779.00,0.0051
2778.00,0.0051
2777.00,0.0051
2776.00,0.0050
2775.00,0.0050
2774.00,0.0049
2773.00,0.0049
2772.00,0.0049
2771.00,0.0048
2770.00,0.0048
2769.00,0.0048
2768.00,0.0048
2767.00,0.0047
2766.00,0.0047
2765.00,0.0047
2764.00,0.0047
2763.00,0.0047
2762.00,0.0047
2761.00,0.0046
2760.00,0.0046
2759.00,0.0046
2758.00,0.0046
2757.00,0.0046
