Created as New Dataset,Sample 453 By YargerLab Date Saturday, March 01 2025
cm-1,A
4000.00,0.0519
3999.00,0.0519
3998.00,0.0519
3997.00,0.0519
3996.00,0.0519
3995.00,0.0520
3994.00,0.0520
3993.00,0.0520
3992.00,0.0520
3991.00,0.0520
3990.00,0.0520
3989.00,0.0520
3988.00,0.0520
3987.00,0.0520
3986.00,0.0520
3985.00,0.0520
3984.00,0.0520
3983.00,0.0520
3982.00,0.0520
3981.00,0.0520
3980.00,0.0521
3979.00,0.0521
3978.00,0.0521
3977.00,0.0520
3976.00,0.0520
3975.00,0.0520
3974.00,0.0520
3973.00,0.0520
3972.00,0.0520
3971.00,0.0520
3970.00,0.0520
3969.00,0.0521
3968.00,0.0521
3967.00,0.0522
3966.00,0.0522
3965.00,0.0522
3964.00,0.0522
3963.00,0.0522
3962.00,0.0521
3961.00,0.0521
3960.00,0.0521
3959.00,0.0522
3958.00,0.0522
3957.00,0.0522
3956.00,0.0523
3955.00,0.0523
3954.00,0.0523
3953.00,0.0523
3952.00,0.0523
3951.00,0.0524
3950.00,0.0524
3949.00,0.0524
3948.00,0.0524
3947.00,0.0524
3946.00,0.0524
3945.00,0.0524
3944.00,0.0523
3943.00,0.0523
3942.00,0.0523
3941.00,0.0523
3940.00,0.0524
3939.00,0.0524
3938.00,0.0524
3937.00,0.0524
3936.00,0.0525
3935.00,0.0525
3934.00,0.0525
3933.00,0.0525
3932.00,0.0525
3931.00,0.0524
3930.00,0.0524
3929.00,0.0524
3928.00,0.0524
3927.00,0.0524
3926.00,0.0524
3925.00,0.0524
3924.00,0.0524
3923.00,0.0524
3922.00,0.0524
3921.00,0.0524
3920.00,0.0524
3919.00,0.0524
3918.00,0.0524
3917.00,0.0524
3916.00,0.0524
3915.00,0.0523
3914.00,0.0524
3913.00,0.0524
3912.00,0.0524
3911.00,0.0525
3910.00,0.0525
3909.00,0.0525
3908.00,0.0524
3907.00,0.0524
3906.00,0.0523
3905.00,0.0523
3904.00,0.0523
3903.00,0.0523
3902.00,0.0523
3901.00,0.0523
3900.00,0.0523
3899.00,0.0523
3898.00,0.0523
3897.00,0.0523
3896.00,0.0523
3895.00,0.0524
3894.00,0.0524
3893.00,0.0524
3892.00,0.0525
3891.00,0.0525
3890.00,0.0525
3889.00,0.0524
3888.00,0.0524
3887.00,0.0525
3886.00,0.0525
3885.00,0.0525
3884.00,0.0525
3883.00,0.0525
3882.00,0.0525
3881.00,0.0525
3880.00,0.0525
3879.00,0.0526
3878.00,0.0525
3877.00,0.0525
3876.00,0.0525
3875.00,0.0525
3874.00,0.0525
3873.00,0.0525
3872.00,0.0524
3871.00,0.0524
3870.00,0.0525
3869.00,0.0525
3868.00,0.0525
3867.00,0.0525
3866.00,0.0525
3865.00,0.0526
3864.00,0.0526
3863.00,0.0527
3862.00,0.0527
3861.00,0.0527
3860.00,0.0527
3859.00,0.0527
3858.00,0.0526
3857.00,0.0524
3856.00,0.0522
3855.00,0.0521
3854.00,0.0521
3853.00,0.0521
3852.00,0.0521
3851.00,0.0522
3850.00,0.0523
3849.00,0.0525
3848.00,0.0527
3847.00,0.0528
3846.00,0.0529
3845.00,0.0529
3844.00,0.0529
3843.00,0.0529
3842.00,0.0528
3841.00,0.0527
3840.00,0.0527
3839.00,0.0526
3838.00,0.0526
3837.00,0.0525
3836.00,0.0526
3835.00,0.0526
3834.00,0.0527
3833.00,0.0528
3832.00,0.0528
3831.00,0.0528
3830.00,0.0528
3829.00,0.0528
3828.00,0.0528
3827.00,0.0528
3826.00,0.0529
3825.00,0.0529
3824.00,0.0529
3823.00,0.0529
3822.00,0.0529
3821.00,0.0529
3820.00,0.0529
3819.00,0.0528
3818.00,0.0527
3817.00,0.0526
3816.00,0.0527
3815.00,0.0527
3814.00,0.0527
3813.00,0.0528
3812.00,0.0528
3811.00,0.0529
3810.00,0.0529
3809.00,0.0528
3808.00,0.0528
3807.00,0.0528
3806.00,0.0528
3805.00,0.0527
3804.00,0.0527
3803.00,0.0527
3802.00,0.0527
3801.00,0.0528
3800.00,0.0528
3799.00,0.0528
3798.00,0.0529
3797.00,0.0529
3796.00,0.0530
3795.00,0.0530
3794.00,0.0530
3793.00,0.0530
3792.00,0.0530
3791.00,0.0531
3790.00,0.0531
3789.00,0.0531
3788.00,0.0531
3787.00,0.0531
3786.00,0.0531
3785.00,0.0531
3784.00,0.0531
3783.00,0.0531
3782.00,0.0531
3781.00,0.0531
3780.00,0.0531
3779.00,0.0531
3778.00,0.0531
3777.00,0.0530
3776.00,0.0530
3775.00,0.0530
3774.00,0.0530
3773.00,0.0530
3772.00,0.0530
3771.00,0.0530
3770.00,0.0530
3769.00,0.0530
3768.00,0.0530
3767.00,0.0530
3766.00,0.0530
3765.00,0.0530
3764.00,0.0531
3763.00,0.0531
3762.00,0.0531
3761.00,0.0532
3760.00,0.0532
3759.00,0.0532
3758.00,0.0531
3757.00,0.0531
3756.00,0.0530
3755.00,0.0529
3754.00,0.0528
3753.00,0.0527
3752.00,0.0526
3751.00,0.0526
3750.00,0.0525
3749.00,0.0525
3748.00,0.0524
3747.00,0.0524
3746.00,0.0524
3745.00,0.0525
3744.00,0.0526
3743.00,0.0526
3742.00,0.0526
3741.00,0.0527
3740.00,0.0527
3739.00,0.0528
3738.00,0.0528
3737.00,0.0528
3736.00,0.0528
3735.00,0.0527
3734.00,0.0527
3733.00,0.0528
3732.00,0.0528
3731.00,0.0529
3730.00,0.0529
3729.00,0.0529
3728.00,0.0529
3727.00,0.0529
3726.00,0.0530
3725.00,0.0530
3724.00,0.0530
3723.00,0.0530
3722.00,0.0530
3721.00,0.0530
3720.00,0.0530
3719.00,0.0530
3718.00,0.0530
3717.00,0.0530
3716.00,0.0530
3715.00,0.0530
3714.00,0.0529
3713.00,0.0529
3712.00,0.0529
3711.00,0.0529
3710.00,0.0529
3709.00,0.0529
3708.00,0.0529
3707.00,0.0529
3706.00,0.0529
3705.00,0.0530
3704.00,0.0530
3703.00,0.0530
3702.00,0.0531
3701.00,0.0531
3700.00,0.0531
3699.00,0.0531
3698.00,0.0531
3697.00,0.0531
3696.00,0.0531
3695.00,0.0531
3694.00,0.0531
3693.00,0.0531
3692.00,0.0530
3691.00,0.0530
3690.00,0.0530
3689.00,0.0530
3688.00,0.0531
3687.00,0.0532
3686.00,0.0532
3685.00,0.0533
3684.00,0.0534
3683.00,0.0535
3682.00,0.0536
3681.00,0.0536
3680.00,0.0537
3679.00,0.0537
3678.00,0.0537
3677.00,0.0537
3676.00,0.0538
3675.00,0.0538
3674.00,0.0538
3673.00,0.0538
3672.00,0.0538
3671.00,0.0539
3670.00,0.0540
3669.00,0.0541
3668.00,0.0541
3667.00,0.0542
3666.00,0.0543
3665.00,0.0544
3664.00,0.0545
3663.00,0.0545
3662.00,0.0546
3661.00,0.0546
3660.00,0.0546
3659.00,0.0545
3658.00,0.0545
3657.00,0.0545
3656.00,0.0545
3655.00,0.0545
3654.00,0.0544
3653.00,0.0543
3652.00,0.0543
3651.00,0.0543
3650.00,0.0543
3649.00,0.0544
3648.00,0.0544
3647.00,0.0544
3646.00,0.0545
3645.00,0.0546
3644.00,0.0546
3643.00,0.0546
3642.00,0.0546
3641.00,0.0546
3640.00,0.0545
3639.00,0.0545
3638.00,0.0545
3637.00,0.0546
3636.00,0.0545
3635.00,0.0545
3634.00,0.0544
3633.00,0.0542
3632.00,0.0540
3631.00,0.0539
3630.00,0.0538
3629.00,0.0538
3628.00,0.0539
3627.00,0.0539
3626.00,0.0540
3625.00,0.0541
3624.00,0.0541
3623.00,0.0542
3622.00,0.0542
3621.00,0.0542
3620.00,0.0542
3619.00,0.0542
3618.00,0.0542
3617.00,0.0542
3616.00,0.0542
3615.00,0.0543
3614.00,0.0543
3613.00,0.0544
3612.00,0.0543
3611.00,0.0543
3610.00,0.0543
3609.00,0.0543
3608.00,0.0543
3607.00,0.0543
3606.00,0.0543
3605.00,0.0543
3604.00,0.0544
3603.00,0.0545
3602.00,0.0545
3601.00,0.0546
3600.00,0.0546
3599.00,0.0546
3598.00,0.0546
3597.00,0.0546
3596.00,0.0546
3595.00,0.0546
3594.00,0.0547
3593.00,0.0547
3592.00,0.0547
3591.00,0.0547
3590.00,0.0547
3589.00,0.0547
3588.00,0.0547
3587.00,0.0548
3586.00,0.0548
3585.00,0.0548
3584.00,0.0548
3583.00,0.0548
3582.00,0.0549
3581.00,0.0549
3580.00,0.0550
3579.00,0.0551
3578.00,0.0552
3577.00,0.0553
3576.00,0.0553
3575.00,0.0553
3574.00,0.0553
3573.00,0.0553
3572.00,0.0553
3571.00,0.0552
3570.00,0.0552
3569.00,0.0553
3568.00,0.0554
3567.00,0.0554
3566.00,0.0554
3565.00,0.0555
3564.00,0.0555
3563.00,0.0556
3562.00,0.0556
3561.00,0.0557
3560.00,0.0557
3559.00,0.0558
3558.00,0.0558
3557.00,0.0559
3556.00,0.0559
3555.00,0.0559
3554.00,0.0560
3553.00,0.0560
3552.00,0.0560
3551.00,0.0560
3550.00,0.0561
3549.00,0.0561
3548.00,0.0561
3547.00,0.0562
3546.00,0.0562
3545.00,0.0562
3544.00,0.0563
3543.00,0.0564
3542.00,0.0564
3541.00,0.0565
3540.00,0.0565
3539.00,0.0566
3538.00,0.0566
3537.00,0.0567
3536.00,0.0567
3535.00,0.0568
3534.00,0.0568
3533.00,0.0568
3532.00,0.0569
3531.00,0.0569
3530.00,0.0569
3529.00,0.0569
3528.00,0.0570
3527.00,0.0570
3526.00,0.0570
3525.00,0.0570
3524.00,0.0571
3523.00,0.0571
3522.00,0.0572
3521.00,0.0572
3520.00,0.0573
3519.00,0.0573
3518.00,0.0573
3517.00,0.0574
3516.00,0.0574
3515.00,0.0574
3514.00,0.0574
3513.00,0.0575
3512.00,0.0575
3511.00,0.0576
3510.00,0.0576
3509.00,0.0576
3508.00,0.0576
3507.00,0.0577
3506.00,0.0577
3505.00,0.0577
3504.00,0.0578
3503.00,0.0578
3502.00,0.0579
3501.00,0.0579
3500.00,0.0579
3499.00,0.0579
3498.00,0.0579
3497.00,0.0580
3496.00,0.0580
3495.00,0.0580
3494.00,0.0581
3493.00,0.0581
3492.00,0.0582
3491.00,0.0583
3490.00,0.0583
3489.00,0.0583
3488.00,0.0584
3487.00,0.0584
3486.00,0.0585
3485.00,0.0585
3484.00,0.0585
3483.00,0.0585
3482.00,0.0586
3481.00,0.0586
3480.00,0.0586
3479.00,0.0586
3478.00,0.0587
3477.00,0.0587
3476.00,0.0588
3475.00,0.0589
3474.00,0.0589
3473.00,0.0590
3472.00,0.0590
3471.00,0.0590
3470.00,0.0590
3469.00,0.0591
3468.00,0.0591
3467.00,0.0591
3466.00,0.0592
3465.00,0.0593
3464.00,0.0594
3463.00,0.0595
3462.00,0.0595
3461.00,0.0596
3460.00,0.0596
3459.00,0.0597
3458.00,0.0597
3457.00,0.0598
3456.00,0.0599
3455.00,0.0600
3454.00,0.0600
3453.00,0.0601
3452.00,0.0601
3451.00,0.0601
3450.00,0.0601
3449.00,0.0601
3448.00,0.0602
3447.00,0.0602
3446.00,0.0602
3445.00,0.0602
3444.00,0.0603
3443.00,0.0603
3442.00,0.0604
3441.00,0.0604
3440.00,0.0604
3439.00,0.0604
3438.00,0.0604
3437.00,0.0605
3436.00,0.0605
3435.00,0.0606
3434.00,0.0607
3433.00,0.0608
3432.00,0.0609
3431.00,0.0609
3430.00,0.0610
3429.00,0.0611
3428.00,0.0612
3427.00,0.0613
3426.00,0.0614
3425.00,0.0615
3424.00,0.0616
3423.00,0.0617
3422.00,0.0617
3421.00,0.0618
3420.00,0.0619
3419.00,0.0620
3418.00,0.0620
3417.00,0.0621
3416.00,0.0621
3415.00,0.0622
3414.00,0.0622
3413.00,0.0623
3412.00,0.0624
3411.00,0.0624
3410.00,0.0625
3409.00,0.0625
3408.00,0.0626
3407.00,0.0627
3406.00,0.0627
3405.00,0.0627
3404.00,0.0626
3403.00,0.0625
3402.00,0.0624
3401.00,0.0623
3400.00,0.0623
3399.00,0.0624
3398.00,0.0624
3397.00,0.0625
3396.00,0.0625
3395.00,0.0624
3394.00,0.0624
3393.00,0.0624
3392.00,0.0623
3391.00,0.0623
3390.00,0.0624
3389.00,0.0624
3388.00,0.0624
3387.00,0.0624
3386.00,0.0625
3385.00,0.0625
3384.00,0.0625
3383.00,0.0625
3382.00,0.0625
3381.00,0.0625
3380.00,0.0625
3379.00,0.0625
3378.00,0.0625
3377.00,0.0626
3376.00,0.0626
3375.00,0.0627
3374.00,0.0627
3373.00,0.0627
3372.00,0.0626
3371.00,0.0626
3370.00,0.0625
3369.00,0.0626
3368.00,0.0626
3367.00,0.0627
3366.00,0.0628
3365.00,0.0629
3364.00,0.0629
3363.00,0.0630
3362.00,0.0630
3361.00,0.0630
3360.00,0.0630
3359.00,0.0631
3358.00,0.0631
3357.00,0.0632
3356.00,0.0632
3355.00,0.0632
3354.00,0.0632
3353.00,0.0632
3352.00,0.0632
3351.00,0.0632
3350.00,0.0633
3349.00,0.0634
3348.00,0.0634
3347.00,0.0635
3346.00,0.0636
3345.00,0.0636
3344.00,0.0636
3343.00,0.0636
3342.00,0.0636
3341.00,0.0636
3340.00,0.0637
3339.00,0.0637
3338.00,0.0637
3337.00,0.0638
3336.00,0.0639
3335.00,0.0639
3334.00,0.0640
3333.00,0.0641
3332.00,0.0642
3331.00,0.0642
3330.00,0.0642
3329.00,0.0642
3328.00,0.0642
3327.00,0.0642
3326.00,0.0642
3325.00,0.0643
3324.00,0.0643
3323.00,0.0644
3322.00,0.0645
3321.00,0.0645
3320.00,0.0646
3319.00,0.0646
3318.00,0.0647
3317.00,0.0647
3316.00,0.0647
3315.00,0.0648
3314.00,0.0648
3313.00,0.0648
3312.00,0.0648
3311.00,0.0647
3310.00,0.0647
3309.00,0.0647
3308.00,0.0647
3307.00,0.0647
3306.00,0.0647
3305.00,0.0648
3304.00,0.0649
3303.00,0.0650
3302.00,0.0651
3301.00,0.0652
3300.00,0.0653
3299.00,0.0653
3298.00,0.0653
3297.00,0.0653
3296.00,0.0653
3295.00,0.0653
3294.00,0.0653
3293.00,0.0654
3292.00,0.0654
3291.00,0.0655
3290.00,0.0657
3289.00,0.0658
3288.00,0.0659
3287.00,0.0660
3286.00,0.0660
3285.00,0.0660
3284.00,0.0661
3283.00,0.0661
3282.00,0.0662
3281.00,0.0662
3280.00,0.0663
3279.00,0.0664
3278.00,0.0664
3277.00,0.0664
3276.00,0.0664
3275.00,0.0663
3274.00,0.0663
3273.00,0.0663
3272.00,0.0662
3271.00,0.0663
3270.00,0.0664
3269.00,0.0665
3268.00,0.0667
3267.00,0.0668
3266.00,0.0669
3265.00,0.0670
3264.00,0.0671
3263.00,0.0671
3262.00,0.0672
3261.00,0.0672
3260.00,0.0673
3259.00,0.0673
3258.00,0.0673
3257.00,0.0673
3256.00,0.0673
3255.00,0.0674
3254.00,0.0675
3253.00,0.0675
3252.00,0.0676
3251.00,0.0676
3250.00,0.0675
3249.00,0.0675
3248.00,0.0674
3247.00,0.0675
3246.00,0.0676
3245.00,0.0677
3244.00,0.0678
3243.00,0.0679
3242.00,0.0680
3241.00,0.0681
3240.00,0.0681
3239.00,0.0682
3238.00,0.0682
3237.00,0.0681
3236.00,0.0680
3235.00,0.0679
3234.00,0.0678
3233.00,0.0679
3232.00,0.0681
3231.00,0.0683
3230.00,0.0684
3229.00,0.0686
3228.00,0.0687
3227.00,0.0687
3226.00,0.0688
3225.00,0.0688
3224.00,0.0689
3223.00,0.0689
3222.00,0.0690
3221.00,0.0690
3220.00,0.0690
3219.00,0.0690
3218.00,0.0691
3217.00,0.0692
3216.00,0.0693
3215.00,0.0693
3214.00,0.0694
3213.00,0.0694
3212.00,0.0695
3211.00,0.0695
3210.00,0.0695
3209.00,0.0695
3208.00,0.0695
3207.00,0.0696
3206.00,0.0696
3205.00,0.0697
3204.00,0.0697
3203.00,0.0698
3202.00,0.0698
3201.00,0.0698
3200.00,0.0699
3199.00,0.0699
3198.00,0.0700
3197.00,0.0700
3196.00,0.0700
3195.00,0.0700
3194.00,0.0701
3193.00,0.0701
3192.00,0.0701
3191.00,0.0701
3190.00,0.0701
3189.00,0.0702
3188.00,0.0703
3187.00,0.0703
3186.00,0.0703
3185.00,0.0704
3184.00,0.0704
3183.00,0.0704
3182.00,0.0705
3181.00,0.0705
3180.00,0.0706
3179.00,0.0706
3178.00,0.0706
3177.00,0.0707
3176.00,0.0707
3175.00,0.0707
3174.00,0.0708
3173.00,0.0708
3172.00,0.0709
3171.00,0.0709
3170.00,0.0709
3169.00,0.0709
3168.00,0.0709
3167.00,0.0709
3166.00,0.0709
3165.00,0.0709
3164.00,0.0710
3163.00,0.0710
3162.00,0.0710
3161.00,0.0710
3160.00,0.0710
3159.00,0.0710
3158.00,0.0710
3157.00,0.0710
3156.00,0.0710
3155.00,0.0709
3154.00,0.0708
3153.00,0.0708
3152.00,0.0708
3151.00,0.0709
3150.00,0.0710
3149.00,0.0711
3148.00,0.0712
3147.00,0.0713
3146.00,0.0713
3145.00,0.0713
3144.00,0.0713
3143.00,0.0713
3142.00,0.0712
3141.00,0.0712
3140.00,0.0711
3139.00,0.0712
3138.00,0.0713
3137.00,0.0715
3136.00,0.0716
3135.00,0.0717
3134.00,0.0718
3133.00,0.0718
3132.00,0.0718
3131.00,0.0719
3130.00,0.0720
3129.00,0.0720
3128.00,0.0721
3127.00,0.0721
3126.00,0.0722
3125.00,0.0722
3124.00,0.0722
3123.00,0.0721
3122.00,0.0720
3121.00,0.0719
3120.00,0.0719
3119.00,0.0719
3118.00,0.0720
3117.00,0.0721
3116.00,0.0723
3115.00,0.0725
3114.00,0.0727
3113.00,0.0728
3112.00,0.0729
3111.00,0.0729
3110.00,0.0729
3109.00,0.0729
3108.00,0.0730
3107.00,0.0731
3106.00,0.0732
3105.00,0.0733
3104.00,0.0733
3103.00,0.0733
3102.00,0.0733
3101.00,0.0733
3100.00,0.0733
3099.00,0.0734
3098.00,0.0735
3097.00,0.0736
3096.00,0.0736
3095.00,0.0736
3094.00,0.0736
3093.00,0.0736
3092.00,0.0735
3091.00,0.0735
3090.00,0.0736
3089.00,0.0736
3088.00,0.0737
3087.00,0.0737
3086.00,0.0737
3085.00,0.0737
3084.00,0.0737
3083.00,0.0738
3082.00,0.0738
3081.00,0.0738
3080.00,0.0738
3079.00,0.0738
3078.00,0.0739
3077.00,0.0741
3076.00,0.0742
3075.00,0.0743
3074.00,0.0744
3073.00,0.0744
3072.00,0.0744
3071.00,0.0744
3070.00,0.0743
3069.00,0.0743
3068.00,0.0744
3067.00,0.0745
3066.00,0.0746
3065.00,0.0746
3064.00,0.0747
3063.00,0.0747
3062.00,0.0748
3061.00,0.0748
3060.00,0.0748
3059.00,0.0749
3058.00,0.0749
3057.00,0.0749
3056.00,0.0749
3055.00,0.0750
3054.00,0.0750
3053.00,0.0750
3052.00,0.0750
3051.00,0.0750
3050.00,0.0751
3049.00,0.0752
3048.00,0.0752
3047.00,0.0753
3046.00,0.0753
3045.00,0.0753
3044.00,0.0753
3043.00,0.0753
3042.00,0.0754
3041.00,0.0755
3040.00,0.0757
3039.00,0.0758
3038.00,0.0759
3037.00,0.0759
3036.00,0.0760
3035.00,0.0760
3034.00,0.0761
3033.00,0.0763
3032.00,0.0764
3031.00,0.0766
3030.00,0.0767
3029.00,0.0769
3028.00,0.0770
3027.00,0.0771
3026.00,0.0773
3025.00,0.0775
3024.00,0.0777
3023.00,0.0780
3022.00,0.0782
3021.00,0.0784
3020.00,0.0786
3019.00,0.0789
3018.00,0.0792
3017.00,0.0794
3016.00,0.0797
3015.00,0.0800
3014.00,0.0803
3013.00,0.0807
3012.00,0.0811
3011.00,0.0816
3010.00,0.0821
3009.00,0.0825
3008.00,0.0829
3007.00,0.0832
3006.00,0.0836
3005.00,0.0839
3004.00,0.0842
3003.00,0.0845
3002.00,0.0847
3001.00,0.0848
3000.00,0.0849
2999.00,0.0850
2998.00,0.0851
2997.00,0.0851
2996.00,0.0852
2995.00,0.0852
2994.00,0.0852
2993.00,0.0851
2992.00,0.0851
2991.00,0.0852
2990.00,0.0852
2989.00,0.0853
2988.00,0.0854
2987.00,0.0856
2986.00,0.0859
2985.00,0.0864
2984.00,0.0870
2983.00,0.0877
2982.00,0.0882
2981.00,0.0885
2980.00,0.0885
2979.00,0.0882
2978.00,0.0879
2977.00,0.0877
2976.00,0.0875
2975.00,0.0874
2974.00,0.0875
2973.00,0.0877
2972.00,0.0880
2971.00,0.0880
2970.00,0.0880
2969.00,0.0877
2968.00,0.0875
2967.00,0.0873
2966.00,0.0870
2965.00,0.0868
2964.00,0.0866
2963.00,0.0864
2962.00,0.0862
2961.00,0.0860
2960.00,0.0858
2959.00,0.0856
2958.00,0.0854
2957.00,0.0852
2956.00,0.0850
2955.00,0.0848
2954.00,0.0846
2953.00,0.0844
2952.00,0.0842
2951.00,0.0840
2950.00,0.0838
2949.00,0.0836
2948.00,0.0834
2947.00,0.0832
2946.00,0.0830
2945.00,0.0829
2944.00,0.0828
2943.00,0.0828
2942.00,0.0828
2941.00,0.0828
2940.00,0.0829
2939.00,0.0829
2938.00,0.0829
2937.00,0.0830
2936.00,0.0832
2935.00,0.0834
2934.00,0.0836
2933.00,0.0838
2932.00,0.0840
2931.00,0.0842
2930.00,0.0844
2929.00,0.0847
2928.00,0.0850
2927.00,0.0852
2926.00,0.0854
2925.00,0.0855
2924.00,0.0855
2923.00,0.0855
2922.00,0.0854
2921.00,0.0853
2920.00,0.0851
2919.00,0.0849
2918.00,0.0847
2917.00,0.0845
2916.00,0.0842
2915.00,0.0840
2914.00,0.0838
2913.00,0.0836
2912.00,0.0835
2911.00,0.0834
2910.00,0.0833
2909.00,0.0832
2908.00,0.0831
2907.00,0.0830
2906.00,0.0829
2905.00,0.0828
2904.00,0.0826
2903.00,0.0825
2902.00,0.0825
2901.00,0.0824
2900.00,0.0823
2899.00,0.0822
2898.00,0.0821
2897.00,0.0821
2896.00,0.0820
2895.00,0.0820
2894.00,0.0820
2893.00,0.0820
2892.00,0.0820
2891.00,0.0820
2890.00,0.0820
2889.00,0.0820
2888.00,0.0819
2887.00,0.0819
2886.00,0.0818
2885.00,0.0818
2884.00,0.0818
2883.00,0.0817
2882.00,0.0816
2881.00,0.0815
2880.00,0.0814
2879.00,0.0812
2878.00,0.0811
2877.00,0.0809
2876.00,0.0808
2875.00,0.0807
2874.00,0.0806
2873.00,0.0806
2872.00,0.0806
2871.00,0.0807
2870.00,0.0807
2869.00,0.0806
2868.00,0.0806
2867.00,0.0805
2866.00,0.0805
2865.00,0.0804
2864.00,0.0804
2863.00,0.0803
2862.00,0.0803
2861.00,0.0802
2860.00,0.0802
2859.00,0.0802
2858.00,0.0802
2857.00,0.0802
2856.00,0.0802
2855.00,0.0802
2854.00,0.0802
2853.00,0.0802
2852.00,0.0802
2851.00,0.0803
2850.00,0.0803
2849.00,0.0803
2848.00,0.0803
2847.00,0.0804
2846.00,0.0804
2845.00,0.0804
2844.00,0.0804
2843.00,0.0804
2842.00,0.0804
2841.00,0.0803
2840.00,0.0803
2839.00,0.0802
2838.00,0.0803
2837.00,0.0803
2836.00,0.0803
2835.00,0.0803
2834.00,0.0803
2833.00,0.0804
2832.00,0.0804
2831.00,0.0804
2830.00,0.0804
2829.00,0.0804
2828.00,0.0804
2827.00,0.0804
2826.00,0.0804
2825.00,0.0804
2824.00,0.0803
2823.00,0.0803
2822.00,0.0803
2821.00,0.0803
2820.00,0.0803
2819.00,0.0803
2818.00,0.0803
2817.00,0.0803
2816.00,0.0803
2815.00,0.0803
2814.00,0.0803
2813.00,0.0802
2812.00,0.0802
2811.00,0.0802
2810.00,0.0802
2809.00,0.0802
2808.00,0.0802
2807.00,0.0802
2806.00,0.0802
2805.00,0.0802
2804.00,0.0803
2803.00,0.0803
2802.00,0.0803
2801.00,0.0803
2800.00,0.0802
2799.00,0.0802
2798.00,0.0802
2797.00,0.0802
2796.00,0.0802
2795.00,0.0802
2794.00,0.0802
2793.00,0.0802
2792.00,0.0802
2791.00,0.0802
2790.00,0.0802
2789.00,0.0802
2788.00,0.0802
2787.00,0.0802
2786.00,0.0802
2785.00,0.0802
2784.00,0.0802
2783.00,0.0802
2782.00,0.0802
2781.00,0.0801
2780.00,0.0801
2779.00,0.0801
2778.00,0.0801
2777.00,0.0801
2776.00,0.0801
2775.00,0.0801
2774.00,0.0801
2773.00,0.0801
2772.00,0.0801
2771.00,0.0801
2770.00,0.0801
2769.00,0.0801
2768.00,0.0801
2767.00,0.0800
2766.00,0.0800
2765.00,0.0801
2764.00,0.0801
2763.00,0.0801
2762.00,0.0801
2761.00,0.0801
2760.00,0.0801
2759.00,0.0801
2758.00,0.0801
2757.00,0.0801
