Created as New Dataset,Sample 606 By YargerLab Date Thursday, June 05 2025
cm-1,A
4000.00,0.0047
3999.00,0.0047
3998.00,0.0046
3997.00,0.0046
3996.00,0.0046
3995.00,0.0046
3994.00,0.0046
3993.00,0.0046
3992.00,0.0045
3991.00,0.0045
3990.00,0.0045
3989.00,0.0045
3988.00,0.0046
3987.00,0.0046
3986.00,0.0046
3985.00,0.0046
3984.00,0.0046
3983.00,0.0046
3982.00,0.0046
3981.00,0.0046
3980.00,0.0046
3979.00,0.0046
3978.00,0.0046
3977.00,0.0046
3976.00,0.0046
3975.00,0.0046
3974.00,0.0046
3973.00,0.0046
3972.00,0.0046
3971.00,0.0046
3970.00,0.0046
3969.00,0.0046
3968.00,0.0046
3967.00,0.0046
3966.00,0.0046
3965.00,0.0046
3964.00,0.0046
3963.00,0.0046
3962.00,0.0046
3961.00,0.0046
3960.00,0.0046
3959.00,0.0046
3958.00,0.0046
3957.00,0.0046
3956.00,0.0046
3955.00,0.0046
3954.00,0.0046
3953.00,0.0045
3952.00,0.0045
3951.00,0.0045
3950.00,0.0045
3949.00,0.0045
3948.00,0.0045
3947.00,0.0045
3946.00,0.0045
3945.00,0.0045
3944.00,0.0045
3943.00,0.0045
3942.00,0.0045
3941.00,0.0045
3940.00,0.0045
3939.00,0.0045
3938.00,0.0045
3937.00,0.0046
3936.00,0.0046
3935.00,0.0045
3934.00,0.0045
3933.00,0.0045
3932.00,0.0045
3931.00,0.0045
3930.00,0.0045
3929.00,0.0044
3928.00,0.0044
3927.00,0.0044
3926.00,0.0045
3925.00,0.0045
3924.00,0.0045
3923.00,0.0045
3922.00,0.0045
3921.00,0.0045
3920.00,0.0045
3919.00,0.0045
3918.00,0.0044
3917.00,0.0044
3916.00,0.0044
3915.00,0.0044
3914.00,0.0044
3913.00,0.0045
3912.00,0.0045
3911.00,0.0045
3910.00,0.0045
3909.00,0.0045
3908.00,0.0045
3907.00,0.0045
3906.00,0.0045
3905.00,0.0044
3904.00,0.0044
3903.00,0.0043
3902.00,0.0043
3901.00,0.0043
3900.00,0.0043
3899.00,0.0043
3898.00,0.0044
3897.00,0.0044
3896.00,0.0044
3895.00,0.0044
3894.00,0.0045
3893.00,0.0045
3892.00,0.0044
3891.00,0.0044
3890.00,0.0044
3889.00,0.0044
3888.00,0.0043
3887.00,0.0043
3886.00,0.0043
3885.00,0.0043
3884.00,0.0043
3883.00,0.0043
3882.00,0.0042
3881.00,0.0042
3880.00,0.0043
3879.00,0.0043
3878.00,0.0043
3877.00,0.0043
3876.00,0.0043
3875.00,0.0043
3874.00,0.0043
3873.00,0.0043
3872.00,0.0043
3871.00,0.0042
3870.00,0.0042
3869.00,0.0042
3868.00,0.0042
3867.00,0.0042
3866.00,0.0042
3865.00,0.0042
3864.00,0.0043
3863.00,0.0043
3862.00,0.0043
3861.00,0.0042
3860.00,0.0042
3859.00,0.0042
3858.00,0.0043
3857.00,0.0043
3856.00,0.0043
3855.00,0.0043
3854.00,0.0042
3853.00,0.0041
3852.00,0.0041
3851.00,0.0041
3850.00,0.0041
3849.00,0.0041
3848.00,0.0042
3847.00,0.0042
3846.00,0.0042
3845.00,0.0042
3844.00,0.0042
3843.00,0.0042
3842.00,0.0042
3841.00,0.0042
3840.00,0.0041
3839.00,0.0041
3838.00,0.0041
3837.00,0.0041
3836.00,0.0041
3835.00,0.0042
3834.00,0.0042
3833.00,0.0042
3832.00,0.0042
3831.00,0.0042
3830.00,0.0042
3829.00,0.0042
3828.00,0.0042
3827.00,0.0042
3826.00,0.0042
3825.00,0.0042
3824.00,0.0042
3823.00,0.0041
3822.00,0.0041
3821.00,0.0041
3820.00,0.0041
3819.00,0.0041
3818.00,0.0041
3817.00,0.0041
3816.00,0.0041
3815.00,0.0042
3814.00,0.0042
3813.00,0.0042
3812.00,0.0042
3811.00,0.0043
3810.00,0.0043
3809.00,0.0042
3808.00,0.0042
3807.00,0.0042
3806.00,0.0042
3805.00,0.0042
3804.00,0.0041
3803.00,0.0041
3802.00,0.0041
3801.00,0.0041
3800.00,0.0041
3799.00,0.0041
3798.00,0.0041
3797.00,0.0041
3796.00,0.0042
3795.00,0.0043
3794.00,0.0043
3793.00,0.0043
3792.00,0.0043
3791.00,0.0044
3790.00,0.0044
3789.00,0.0044
3788.00,0.0044
3787.00,0.0044
3786.00,0.0044
3785.00,0.0044
3784.00,0.0043
3783.00,0.0043
3782.00,0.0043
3781.00,0.0043
3780.00,0.0043
3779.00,0.0043
3778.00,0.0043
3777.00,0.0043
3776.00,0.0043
3775.00,0.0043
3774.00,0.0043
3773.00,0.0043
3772.00,0.0043
3771.00,0.0043
3770.00,0.0043
3769.00,0.0043
3768.00,0.0043
3767.00,0.0042
3766.00,0.0042
3765.00,0.0042
3764.00,0.0043
3763.00,0.0042
3762.00,0.0042
3761.00,0.0042
3760.00,0.0042
3759.00,0.0042
3758.00,0.0042
3757.00,0.0042
3756.00,0.0042
3755.00,0.0042
3754.00,0.0041
3753.00,0.0041
3752.00,0.0041
3751.00,0.0040
3750.00,0.0040
3749.00,0.0039
3748.00,0.0039
3747.00,0.0039
3746.00,0.0039
3745.00,0.0039
3744.00,0.0039
3743.00,0.0039
3742.00,0.0039
3741.00,0.0039
3740.00,0.0038
3739.00,0.0038
3738.00,0.0038
3737.00,0.0038
3736.00,0.0037
3735.00,0.0038
3734.00,0.0038
3733.00,0.0038
3732.00,0.0039
3731.00,0.0039
3730.00,0.0039
3729.00,0.0040
3728.00,0.0040
3727.00,0.0040
3726.00,0.0040
3725.00,0.0040
3724.00,0.0040
3723.00,0.0041
3722.00,0.0041
3721.00,0.0041
3720.00,0.0041
3719.00,0.0041
3718.00,0.0041
3717.00,0.0042
3716.00,0.0042
3715.00,0.0042
3714.00,0.0041
3713.00,0.0041
3712.00,0.0040
3711.00,0.0040
3710.00,0.0040
3709.00,0.0040
3708.00,0.0040
3707.00,0.0040
3706.00,0.0041
3705.00,0.0041
3704.00,0.0041
3703.00,0.0042
3702.00,0.0042
3701.00,0.0042
3700.00,0.0043
3699.00,0.0043
3698.00,0.0043
3697.00,0.0042
3696.00,0.0042
3695.00,0.0042
3694.00,0.0042
3693.00,0.0042
3692.00,0.0042
3691.00,0.0041
3690.00,0.0041
3689.00,0.0041
3688.00,0.0041
3687.00,0.0041
3686.00,0.0041
3685.00,0.0041
3684.00,0.0042
3683.00,0.0042
3682.00,0.0042
3681.00,0.0042
3680.00,0.0042
3679.00,0.0042
3678.00,0.0042
3677.00,0.0042
3676.00,0.0041
3675.00,0.0041
3674.00,0.0042
3673.00,0.0041
3672.00,0.0041
3671.00,0.0041
3670.00,0.0042
3669.00,0.0044
3668.00,0.0044
3667.00,0.0045
3666.00,0.0045
3665.00,0.0046
3664.00,0.0046
3663.00,0.0047
3662.00,0.0048
3661.00,0.0048
3660.00,0.0048
3659.00,0.0048
3658.00,0.0048
3657.00,0.0049
3656.00,0.0049
3655.00,0.0049
3654.00,0.0049
3653.00,0.0049
3652.00,0.0049
3651.00,0.0049
3650.00,0.0049
3649.00,0.0049
3648.00,0.0050
3647.00,0.0051
3646.00,0.0052
3645.00,0.0053
3644.00,0.0054
3643.00,0.0054
3642.00,0.0055
3641.00,0.0056
3640.00,0.0057
3639.00,0.0057
3638.00,0.0058
3637.00,0.0058
3636.00,0.0059
3635.00,0.0059
3634.00,0.0060
3633.00,0.0060
3632.00,0.0061
3631.00,0.0061
3630.00,0.0061
3629.00,0.0062
3628.00,0.0063
3627.00,0.0064
3626.00,0.0064
3625.00,0.0065
3624.00,0.0065
3623.00,0.0066
3622.00,0.0067
3621.00,0.0067
3620.00,0.0068
3619.00,0.0069
3618.00,0.0069
3617.00,0.0069
3616.00,0.0070
3615.00,0.0070
3614.00,0.0070
3613.00,0.0071
3612.00,0.0072
3611.00,0.0073
3610.00,0.0074
3609.00,0.0074
3608.00,0.0075
3607.00,0.0076
3606.00,0.0077
3605.00,0.0078
3604.00,0.0078
3603.00,0.0079
3602.00,0.0079
3601.00,0.0080
3600.00,0.0081
3599.00,0.0081
3598.00,0.0082
3597.00,0.0083
3596.00,0.0083
3595.00,0.0084
3594.00,0.0084
3593.00,0.0085
3592.00,0.0085
3591.00,0.0086
3590.00,0.0086
3589.00,0.0087
3588.00,0.0088
3587.00,0.0089
3586.00,0.0090
3585.00,0.0090
3584.00,0.0091
3583.00,0.0092
3582.00,0.0092
3581.00,0.0093
3580.00,0.0094
3579.00,0.0095
3578.00,0.0095
3577.00,0.0096
3576.00,0.0097
3575.00,0.0098
3574.00,0.0098
3573.00,0.0099
3572.00,0.0100
3571.00,0.0099
3570.00,0.0099
3569.00,0.0099
3568.00,0.0100
3567.00,0.0101
3566.00,0.0102
3565.00,0.0103
3564.00,0.0104
3563.00,0.0104
3562.00,0.0105
3561.00,0.0106
3560.00,0.0107
3559.00,0.0109
3558.00,0.0110
3557.00,0.0111
3556.00,0.0111
3555.00,0.0112
3554.00,0.0112
3553.00,0.0113
3552.00,0.0114
3551.00,0.0114
3550.00,0.0114
3549.00,0.0115
3548.00,0.0115
3547.00,0.0116
3546.00,0.0117
3545.00,0.0118
3544.00,0.0120
3543.00,0.0120
3542.00,0.0121
3541.00,0.0121
3540.00,0.0122
3539.00,0.0123
3538.00,0.0123
3537.00,0.0124
3536.00,0.0125
3535.00,0.0126
3534.00,0.0126
3533.00,0.0126
3532.00,0.0126
3531.00,0.0127
3530.00,0.0128
3529.00,0.0129
3528.00,0.0130
3527.00,0.0130
3526.00,0.0131
3525.00,0.0132
3524.00,0.0132
3523.00,0.0133
3522.00,0.0134
3521.00,0.0135
3520.00,0.0135
3519.00,0.0136
3518.00,0.0136
3517.00,0.0137
3516.00,0.0138
3515.00,0.0139
3514.00,0.0139
3513.00,0.0140
3512.00,0.0140
3511.00,0.0140
3510.00,0.0141
3509.00,0.0142
3508.00,0.0143
3507.00,0.0143
3506.00,0.0143
3505.00,0.0143
3504.00,0.0144
3503.00,0.0145
3502.00,0.0146
3501.00,0.0147
3500.00,0.0148
3499.00,0.0148
3498.00,0.0149
3497.00,0.0150
3496.00,0.0150
3495.00,0.0151
3494.00,0.0152
3493.00,0.0152
3492.00,0.0153
3491.00,0.0153
3490.00,0.0154
3489.00,0.0155
3488.00,0.0155
3487.00,0.0156
3486.00,0.0157
3485.00,0.0157
3484.00,0.0158
3483.00,0.0158
3482.00,0.0159
3481.00,0.0159
3480.00,0.0160
3479.00,0.0160
3478.00,0.0161
3477.00,0.0161
3476.00,0.0162
3475.00,0.0163
3474.00,0.0163
3473.00,0.0164
3472.00,0.0164
3471.00,0.0165
3470.00,0.0165
3469.00,0.0165
3468.00,0.0166
3467.00,0.0166
3466.00,0.0166
3465.00,0.0166
3464.00,0.0166
3463.00,0.0165
3462.00,0.0165
3461.00,0.0164
3460.00,0.0164
3459.00,0.0163
3458.00,0.0162
3457.00,0.0162
3456.00,0.0161
3455.00,0.0161
3454.00,0.0161
3453.00,0.0161
3452.00,0.0161
3451.00,0.0162
3450.00,0.0163
3449.00,0.0165
3448.00,0.0168
3447.00,0.0172
3446.00,0.0175
3445.00,0.0179
3444.00,0.0182
3443.00,0.0185
3442.00,0.0188
3441.00,0.0191
3440.00,0.0193
3439.00,0.0194
3438.00,0.0196
3437.00,0.0197
3436.00,0.0198
3435.00,0.0199
3434.00,0.0200
3433.00,0.0201
3432.00,0.0201
3431.00,0.0202
3430.00,0.0203
3429.00,0.0204
3428.00,0.0205
3427.00,0.0206
3426.00,0.0206
3425.00,0.0207
3424.00,0.0208
3423.00,0.0208
3422.00,0.0209
3421.00,0.0210
3420.00,0.0211
3419.00,0.0212
3418.00,0.0213
3417.00,0.0215
3416.00,0.0216
3415.00,0.0216
3414.00,0.0217
3413.00,0.0218
3412.00,0.0219
3411.00,0.0220
3410.00,0.0221
3409.00,0.0222
3408.00,0.0223
3407.00,0.0223
3406.00,0.0224
3405.00,0.0225
3404.00,0.0226
3403.00,0.0227
3402.00,0.0228
3401.00,0.0229
3400.00,0.0229
3399.00,0.0230
3398.00,0.0231
3397.00,0.0232
3396.00,0.0233
3395.00,0.0234
3394.00,0.0234
3393.00,0.0235
3392.00,0.0237
3391.00,0.0238
3390.00,0.0239
3389.00,0.0240
3388.00,0.0241
3387.00,0.0242
3386.00,0.0243
3385.00,0.0244
3384.00,0.0245
3383.00,0.0246
3382.00,0.0247
3381.00,0.0248
3380.00,0.0249
3379.00,0.0250
3378.00,0.0251
3377.00,0.0252
3376.00,0.0253
3375.00,0.0255
3374.00,0.0256
3373.00,0.0257
3372.00,0.0258
3371.00,0.0259
3370.00,0.0260
3369.00,0.0261
3368.00,0.0262
3367.00,0.0264
3366.00,0.0266
3365.00,0.0267
3364.00,0.0269
3363.00,0.0270
3362.00,0.0271
3361.00,0.0273
3360.00,0.0274
3359.00,0.0275
3358.00,0.0277
3357.00,0.0278
3356.00,0.0279
3355.00,0.0281
3354.00,0.0282
3353.00,0.0283
3352.00,0.0284
3351.00,0.0286
3350.00,0.0288
3349.00,0.0290
3348.00,0.0291
3347.00,0.0293
3346.00,0.0294
3345.00,0.0296
3344.00,0.0297
3343.00,0.0299
3342.00,0.0300
3341.00,0.0302
3340.00,0.0303
3339.00,0.0305
3338.00,0.0307
3337.00,0.0309
3336.00,0.0311
3335.00,0.0313
3334.00,0.0315
3333.00,0.0316
3332.00,0.0318
3331.00,0.0320
3330.00,0.0321
3329.00,0.0323
3328.00,0.0325
3327.00,0.0326
3326.00,0.0329
3325.00,0.0331
3324.00,0.0334
3323.00,0.0336
3322.00,0.0338
3321.00,0.0340
3320.00,0.0342
3319.00,0.0344
3318.00,0.0346
3317.00,0.0348
3316.00,0.0351
3315.00,0.0353
3314.00,0.0355
3313.00,0.0356
3312.00,0.0358
3311.00,0.0360
3310.00,0.0362
3309.00,0.0363
3308.00,0.0365
3307.00,0.0368
3306.00,0.0370
3305.00,0.0373
3304.00,0.0376
3303.00,0.0379
3302.00,0.0382
3301.00,0.0384
3300.00,0.0386
3299.00,0.0387
3298.00,0.0388
3297.00,0.0390
3296.00,0.0391
3295.00,0.0393
3294.00,0.0394
3293.00,0.0396
3292.00,0.0398
3291.00,0.0401
3290.00,0.0403
3289.00,0.0405
3288.00,0.0406
3287.00,0.0407
3286.00,0.0408
3285.00,0.0409
3284.00,0.0410
3283.00,0.0411
3282.00,0.0412
3281.00,0.0413
3280.00,0.0413
3279.00,0.0413
3278.00,0.0413
3277.00,0.0413
3276.00,0.0412
3275.00,0.0411
3274.00,0.0410
3273.00,0.0409
3272.00,0.0408
3271.00,0.0408
3270.00,0.0407
3269.00,0.0407
3268.00,0.0406
3267.00,0.0405
3266.00,0.0403
3265.00,0.0402
3264.00,0.0400
3263.00,0.0398
3262.00,0.0396
3261.00,0.0394
3260.00,0.0392
3259.00,0.0390
3258.00,0.0387
3257.00,0.0384
3256.00,0.0382
3255.00,0.0380
3254.00,0.0378
3253.00,0.0377
3252.00,0.0375
3251.00,0.0373
3250.00,0.0370
3249.00,0.0367
3248.00,0.0365
3247.00,0.0363
3246.00,0.0361
3245.00,0.0359
3244.00,0.0358
3243.00,0.0356
3242.00,0.0354
3241.00,0.0352
3240.00,0.0350
3239.00,0.0349
3238.00,0.0347
3237.00,0.0345
3236.00,0.0342
3235.00,0.0340
3234.00,0.0339
3233.00,0.0337
3232.00,0.0336
3231.00,0.0336
3230.00,0.0334
3229.00,0.0333
3228.00,0.0332
3227.00,0.0330
3226.00,0.0329
3225.00,0.0328
3224.00,0.0326
3223.00,0.0325
3222.00,0.0324
3221.00,0.0323
3220.00,0.0322
3219.00,0.0320
3218.00,0.0319
3217.00,0.0318
3216.00,0.0316
3215.00,0.0315
3214.00,0.0314
3213.00,0.0314
3212.00,0.0313
3211.00,0.0312
3210.00,0.0310
3209.00,0.0309
3208.00,0.0308
3207.00,0.0307
3206.00,0.0306
3205.00,0.0305
3204.00,0.0304
3203.00,0.0303
3202.00,0.0302
3201.00,0.0301
3200.00,0.0299
3199.00,0.0298
3198.00,0.0297
3197.00,0.0296
3196.00,0.0295
3195.00,0.0294
3194.00,0.0293
3193.00,0.0292
3192.00,0.0291
3191.00,0.0289
3190.00,0.0288
3189.00,0.0287
3188.00,0.0286
3187.00,0.0285
3186.00,0.0284
3185.00,0.0283
3184.00,0.0282
3183.00,0.0281
3182.00,0.0279
3181.00,0.0278
3180.00,0.0276
3179.00,0.0275
3178.00,0.0274
3177.00,0.0273
3176.00,0.0272
3175.00,0.0270
3174.00,0.0269
3173.00,0.0268
3172.00,0.0267
3171.00,0.0266
3170.00,0.0265
3169.00,0.0263
3168.00,0.0262
3167.00,0.0261
3166.00,0.0260
3165.00,0.0259
3164.00,0.0258
3163.00,0.0257
3162.00,0.0255
3161.00,0.0254
3160.00,0.0253
3159.00,0.0252
3158.00,0.0250
3157.00,0.0249
3156.00,0.0247
3155.00,0.0246
3154.00,0.0245
3153.00,0.0244
3152.00,0.0243
3151.00,0.0242
3150.00,0.0241
3149.00,0.0240
3148.00,0.0239
3147.00,0.0238
3146.00,0.0237
3145.00,0.0236
3144.00,0.0235
3143.00,0.0233
3142.00,0.0232
3141.00,0.0231
3140.00,0.0230
3139.00,0.0229
3138.00,0.0228
3137.00,0.0228
3136.00,0.0227
3135.00,0.0227
3134.00,0.0226
3133.00,0.0225
3132.00,0.0224
3131.00,0.0223
3130.00,0.0222
3129.00,0.0221
3128.00,0.0220
3127.00,0.0220
3126.00,0.0219
3125.00,0.0218
3124.00,0.0218
3123.00,0.0217
3122.00,0.0216
3121.00,0.0215
3120.00,0.0214
3119.00,0.0214
3118.00,0.0213
3117.00,0.0213
3116.00,0.0213
3115.00,0.0213
3114.00,0.0214
3113.00,0.0214
3112.00,0.0214
3111.00,0.0213
3110.00,0.0213
3109.00,0.0212
3108.00,0.0213
3107.00,0.0213
3106.00,0.0214
3105.00,0.0214
3104.00,0.0214
3103.00,0.0214
3102.00,0.0214
3101.00,0.0214
3100.00,0.0214
3099.00,0.0214
3098.00,0.0215
3097.00,0.0215
3096.00,0.0216
3095.00,0.0216
3094.00,0.0216
3093.00,0.0216
3092.00,0.0216
3091.00,0.0216
3090.00,0.0217
3089.00,0.0217
3088.00,0.0218
3087.00,0.0218
3086.00,0.0218
3085.00,0.0218
3084.00,0.0219
3083.00,0.0219
3082.00,0.0219
3081.00,0.0219
3080.00,0.0219
3079.00,0.0220
3078.00,0.0220
3077.00,0.0221
3076.00,0.0222
3075.00,0.0223
3074.00,0.0223
3073.00,0.0223
3072.00,0.0223
3071.00,0.0222
3070.00,0.0221
3069.00,0.0221
3068.00,0.0220
3067.00,0.0220
3066.00,0.0221
3065.00,0.0221
3064.00,0.0221
3063.00,0.0222
3062.00,0.0222
3061.00,0.0222
3060.00,0.0222
3059.00,0.0221
3058.00,0.0221
3057.00,0.0220
3056.00,0.0219
3055.00,0.0219
3054.00,0.0218
3053.00,0.0217
3052.00,0.0217
3051.00,0.0216
3050.00,0.0216
3049.00,0.0215
3048.00,0.0214
3047.00,0.0213
3046.00,0.0212
3045.00,0.0211
3044.00,0.0210
3043.00,0.0209
3042.00,0.0209
3041.00,0.0209
3040.00,0.0208
3039.00,0.0208
3038.00,0.0207
3037.00,0.0206
3036.00,0.0205
3035.00,0.0204
3034.00,0.0203
3033.00,0.0202
3032.00,0.0202
3031.00,0.0202
3030.00,0.0201
3029.00,0.0201
3028.00,0.0200
3027.00,0.0199
3026.00,0.0198
3025.00,0.0197
3024.00,0.0196
3023.00,0.0195
3022.00,0.0194
3021.00,0.0193
3020.00,0.0192
3019.00,0.0190
3018.00,0.0189
3017.00,0.0188
3016.00,0.0186
3015.00,0.0185
3014.00,0.0184
3013.00,0.0183
3012.00,0.0182
3011.00,0.0182
3010.00,0.0181
3009.00,0.0181
3008.00,0.0180
3007.00,0.0179
3006.00,0.0178
3005.00,0.0177
3004.00,0.0176
3003.00,0.0175
3002.00,0.0174
3001.00,0.0173
3000.00,0.0172
2999.00,0.0171
2998.00,0.0171
2997.00,0.0171
2996.00,0.0171
2995.00,0.0171
2994.00,0.0171
2993.00,0.0171
2992.00,0.0172
2991.00,0.0173
2990.00,0.0173
2989.00,0.0174
2988.00,0.0176
2987.00,0.0177
2986.00,0.0177
2985.00,0.0177
2984.00,0.0176
2983.00,0.0175
2982.00,0.0175
2981.00,0.0177
2980.00,0.0179
2979.00,0.0183
2978.00,0.0187
2977.00,0.0190
2976.00,0.0193
2975.00,0.0196
2974.00,0.0198
2973.00,0.0200
2972.00,0.0203
2971.00,0.0205
2970.00,0.0208
2969.00,0.0212
2968.00,0.0215
2967.00,0.0218
2966.00,0.0220
2965.00,0.0222
2964.00,0.0224
2963.00,0.0225
2962.00,0.0226
2961.00,0.0226
2960.00,0.0226
2959.00,0.0226
2958.00,0.0225
2957.00,0.0224
2956.00,0.0222
2955.00,0.0220
2954.00,0.0218
2953.00,0.0217
2952.00,0.0215
2951.00,0.0215
2950.00,0.0214
2949.00,0.0214
2948.00,0.0215
2947.00,0.0216
2946.00,0.0217
2945.00,0.0219
2944.00,0.0221
2943.00,0.0223
2942.00,0.0225
2941.00,0.0227
2940.00,0.0229
2939.00,0.0231
2938.00,0.0233
2937.00,0.0234
2936.00,0.0236
2935.00,0.0237
2934.00,0.0238
2933.00,0.0238
2932.00,0.0239
2931.00,0.0239
2930.00,0.0239
2929.00,0.0238
2928.00,0.0238
2927.00,0.0237
2926.00,0.0237
2925.00,0.0236
2924.00,0.0234
2923.00,0.0233
2922.00,0.0232
2921.00,0.0230
2920.00,0.0228
2919.00,0.0226
2918.00,0.0223
2917.00,0.0220
2916.00,0.0217
2915.00,0.0214
2914.00,0.0210
2913.00,0.0207
2912.00,0.0205
2911.00,0.0202
2910.00,0.0200
2909.00,0.0198
2908.00,0.0196
2907.00,0.0194
2906.00,0.0193
2905.00,0.0192
2904.00,0.0190
2903.00,0.0189
2902.00,0.0188
2901.00,0.0187
2900.00,0.0186
2899.00,0.0185
2898.00,0.0184
2897.00,0.0182
2896.00,0.0181
2895.00,0.0180
2894.00,0.0179
2893.00,0.0178
2892.00,0.0177
2891.00,0.0176
2890.00,0.0175
2889.00,0.0175
2888.00,0.0175
2887.00,0.0175
2886.00,0.0175
2885.00,0.0176
2884.00,0.0176
2883.00,0.0177
2882.00,0.0178
2881.00,0.0179
2880.00,0.0180
2879.00,0.0182
2878.00,0.0183
2877.00,0.0184
2876.00,0.0184
2875.00,0.0184
2874.00,0.0184
2873.00,0.0183
2872.00,0.0182
2871.00,0.0180
2870.00,0.0179
2869.00,0.0177
2868.00,0.0176
2867.00,0.0175
2866.00,0.0174
2865.00,0.0173
2864.00,0.0172
2863.00,0.0172
2862.00,0.0171
2861.00,0.0170
2860.00,0.0170
2859.00,0.0169
2858.00,0.0169
2857.00,0.0169
2856.00,0.0170
2855.00,0.0170
2854.00,0.0170
2853.00,0.0169
2852.00,0.0169
2851.00,0.0168
2850.00,0.0167
2849.00,0.0165
2848.00,0.0162
2847.00,0.0160
2846.00,0.0158
2845.00,0.0155
2844.00,0.0153
2843.00,0.0151
2842.00,0.0150
2841.00,0.0148
2840.00,0.0147
2839.00,0.0145
2838.00,0.0144
2837.00,0.0143
2836.00,0.0142
2835.00,0.0141
2834.00,0.0140
2833.00,0.0139
2832.00,0.0139
2831.00,0.0138
2830.00,0.0138
2829.00,0.0138
2828.00,0.0138
2827.00,0.0138
2826.00,0.0138
2825.00,0.0138
2824.00,0.0138
2823.00,0.0138
2822.00,0.0138
2821.00,0.0138
2820.00,0.0138
2819.00,0.0138
2818.00,0.0137
2817.00,0.0137
2816.00,0.0137
2815.00,0.0137
2814.00,0.0136
2813.00,0.0136
2812.00,0.0135
2811.00,0.0135
2810.00,0.0135
2809.00,0.0135
2808.00,0.0135
2807.00,0.0134
2806.00,0.0134
2805.00,0.0134
2804.00,0.0134
2803.00,0.0133
2802.00,0.0133
2801.00,0.0133
2800.00,0.0132
2799.00,0.0132
2798.00,0.0131
2797.00,0.0131
2796.00,0.0131
2795.00,0.0130
2794.00,0.0130
2793.00,0.0129
2792.00,0.0129
2791.00,0.0128
2790.00,0.0128
2789.00,0.0128
2788.00,0.0128
2787.00,0.0127
2786.00,0.0127
2785.00,0.0127
2784.00,0.0126
2783.00,0.0126
2782.00,0.0126
2781.00,0.0125
2780.00,0.0125
2779.00,0.0124
2778.00,0.0124
2777.00,0.0123
2776.00,0.0123
2775.00,0.0122
2774.00,0.0122
2773.00,0.0122
2772.00,0.0121
2771.00,0.0121
2770.00,0.0121
2769.00,0.0120
2768.00,0.0120
2767.00,0.0119
2766.00,0.0119
2765.00,0.0119
2764.00,0.0118
2763.00,0.0118
2762.00,0.0117
2761.00,0.0117
2760.00,0.0117
2759.00,0.0116
2758.00,0.0116
2757.00,0.0116
