Created as New Dataset,Sample 380 By YargerLab Date Sunday, November 16 2025
cm-1,A
4000.00,0.0025
3999.00,0.0025
3998.00,0.0025
3997.00,0.0025
3996.00,0.0025
3995.00,0.0025
3994.00,0.0025
3993.00,0.0025
3992.00,0.0025
3991.00,0.0025
3990.00,0.0025
3989.00,0.0025
3988.00,0.0025
3987.00,0.0025
3986.00,0.0025
3985.00,0.0025
3984.00,0.0025
3983.00,0.0025
3982.00,0.0025
3981.00,0.0025
3980.00,0.0025
3979.00,0.0025
3978.00,0.0025
3977.00,0.0025
3976.00,0.0025
3975.00,0.0025
3974.00,0.0025
3973.00,0.0025
3972.00,0.0025
3971.00,0.0025
3970.00,0.0025
3969.00,0.0025
3968.00,0.0025
3967.00,0.0025
3966.00,0.0025
3965.00,0.0025
3964.00,0.0025
3963.00,0.0025
3962.00,0.0025
3961.00,0.0025
3960.00,0.0025
3959.00,0.0024
3958.00,0.0024
3957.00,0.0024
3956.00,0.0025
3955.00,0.0025
3954.00,0.0025
3953.00,0.0025
3952.00,0.0025
3951.00,0.0025
3950.00,0.0025
3949.00,0.0025
3948.00,0.0025
3947.00,0.0025
3946.00,0.0025
3945.00,0.0024
3944.00,0.0024
3943.00,0.0024
3942.00,0.0024
3941.00,0.0025
3940.00,0.0025
3939.00,0.0025
3938.00,0.0024
3937.00,0.0024
3936.00,0.0024
3935.00,0.0024
3934.00,0.0024
3933.00,0.0024
3932.00,0.0024
3931.00,0.0024
3930.00,0.0024
3929.00,0.0024
3928.00,0.0024
3927.00,0.0024
3926.00,0.0024
3925.00,0.0024
3924.00,0.0024
3923.00,0.0024
3922.00,0.0024
3921.00,0.0024
3920.00,0.0024
3919.00,0.0024
3918.00,0.0024
3917.00,0.0024
3916.00,0.0024
3915.00,0.0024
3914.00,0.0024
3913.00,0.0024
3912.00,0.0024
3911.00,0.0024
3910.00,0.0024
3909.00,0.0024
3908.00,0.0024
3907.00,0.0024
3906.00,0.0024
3905.00,0.0024
3904.00,0.0024
3903.00,0.0023
3902.00,0.0023
3901.00,0.0022
3900.00,0.0022
3899.00,0.0022
3898.00,0.0022
3897.00,0.0022
3896.00,0.0022
3895.00,0.0022
3894.00,0.0023
3893.00,0.0023
3892.00,0.0024
3891.00,0.0024
3890.00,0.0024
3889.00,0.0024
3888.00,0.0023
3887.00,0.0023
3886.00,0.0023
3885.00,0.0023
3884.00,0.0023
3883.00,0.0023
3882.00,0.0023
3881.00,0.0023
3880.00,0.0023
3879.00,0.0023
3878.00,0.0023
3877.00,0.0023
3876.00,0.0022
3875.00,0.0022
3874.00,0.0022
3873.00,0.0022
3872.00,0.0022
3871.00,0.0022
3870.00,0.0022
3869.00,0.0022
3868.00,0.0022
3867.00,0.0022
3866.00,0.0022
3865.00,0.0021
3864.00,0.0022
3863.00,0.0022
3862.00,0.0022
3861.00,0.0022
3860.00,0.0022
3859.00,0.0022
3858.00,0.0023
3857.00,0.0023
3856.00,0.0024
3855.00,0.0023
3854.00,0.0023
3853.00,0.0022
3852.00,0.0022
3851.00,0.0021
3850.00,0.0021
3849.00,0.0021
3848.00,0.0021
3847.00,0.0021
3846.00,0.0021
3845.00,0.0021
3844.00,0.0022
3843.00,0.0022
3842.00,0.0022
3841.00,0.0022
3840.00,0.0022
3839.00,0.0022
3838.00,0.0022
3837.00,0.0022
3836.00,0.0022
3835.00,0.0022
3834.00,0.0022
3833.00,0.0022
3832.00,0.0022
3831.00,0.0022
3830.00,0.0022
3829.00,0.0021
3828.00,0.0021
3827.00,0.0021
3826.00,0.0022
3825.00,0.0022
3824.00,0.0022
3823.00,0.0022
3822.00,0.0022
3821.00,0.0022
3820.00,0.0022
3819.00,0.0022
3818.00,0.0022
3817.00,0.0021
3816.00,0.0021
3815.00,0.0021
3814.00,0.0021
3813.00,0.0022
3812.00,0.0022
3811.00,0.0022
3810.00,0.0022
3809.00,0.0023
3808.00,0.0022
3807.00,0.0022
3806.00,0.0022
3805.00,0.0022
3804.00,0.0021
3803.00,0.0021
3802.00,0.0021
3801.00,0.0021
3800.00,0.0021
3799.00,0.0021
3798.00,0.0021
3797.00,0.0021
3796.00,0.0021
3795.00,0.0021
3794.00,0.0022
3793.00,0.0022
3792.00,0.0022
3791.00,0.0022
3790.00,0.0022
3789.00,0.0022
3788.00,0.0022
3787.00,0.0022
3786.00,0.0022
3785.00,0.0022
3784.00,0.0022
3783.00,0.0022
3782.00,0.0022
3781.00,0.0022
3780.00,0.0022
3779.00,0.0022
3778.00,0.0023
3777.00,0.0023
3776.00,0.0023
3775.00,0.0023
3774.00,0.0023
3773.00,0.0023
3772.00,0.0023
3771.00,0.0022
3770.00,0.0022
3769.00,0.0022
3768.00,0.0022
3767.00,0.0022
3766.00,0.0022
3765.00,0.0022
3764.00,0.0022
3763.00,0.0022
3762.00,0.0022
3761.00,0.0022
3760.00,0.0022
3759.00,0.0022
3758.00,0.0022
3757.00,0.0022
3756.00,0.0022
3755.00,0.0022
3754.00,0.0022
3753.00,0.0022
3752.00,0.0022
3751.00,0.0022
3750.00,0.0021
3749.00,0.0021
3748.00,0.0021
3747.00,0.0020
3746.00,0.0020
3745.00,0.0020
3744.00,0.0020
3743.00,0.0020
3742.00,0.0020
3741.00,0.0019
3740.00,0.0019
3739.00,0.0019
3738.00,0.0019
3737.00,0.0019
3736.00,0.0020
3735.00,0.0020
3734.00,0.0020
3733.00,0.0020
3732.00,0.0020
3731.00,0.0020
3730.00,0.0020
3729.00,0.0020
3728.00,0.0021
3727.00,0.0021
3726.00,0.0021
3725.00,0.0021
3724.00,0.0021
3723.00,0.0021
3722.00,0.0021
3721.00,0.0021
3720.00,0.0021
3719.00,0.0021
3718.00,0.0021
3717.00,0.0021
3716.00,0.0022
3715.00,0.0022
3714.00,0.0021
3713.00,0.0021
3712.00,0.0021
3711.00,0.0021
3710.00,0.0021
3709.00,0.0021
3708.00,0.0022
3707.00,0.0022
3706.00,0.0022
3705.00,0.0022
3704.00,0.0022
3703.00,0.0023
3702.00,0.0023
3701.00,0.0023
3700.00,0.0024
3699.00,0.0023
3698.00,0.0023
3697.00,0.0023
3696.00,0.0023
3695.00,0.0024
3694.00,0.0024
3693.00,0.0024
3692.00,0.0025
3691.00,0.0025
3690.00,0.0026
3689.00,0.0026
3688.00,0.0025
3687.00,0.0025
3686.00,0.0025
3685.00,0.0026
3684.00,0.0026
3683.00,0.0027
3682.00,0.0027
3681.00,0.0028
3680.00,0.0028
3679.00,0.0029
3678.00,0.0029
3677.00,0.0029
3676.00,0.0029
3675.00,0.0029
3674.00,0.0030
3673.00,0.0030
3672.00,0.0030
3671.00,0.0030
3670.00,0.0031
3669.00,0.0033
3668.00,0.0034
3667.00,0.0034
3666.00,0.0035
3665.00,0.0036
3664.00,0.0036
3663.00,0.0037
3662.00,0.0038
3661.00,0.0039
3660.00,0.0040
3659.00,0.0040
3658.00,0.0041
3657.00,0.0042
3656.00,0.0043
3655.00,0.0043
3654.00,0.0044
3653.00,0.0044
3652.00,0.0043
3651.00,0.0043
3650.00,0.0043
3649.00,0.0045
3648.00,0.0046
3647.00,0.0048
3646.00,0.0049
3645.00,0.0050
3644.00,0.0051
3643.00,0.0051
3642.00,0.0052
3641.00,0.0053
3640.00,0.0055
3639.00,0.0056
3638.00,0.0057
3637.00,0.0059
3636.00,0.0060
3635.00,0.0060
3634.00,0.0061
3633.00,0.0062
3632.00,0.0063
3631.00,0.0063
3630.00,0.0064
3629.00,0.0065
3628.00,0.0067
3627.00,0.0068
3626.00,0.0069
3625.00,0.0070
3624.00,0.0071
3623.00,0.0072
3622.00,0.0073
3621.00,0.0074
3620.00,0.0075
3619.00,0.0076
3618.00,0.0077
3617.00,0.0078
3616.00,0.0079
3615.00,0.0080
3614.00,0.0081
3613.00,0.0082
3612.00,0.0084
3611.00,0.0085
3610.00,0.0086
3609.00,0.0087
3608.00,0.0089
3607.00,0.0090
3606.00,0.0092
3605.00,0.0093
3604.00,0.0094
3603.00,0.0095
3602.00,0.0096
3601.00,0.0097
3600.00,0.0098
3599.00,0.0099
3598.00,0.0100
3597.00,0.0101
3596.00,0.0102
3595.00,0.0103
3594.00,0.0105
3593.00,0.0106
3592.00,0.0108
3591.00,0.0109
3590.00,0.0110
3589.00,0.0111
3588.00,0.0112
3587.00,0.0114
3586.00,0.0116
3585.00,0.0117
3584.00,0.0119
3583.00,0.0120
3582.00,0.0121
3581.00,0.0123
3580.00,0.0124
3579.00,0.0125
3578.00,0.0126
3577.00,0.0128
3576.00,0.0129
3575.00,0.0131
3574.00,0.0132
3573.00,0.0133
3572.00,0.0135
3571.00,0.0136
3570.00,0.0137
3569.00,0.0138
3568.00,0.0139
3567.00,0.0141
3566.00,0.0143
3565.00,0.0145
3564.00,0.0146
3563.00,0.0148
3562.00,0.0149
3561.00,0.0151
3560.00,0.0153
3559.00,0.0154
3558.00,0.0156
3557.00,0.0157
3556.00,0.0158
3555.00,0.0160
3554.00,0.0161
3553.00,0.0163
3552.00,0.0164
3551.00,0.0165
3550.00,0.0167
3549.00,0.0168
3548.00,0.0169
3547.00,0.0170
3546.00,0.0172
3545.00,0.0174
3544.00,0.0175
3543.00,0.0177
3542.00,0.0178
3541.00,0.0180
3540.00,0.0181
3539.00,0.0183
3538.00,0.0184
3537.00,0.0186
3536.00,0.0187
3535.00,0.0188
3534.00,0.0190
3533.00,0.0191
3532.00,0.0192
3531.00,0.0193
3530.00,0.0195
3529.00,0.0196
3528.00,0.0197
3527.00,0.0199
3526.00,0.0200
3525.00,0.0201
3524.00,0.0203
3523.00,0.0204
3522.00,0.0206
3521.00,0.0208
3520.00,0.0209
3519.00,0.0211
3518.00,0.0212
3517.00,0.0214
3516.00,0.0215
3515.00,0.0216
3514.00,0.0218
3513.00,0.0219
3512.00,0.0220
3511.00,0.0221
3510.00,0.0222
3509.00,0.0224
3508.00,0.0225
3507.00,0.0227
3506.00,0.0228
3505.00,0.0230
3504.00,0.0231
3503.00,0.0232
3502.00,0.0234
3501.00,0.0235
3500.00,0.0237
3499.00,0.0239
3498.00,0.0240
3497.00,0.0241
3496.00,0.0243
3495.00,0.0244
3494.00,0.0246
3493.00,0.0247
3492.00,0.0249
3491.00,0.0250
3490.00,0.0252
3489.00,0.0253
3488.00,0.0255
3487.00,0.0257
3486.00,0.0259
3485.00,0.0260
3484.00,0.0262
3483.00,0.0263
3482.00,0.0265
3481.00,0.0266
3480.00,0.0268
3479.00,0.0270
3478.00,0.0272
3477.00,0.0273
3476.00,0.0275
3475.00,0.0276
3474.00,0.0278
3473.00,0.0280
3472.00,0.0281
3471.00,0.0283
3470.00,0.0284
3469.00,0.0285
3468.00,0.0287
3467.00,0.0288
3466.00,0.0290
3465.00,0.0292
3464.00,0.0293
3463.00,0.0294
3462.00,0.0296
3461.00,0.0298
3460.00,0.0299
3459.00,0.0301
3458.00,0.0302
3457.00,0.0304
3456.00,0.0305
3455.00,0.0306
3454.00,0.0308
3453.00,0.0309
3452.00,0.0310
3451.00,0.0312
3450.00,0.0313
3449.00,0.0315
3448.00,0.0316
3447.00,0.0318
3446.00,0.0319
3445.00,0.0321
3444.00,0.0322
3443.00,0.0323
3442.00,0.0325
3441.00,0.0326
3440.00,0.0328
3439.00,0.0330
3438.00,0.0332
3437.00,0.0334
3436.00,0.0335
3435.00,0.0337
3434.00,0.0338
3433.00,0.0340
3432.00,0.0342
3431.00,0.0343
3430.00,0.0345
3429.00,0.0347
3428.00,0.0348
3427.00,0.0350
3426.00,0.0352
3425.00,0.0353
3424.00,0.0355
3423.00,0.0356
3422.00,0.0358
3421.00,0.0359
3420.00,0.0361
3419.00,0.0363
3418.00,0.0365
3417.00,0.0367
3416.00,0.0369
3415.00,0.0371
3414.00,0.0373
3413.00,0.0374
3412.00,0.0376
3411.00,0.0377
3410.00,0.0379
3409.00,0.0381
3408.00,0.0383
3407.00,0.0384
3406.00,0.0386
3405.00,0.0387
3404.00,0.0389
3403.00,0.0391
3402.00,0.0392
3401.00,0.0394
3400.00,0.0396
3399.00,0.0398
3398.00,0.0399
3397.00,0.0401
3396.00,0.0403
3395.00,0.0404
3394.00,0.0406
3393.00,0.0408
3392.00,0.0410
3391.00,0.0412
3390.00,0.0414
3389.00,0.0416
3388.00,0.0418
3387.00,0.0420
3386.00,0.0422
3385.00,0.0424
3384.00,0.0426
3383.00,0.0428
3382.00,0.0430
3381.00,0.0432
3380.00,0.0434
3379.00,0.0436
3378.00,0.0439
3377.00,0.0441
3376.00,0.0444
3375.00,0.0446
3374.00,0.0449
3373.00,0.0451
3372.00,0.0453
3371.00,0.0455
3370.00,0.0458
3369.00,0.0460
3368.00,0.0463
3367.00,0.0466
3366.00,0.0469
3365.00,0.0472
3364.00,0.0475
3363.00,0.0478
3362.00,0.0481
3361.00,0.0484
3360.00,0.0487
3359.00,0.0490
3358.00,0.0494
3357.00,0.0497
3356.00,0.0501
3355.00,0.0504
3354.00,0.0507
3353.00,0.0510
3352.00,0.0512
3351.00,0.0515
3350.00,0.0518
3349.00,0.0522
3348.00,0.0526
3347.00,0.0530
3346.00,0.0533
3345.00,0.0536
3344.00,0.0539
3343.00,0.0542
3342.00,0.0545
3341.00,0.0549
3340.00,0.0552
3339.00,0.0555
3338.00,0.0559
3337.00,0.0563
3336.00,0.0567
3335.00,0.0572
3334.00,0.0576
3333.00,0.0580
3332.00,0.0583
3331.00,0.0587
3330.00,0.0591
3329.00,0.0594
3328.00,0.0598
3327.00,0.0601
3326.00,0.0605
3325.00,0.0609
3324.00,0.0614
3323.00,0.0618
3322.00,0.0623
3321.00,0.0627
3320.00,0.0632
3319.00,0.0636
3318.00,0.0641
3317.00,0.0645
3316.00,0.0649
3315.00,0.0654
3314.00,0.0658
3313.00,0.0661
3312.00,0.0665
3311.00,0.0668
3310.00,0.0671
3309.00,0.0674
3308.00,0.0678
3307.00,0.0682
3306.00,0.0686
3305.00,0.0691
3304.00,0.0696
3303.00,0.0701
3302.00,0.0706
3301.00,0.0711
3300.00,0.0715
3299.00,0.0718
3298.00,0.0721
3297.00,0.0724
3296.00,0.0726
3295.00,0.0729
3294.00,0.0732
3293.00,0.0735
3292.00,0.0738
3291.00,0.0741
3290.00,0.0745
3289.00,0.0748
3288.00,0.0750
3287.00,0.0752
3286.00,0.0754
3285.00,0.0755
3284.00,0.0756
3283.00,0.0757
3282.00,0.0757
3281.00,0.0757
3280.00,0.0757
3279.00,0.0756
3278.00,0.0754
3277.00,0.0752
3276.00,0.0750
3275.00,0.0748
3274.00,0.0745
3273.00,0.0742
3272.00,0.0739
3271.00,0.0736
3270.00,0.0734
3269.00,0.0731
3268.00,0.0728
3267.00,0.0724
3266.00,0.0721
3265.00,0.0717
3264.00,0.0712
3263.00,0.0708
3262.00,0.0703
3261.00,0.0698
3260.00,0.0693
3259.00,0.0688
3258.00,0.0683
3257.00,0.0677
3256.00,0.0672
3255.00,0.0668
3254.00,0.0663
3253.00,0.0659
3252.00,0.0654
3251.00,0.0649
3250.00,0.0644
3249.00,0.0639
3248.00,0.0634
3247.00,0.0629
3246.00,0.0625
3245.00,0.0621
3244.00,0.0618
3243.00,0.0614
3242.00,0.0610
3241.00,0.0607
3240.00,0.0604
3239.00,0.0600
3238.00,0.0596
3237.00,0.0592
3236.00,0.0588
3235.00,0.0584
3234.00,0.0581
3233.00,0.0578
3232.00,0.0576
3231.00,0.0574
3230.00,0.0572
3229.00,0.0569
3228.00,0.0567
3227.00,0.0565
3226.00,0.0562
3225.00,0.0560
3224.00,0.0558
3223.00,0.0555
3222.00,0.0553
3221.00,0.0550
3220.00,0.0548
3219.00,0.0546
3218.00,0.0544
3217.00,0.0542
3216.00,0.0540
3215.00,0.0538
3214.00,0.0536
3213.00,0.0534
3212.00,0.0532
3211.00,0.0530
3210.00,0.0527
3209.00,0.0525
3208.00,0.0523
3207.00,0.0521
3206.00,0.0519
3205.00,0.0518
3204.00,0.0516
3203.00,0.0514
3202.00,0.0511
3201.00,0.0509
3200.00,0.0507
3199.00,0.0504
3198.00,0.0502
3197.00,0.0500
3196.00,0.0497
3195.00,0.0495
3194.00,0.0493
3193.00,0.0490
3192.00,0.0488
3191.00,0.0485
3190.00,0.0482
3189.00,0.0479
3188.00,0.0476
3187.00,0.0473
3186.00,0.0470
3185.00,0.0468
3184.00,0.0465
3183.00,0.0462
3182.00,0.0460
3181.00,0.0457
3180.00,0.0454
3179.00,0.0451
3178.00,0.0448
3177.00,0.0444
3176.00,0.0441
3175.00,0.0438
3174.00,0.0435
3173.00,0.0432
3172.00,0.0429
3171.00,0.0426
3170.00,0.0423
3169.00,0.0420
3168.00,0.0417
3167.00,0.0414
3166.00,0.0411
3165.00,0.0408
3164.00,0.0405
3163.00,0.0403
3162.00,0.0400
3161.00,0.0397
3160.00,0.0394
3159.00,0.0391
3158.00,0.0389
3157.00,0.0386
3156.00,0.0383
3155.00,0.0380
3154.00,0.0377
3153.00,0.0374
3152.00,0.0372
3151.00,0.0370
3150.00,0.0368
3149.00,0.0366
3148.00,0.0364
3147.00,0.0362
3146.00,0.0360
3145.00,0.0358
3144.00,0.0356
3143.00,0.0354
3142.00,0.0351
3141.00,0.0349
3140.00,0.0347
3139.00,0.0346
3138.00,0.0344
3137.00,0.0343
3136.00,0.0342
3135.00,0.0341
3134.00,0.0339
3133.00,0.0338
3132.00,0.0336
3131.00,0.0334
3130.00,0.0333
3129.00,0.0332
3128.00,0.0331
3127.00,0.0330
3126.00,0.0330
3125.00,0.0329
3124.00,0.0327
3123.00,0.0326
3122.00,0.0324
3121.00,0.0323
3120.00,0.0322
3119.00,0.0322
3118.00,0.0322
3117.00,0.0322
3116.00,0.0322
3115.00,0.0322
3114.00,0.0322
3113.00,0.0323
3112.00,0.0323
3111.00,0.0323
3110.00,0.0323
3109.00,0.0323
3108.00,0.0324
3107.00,0.0325
3106.00,0.0326
3105.00,0.0327
3104.00,0.0327
3103.00,0.0327
3102.00,0.0327
3101.00,0.0328
3100.00,0.0329
3099.00,0.0330
3098.00,0.0331
3097.00,0.0333
3096.00,0.0334
3095.00,0.0335
3094.00,0.0336
3093.00,0.0336
3092.00,0.0336
3091.00,0.0336
3090.00,0.0337
3089.00,0.0338
3088.00,0.0339
3087.00,0.0340
3086.00,0.0340
3085.00,0.0341
3084.00,0.0341
3083.00,0.0342
3082.00,0.0342
3081.00,0.0343
3080.00,0.0343
3079.00,0.0344
3078.00,0.0345
3077.00,0.0347
3076.00,0.0348
3075.00,0.0349
3074.00,0.0350
3073.00,0.0351
3072.00,0.0351
3071.00,0.0350
3070.00,0.0350
3069.00,0.0349
3068.00,0.0348
3067.00,0.0348
3066.00,0.0348
3065.00,0.0348
3064.00,0.0348
3063.00,0.0348
3062.00,0.0348
3061.00,0.0347
3060.00,0.0346
3059.00,0.0344
3058.00,0.0342
3057.00,0.0340
3056.00,0.0338
3055.00,0.0337
3054.00,0.0336
3053.00,0.0334
3052.00,0.0332
3051.00,0.0330
3050.00,0.0328
3049.00,0.0327
3048.00,0.0325
3047.00,0.0323
3046.00,0.0320
3045.00,0.0318
3044.00,0.0315
3043.00,0.0313
3042.00,0.0312
3041.00,0.0311
3040.00,0.0310
3039.00,0.0309
3038.00,0.0307
3037.00,0.0305
3036.00,0.0302
3035.00,0.0300
3034.00,0.0298
3033.00,0.0297
3032.00,0.0296
3031.00,0.0295
3030.00,0.0294
3029.00,0.0293
3028.00,0.0291
3027.00,0.0289
3026.00,0.0287
3025.00,0.0285
3024.00,0.0284
3023.00,0.0282
3022.00,0.0280
3021.00,0.0279
3020.00,0.0277
3019.00,0.0275
3018.00,0.0272
3017.00,0.0270
3016.00,0.0269
3015.00,0.0267
3014.00,0.0266
3013.00,0.0265
3012.00,0.0265
3011.00,0.0265
3010.00,0.0266
3009.00,0.0267
3008.00,0.0267
3007.00,0.0268
3006.00,0.0268
3005.00,0.0268
3004.00,0.0269
3003.00,0.0269
3002.00,0.0270
3001.00,0.0271
3000.00,0.0272
2999.00,0.0273
2998.00,0.0275
2997.00,0.0277
2996.00,0.0279
2995.00,0.0281
2994.00,0.0284
2993.00,0.0287
2992.00,0.0290
2991.00,0.0294
2990.00,0.0299
2989.00,0.0304
2988.00,0.0308
2987.00,0.0313
2986.00,0.0318
2985.00,0.0323
2984.00,0.0328
2983.00,0.0334
2982.00,0.0340
2981.00,0.0346
2980.00,0.0353
2979.00,0.0360
2978.00,0.0367
2977.00,0.0375
2976.00,0.0382
2975.00,0.0391
2974.00,0.0400
2973.00,0.0410
2972.00,0.0421
2971.00,0.0433
2970.00,0.0445
2969.00,0.0458
2968.00,0.0471
2967.00,0.0485
2966.00,0.0498
2965.00,0.0512
2964.00,0.0525
2963.00,0.0537
2962.00,0.0548
2961.00,0.0559
2960.00,0.0568
2959.00,0.0576
2958.00,0.0583
2957.00,0.0588
2956.00,0.0592
2955.00,0.0593
2954.00,0.0593
2953.00,0.0590
2952.00,0.0587
2951.00,0.0584
2950.00,0.0581
2949.00,0.0580
2948.00,0.0580
2947.00,0.0583
2946.00,0.0590
2945.00,0.0601
2944.00,0.0615
2943.00,0.0633
2942.00,0.0655
2941.00,0.0679
2940.00,0.0707
2939.00,0.0738
2938.00,0.0770
2937.00,0.0805
2936.00,0.0842
2935.00,0.0881
2934.00,0.0920
2933.00,0.0961
2932.00,0.1002
2931.00,0.1044
2930.00,0.1086
2929.00,0.1127
2928.00,0.1167
2927.00,0.1204
2926.00,0.1238
2925.00,0.1265
2924.00,0.1284
2923.00,0.1294
2922.00,0.1293
2921.00,0.1283
2920.00,0.1262
2919.00,0.1232
2918.00,0.1195
2917.00,0.1151
2916.00,0.1105
2915.00,0.1056
2914.00,0.1008
2913.00,0.0961
2912.00,0.0918
2911.00,0.0879
2910.00,0.0844
2909.00,0.0813
2908.00,0.0786
2907.00,0.0761
2906.00,0.0739
2905.00,0.0719
2904.00,0.0701
2903.00,0.0685
2902.00,0.0670
2901.00,0.0656
2900.00,0.0642
2899.00,0.0628
2898.00,0.0614
2897.00,0.0600
2896.00,0.0586
2895.00,0.0572
2894.00,0.0558
2893.00,0.0544
2892.00,0.0531
2891.00,0.0517
2890.00,0.0503
2889.00,0.0490
2888.00,0.0477
2887.00,0.0466
2886.00,0.0456
2885.00,0.0448
2884.00,0.0440
2883.00,0.0435
2882.00,0.0431
2881.00,0.0429
2880.00,0.0428
2879.00,0.0429
2878.00,0.0432
2877.00,0.0436
2876.00,0.0441
2875.00,0.0446
2874.00,0.0452
2873.00,0.0458
2872.00,0.0462
2871.00,0.0465
2870.00,0.0466
2869.00,0.0468
2868.00,0.0470
2867.00,0.0475
2866.00,0.0482
2865.00,0.0493
2864.00,0.0509
2863.00,0.0530
2862.00,0.0556
2861.00,0.0587
2860.00,0.0622
2859.00,0.0661
2858.00,0.0700
2857.00,0.0739
2856.00,0.0775
2855.00,0.0804
2854.00,0.0824
2853.00,0.0834
2852.00,0.0831
2851.00,0.0817
2850.00,0.0791
2849.00,0.0755
2848.00,0.0709
2847.00,0.0657
2846.00,0.0603
2845.00,0.0550
2844.00,0.0502
2843.00,0.0458
2842.00,0.0420
2841.00,0.0388
2840.00,0.0360
2839.00,0.0337
2838.00,0.0317
2837.00,0.0300
2836.00,0.0286
2835.00,0.0275
2834.00,0.0265
2833.00,0.0257
2832.00,0.0250
2831.00,0.0244
2830.00,0.0239
2829.00,0.0235
2828.00,0.0230
2827.00,0.0227
2826.00,0.0223
2825.00,0.0220
2824.00,0.0217
2823.00,0.0214
2822.00,0.0211
2821.00,0.0209
2820.00,0.0206
2819.00,0.0204
2818.00,0.0202
2817.00,0.0200
2816.00,0.0198
2815.00,0.0196
2814.00,0.0194
2813.00,0.0192
2812.00,0.0190
2811.00,0.0188
2810.00,0.0187
2809.00,0.0185
2808.00,0.0184
2807.00,0.0182
2806.00,0.0181
2805.00,0.0179
2804.00,0.0178
2803.00,0.0176
2802.00,0.0175
2801.00,0.0173
2800.00,0.0172
2799.00,0.0170
2798.00,0.0169
2797.00,0.0167
2796.00,0.0166
2795.00,0.0165
2794.00,0.0164
2793.00,0.0163
2792.00,0.0162
2791.00,0.0161
2790.00,0.0160
2789.00,0.0159
2788.00,0.0158
2787.00,0.0157
2786.00,0.0156
2785.00,0.0155
2784.00,0.0154
2783.00,0.0153
2782.00,0.0153
2781.00,0.0152
2780.00,0.0151
2779.00,0.0150
2778.00,0.0149
2777.00,0.0148
2776.00,0.0147
2775.00,0.0146
2774.00,0.0145
2773.00,0.0144
2772.00,0.0144
2771.00,0.0143
2770.00,0.0143
2769.00,0.0142
2768.00,0.0142
2767.00,0.0142
2766.00,0.0141
2765.00,0.0141
2764.00,0.0140
2763.00,0.0140
2762.00,0.0139
2761.00,0.0138
2760.00,0.0138
2759.00,0.0137
2758.00,0.0137
2757.00,0.0136
