Created as New Dataset,Sample 652 By YargerLab Date Tuesday, June 10 2025
cm-1,A
4000.00,0.0110
3999.00,0.0110
3998.00,0.0110
3997.00,0.0110
3996.00,0.0111
3995.00,0.0110
3994.00,0.0111
3993.00,0.0111
3992.00,0.0111
3991.00,0.0111
3990.00,0.0110
3989.00,0.0110
3988.00,0.0110
3987.00,0.0111
3986.00,0.0111
3985.00,0.0111
3984.00,0.0111
3983.00,0.0111
3982.00,0.0111
3981.00,0.0110
3980.00,0.0110
3979.00,0.0110
3978.00,0.0110
3977.00,0.0110
3976.00,0.0109
3975.00,0.0109
3974.00,0.0110
3973.00,0.0110
3972.00,0.0110
3971.00,0.0110
3970.00,0.0110
3969.00,0.0110
3968.00,0.0110
3967.00,0.0110
3966.00,0.0110
3965.00,0.0110
3964.00,0.0110
3963.00,0.0110
3962.00,0.0110
3961.00,0.0111
3960.00,0.0111
3959.00,0.0111
3958.00,0.0111
3957.00,0.0111
3956.00,0.0111
3955.00,0.0110
3954.00,0.0110
3953.00,0.0110
3952.00,0.0110
3951.00,0.0110
3950.00,0.0110
3949.00,0.0110
3948.00,0.0110
3947.00,0.0110
3946.00,0.0110
3945.00,0.0110
3944.00,0.0110
3943.00,0.0110
3942.00,0.0110
3941.00,0.0110
3940.00,0.0110
3939.00,0.0110
3938.00,0.0110
3937.00,0.0110
3936.00,0.0110
3935.00,0.0110
3934.00,0.0111
3933.00,0.0111
3932.00,0.0110
3931.00,0.0110
3930.00,0.0109
3929.00,0.0109
3928.00,0.0109
3927.00,0.0109
3926.00,0.0109
3925.00,0.0109
3924.00,0.0109
3923.00,0.0109
3922.00,0.0109
3921.00,0.0109
3920.00,0.0109
3919.00,0.0109
3918.00,0.0109
3917.00,0.0108
3916.00,0.0108
3915.00,0.0108
3914.00,0.0108
3913.00,0.0109
3912.00,0.0109
3911.00,0.0109
3910.00,0.0109
3909.00,0.0109
3908.00,0.0109
3907.00,0.0109
3906.00,0.0109
3905.00,0.0109
3904.00,0.0110
3903.00,0.0110
3902.00,0.0110
3901.00,0.0110
3900.00,0.0110
3899.00,0.0110
3898.00,0.0110
3897.00,0.0111
3896.00,0.0111
3895.00,0.0110
3894.00,0.0110
3893.00,0.0109
3892.00,0.0108
3891.00,0.0108
3890.00,0.0108
3889.00,0.0108
3888.00,0.0109
3887.00,0.0109
3886.00,0.0108
3885.00,0.0108
3884.00,0.0108
3883.00,0.0108
3882.00,0.0108
3881.00,0.0108
3880.00,0.0107
3879.00,0.0107
3878.00,0.0107
3877.00,0.0108
3876.00,0.0108
3875.00,0.0108
3874.00,0.0108
3873.00,0.0108
3872.00,0.0108
3871.00,0.0108
3870.00,0.0108
3869.00,0.0108
3868.00,0.0108
3867.00,0.0108
3866.00,0.0109
3865.00,0.0109
3864.00,0.0109
3863.00,0.0108
3862.00,0.0108
3861.00,0.0107
3860.00,0.0107
3859.00,0.0107
3858.00,0.0107
3857.00,0.0107
3856.00,0.0107
3855.00,0.0107
3854.00,0.0106
3853.00,0.0106
3852.00,0.0106
3851.00,0.0106
3850.00,0.0106
3849.00,0.0107
3848.00,0.0107
3847.00,0.0107
3846.00,0.0108
3845.00,0.0108
3844.00,0.0108
3843.00,0.0108
3842.00,0.0108
3841.00,0.0108
3840.00,0.0107
3839.00,0.0107
3838.00,0.0107
3837.00,0.0107
3836.00,0.0107
3835.00,0.0107
3834.00,0.0107
3833.00,0.0107
3832.00,0.0107
3831.00,0.0106
3830.00,0.0106
3829.00,0.0106
3828.00,0.0106
3827.00,0.0106
3826.00,0.0106
3825.00,0.0106
3824.00,0.0106
3823.00,0.0106
3822.00,0.0106
3821.00,0.0106
3820.00,0.0106
3819.00,0.0105
3818.00,0.0105
3817.00,0.0105
3816.00,0.0105
3815.00,0.0105
3814.00,0.0105
3813.00,0.0105
3812.00,0.0105
3811.00,0.0106
3810.00,0.0106
3809.00,0.0106
3808.00,0.0106
3807.00,0.0106
3806.00,0.0106
3805.00,0.0106
3804.00,0.0106
3803.00,0.0106
3802.00,0.0106
3801.00,0.0106
3800.00,0.0106
3799.00,0.0106
3798.00,0.0106
3797.00,0.0106
3796.00,0.0106
3795.00,0.0105
3794.00,0.0105
3793.00,0.0105
3792.00,0.0106
3791.00,0.0106
3790.00,0.0105
3789.00,0.0105
3788.00,0.0105
3787.00,0.0105
3786.00,0.0104
3785.00,0.0104
3784.00,0.0104
3783.00,0.0104
3782.00,0.0105
3781.00,0.0105
3780.00,0.0105
3779.00,0.0105
3778.00,0.0105
3777.00,0.0105
3776.00,0.0104
3775.00,0.0104
3774.00,0.0105
3773.00,0.0105
3772.00,0.0106
3771.00,0.0106
3770.00,0.0106
3769.00,0.0105
3768.00,0.0105
3767.00,0.0105
3766.00,0.0105
3765.00,0.0105
3764.00,0.0105
3763.00,0.0105
3762.00,0.0105
3761.00,0.0105
3760.00,0.0105
3759.00,0.0105
3758.00,0.0105
3757.00,0.0105
3756.00,0.0104
3755.00,0.0104
3754.00,0.0104
3753.00,0.0104
3752.00,0.0104
3751.00,0.0104
3750.00,0.0104
3749.00,0.0105
3748.00,0.0105
3747.00,0.0105
3746.00,0.0105
3745.00,0.0105
3744.00,0.0105
3743.00,0.0105
3742.00,0.0104
3741.00,0.0104
3740.00,0.0104
3739.00,0.0104
3738.00,0.0104
3737.00,0.0104
3736.00,0.0105
3735.00,0.0105
3734.00,0.0105
3733.00,0.0105
3732.00,0.0104
3731.00,0.0104
3730.00,0.0104
3729.00,0.0105
3728.00,0.0105
3727.00,0.0105
3726.00,0.0104
3725.00,0.0104
3724.00,0.0104
3723.00,0.0103
3722.00,0.0103
3721.00,0.0103
3720.00,0.0103
3719.00,0.0103
3718.00,0.0103
3717.00,0.0103
3716.00,0.0103
3715.00,0.0103
3714.00,0.0103
3713.00,0.0103
3712.00,0.0103
3711.00,0.0103
3710.00,0.0102
3709.00,0.0102
3708.00,0.0102
3707.00,0.0102
3706.00,0.0102
3705.00,0.0102
3704.00,0.0102
3703.00,0.0102
3702.00,0.0102
3701.00,0.0102
3700.00,0.0102
3699.00,0.0102
3698.00,0.0102
3697.00,0.0102
3696.00,0.0102
3695.00,0.0102
3694.00,0.0102
3693.00,0.0102
3692.00,0.0102
3691.00,0.0102
3690.00,0.0101
3689.00,0.0101
3688.00,0.0101
3687.00,0.0101
3686.00,0.0101
3685.00,0.0102
3684.00,0.0102
3683.00,0.0102
3682.00,0.0102
3681.00,0.0103
3680.00,0.0103
3679.00,0.0104
3678.00,0.0104
3677.00,0.0105
3676.00,0.0105
3675.00,0.0105
3674.00,0.0105
3673.00,0.0104
3672.00,0.0104
3671.00,0.0104
3670.00,0.0104
3669.00,0.0104
3668.00,0.0105
3667.00,0.0105
3666.00,0.0105
3665.00,0.0106
3664.00,0.0106
3663.00,0.0106
3662.00,0.0106
3661.00,0.0106
3660.00,0.0106
3659.00,0.0107
3658.00,0.0107
3657.00,0.0107
3656.00,0.0108
3655.00,0.0108
3654.00,0.0109
3653.00,0.0109
3652.00,0.0109
3651.00,0.0109
3650.00,0.0109
3649.00,0.0109
3648.00,0.0109
3647.00,0.0110
3646.00,0.0109
3645.00,0.0109
3644.00,0.0109
3643.00,0.0109
3642.00,0.0109
3641.00,0.0110
3640.00,0.0111
3639.00,0.0111
3638.00,0.0111
3637.00,0.0112
3636.00,0.0112
3635.00,0.0113
3634.00,0.0113
3633.00,0.0113
3632.00,0.0114
3631.00,0.0114
3630.00,0.0115
3629.00,0.0116
3628.00,0.0116
3627.00,0.0117
3626.00,0.0117
3625.00,0.0117
3624.00,0.0117
3623.00,0.0117
3622.00,0.0117
3621.00,0.0118
3620.00,0.0118
3619.00,0.0118
3618.00,0.0119
3617.00,0.0119
3616.00,0.0120
3615.00,0.0120
3614.00,0.0120
3613.00,0.0121
3612.00,0.0121
3611.00,0.0122
3610.00,0.0123
3609.00,0.0124
3608.00,0.0124
3607.00,0.0125
3606.00,0.0125
3605.00,0.0126
3604.00,0.0126
3603.00,0.0127
3602.00,0.0127
3601.00,0.0128
3600.00,0.0128
3599.00,0.0129
3598.00,0.0129
3597.00,0.0130
3596.00,0.0131
3595.00,0.0131
3594.00,0.0132
3593.00,0.0132
3592.00,0.0133
3591.00,0.0133
3590.00,0.0134
3589.00,0.0135
3588.00,0.0136
3587.00,0.0137
3586.00,0.0137
3585.00,0.0138
3584.00,0.0139
3583.00,0.0139
3582.00,0.0140
3581.00,0.0140
3580.00,0.0139
3579.00,0.0139
3578.00,0.0139
3577.00,0.0140
3576.00,0.0141
3575.00,0.0142
3574.00,0.0143
3573.00,0.0144
3572.00,0.0144
3571.00,0.0145
3570.00,0.0146
3569.00,0.0148
3568.00,0.0149
3567.00,0.0150
3566.00,0.0150
3565.00,0.0151
3564.00,0.0151
3563.00,0.0152
3562.00,0.0152
3561.00,0.0153
3560.00,0.0153
3559.00,0.0153
3558.00,0.0154
3557.00,0.0155
3556.00,0.0155
3555.00,0.0156
3554.00,0.0156
3553.00,0.0157
3552.00,0.0158
3551.00,0.0158
3550.00,0.0159
3549.00,0.0160
3548.00,0.0161
3547.00,0.0162
3546.00,0.0163
3545.00,0.0164
3544.00,0.0165
3543.00,0.0165
3542.00,0.0166
3541.00,0.0166
3540.00,0.0167
3539.00,0.0168
3538.00,0.0168
3537.00,0.0169
3536.00,0.0169
3535.00,0.0170
3534.00,0.0170
3533.00,0.0171
3532.00,0.0172
3531.00,0.0173
3530.00,0.0174
3529.00,0.0175
3528.00,0.0176
3527.00,0.0177
3526.00,0.0178
3525.00,0.0178
3524.00,0.0179
3523.00,0.0180
3522.00,0.0181
3521.00,0.0182
3520.00,0.0183
3519.00,0.0184
3518.00,0.0184
3517.00,0.0184
3516.00,0.0185
3515.00,0.0185
3514.00,0.0186
3513.00,0.0187
3512.00,0.0188
3511.00,0.0188
3510.00,0.0189
3509.00,0.0190
3508.00,0.0191
3507.00,0.0191
3506.00,0.0192
3505.00,0.0193
3504.00,0.0194
3503.00,0.0194
3502.00,0.0195
3501.00,0.0196
3500.00,0.0197
3499.00,0.0198
3498.00,0.0199
3497.00,0.0200
3496.00,0.0201
3495.00,0.0202
3494.00,0.0203
3493.00,0.0204
3492.00,0.0204
3491.00,0.0205
3490.00,0.0206
3489.00,0.0206
3488.00,0.0207
3487.00,0.0208
3486.00,0.0209
3485.00,0.0210
3484.00,0.0211
3483.00,0.0212
3482.00,0.0213
3481.00,0.0214
3480.00,0.0215
3479.00,0.0217
3478.00,0.0218
3477.00,0.0218
3476.00,0.0219
3475.00,0.0219
3474.00,0.0220
3473.00,0.0221
3472.00,0.0222
3471.00,0.0223
3470.00,0.0224
3469.00,0.0225
3468.00,0.0226
3467.00,0.0227
3466.00,0.0228
3465.00,0.0228
3464.00,0.0229
3463.00,0.0230
3462.00,0.0231
3461.00,0.0232
3460.00,0.0234
3459.00,0.0235
3458.00,0.0237
3457.00,0.0239
3456.00,0.0240
3455.00,0.0240
3454.00,0.0240
3453.00,0.0240
3452.00,0.0241
3451.00,0.0241
3450.00,0.0242
3449.00,0.0243
3448.00,0.0244
3447.00,0.0245
3446.00,0.0246
3445.00,0.0247
3444.00,0.0247
3443.00,0.0248
3442.00,0.0249
3441.00,0.0250
3440.00,0.0251
3439.00,0.0252
3438.00,0.0253
3437.00,0.0254
3436.00,0.0255
3435.00,0.0256
3434.00,0.0257
3433.00,0.0258
3432.00,0.0259
3431.00,0.0260
3430.00,0.0262
3429.00,0.0263
3428.00,0.0264
3427.00,0.0265
3426.00,0.0266
3425.00,0.0267
3424.00,0.0268
3423.00,0.0269
3422.00,0.0270
3421.00,0.0271
3420.00,0.0273
3419.00,0.0274
3418.00,0.0275
3417.00,0.0276
3416.00,0.0277
3415.00,0.0278
3414.00,0.0279
3413.00,0.0280
3412.00,0.0281
3411.00,0.0282
3410.00,0.0283
3409.00,0.0284
3408.00,0.0285
3407.00,0.0286
3406.00,0.0287
3405.00,0.0288
3404.00,0.0289
3403.00,0.0290
3402.00,0.0291
3401.00,0.0293
3400.00,0.0294
3399.00,0.0296
3398.00,0.0297
3397.00,0.0298
3396.00,0.0298
3395.00,0.0299
3394.00,0.0300
3393.00,0.0301
3392.00,0.0302
3391.00,0.0304
3390.00,0.0305
3389.00,0.0306
3388.00,0.0307
3387.00,0.0309
3386.00,0.0310
3385.00,0.0311
3384.00,0.0312
3383.00,0.0313
3382.00,0.0314
3381.00,0.0315
3380.00,0.0316
3379.00,0.0318
3378.00,0.0319
3377.00,0.0320
3376.00,0.0322
3375.00,0.0323
3374.00,0.0325
3373.00,0.0326
3372.00,0.0327
3371.00,0.0328
3370.00,0.0330
3369.00,0.0331
3368.00,0.0333
3367.00,0.0335
3366.00,0.0336
3365.00,0.0338
3364.00,0.0340
3363.00,0.0342
3362.00,0.0344
3361.00,0.0346
3360.00,0.0348
3359.00,0.0350
3358.00,0.0351
3357.00,0.0353
3356.00,0.0354
3355.00,0.0356
3354.00,0.0358
3353.00,0.0360
3352.00,0.0362
3351.00,0.0364
3350.00,0.0366
3349.00,0.0368
3348.00,0.0371
3347.00,0.0373
3346.00,0.0375
3345.00,0.0377
3344.00,0.0379
3343.00,0.0382
3342.00,0.0384
3341.00,0.0386
3340.00,0.0389
3339.00,0.0391
3338.00,0.0394
3337.00,0.0397
3336.00,0.0399
3335.00,0.0402
3334.00,0.0404
3333.00,0.0406
3332.00,0.0408
3331.00,0.0411
3330.00,0.0414
3329.00,0.0416
3328.00,0.0419
3327.00,0.0422
3326.00,0.0424
3325.00,0.0427
3324.00,0.0430
3323.00,0.0433
3322.00,0.0436
3321.00,0.0439
3320.00,0.0442
3319.00,0.0445
3318.00,0.0448
3317.00,0.0451
3316.00,0.0453
3315.00,0.0456
3314.00,0.0460
3313.00,0.0463
3312.00,0.0466
3311.00,0.0468
3310.00,0.0471
3309.00,0.0474
3308.00,0.0477
3307.00,0.0480
3306.00,0.0483
3305.00,0.0486
3304.00,0.0489
3303.00,0.0493
3302.00,0.0496
3301.00,0.0499
3300.00,0.0502
3299.00,0.0505
3298.00,0.0507
3297.00,0.0510
3296.00,0.0513
3295.00,0.0516
3294.00,0.0518
3293.00,0.0520
3292.00,0.0523
3291.00,0.0525
3290.00,0.0527
3289.00,0.0530
3288.00,0.0531
3287.00,0.0533
3286.00,0.0535
3285.00,0.0537
3284.00,0.0538
3283.00,0.0540
3282.00,0.0540
3281.00,0.0541
3280.00,0.0541
3279.00,0.0541
3278.00,0.0541
3277.00,0.0541
3276.00,0.0541
3275.00,0.0541
3274.00,0.0540
3273.00,0.0539
3272.00,0.0538
3271.00,0.0536
3270.00,0.0535
3269.00,0.0534
3268.00,0.0532
3267.00,0.0530
3266.00,0.0528
3265.00,0.0525
3264.00,0.0523
3263.00,0.0520
3262.00,0.0517
3261.00,0.0515
3260.00,0.0512
3259.00,0.0509
3258.00,0.0506
3257.00,0.0503
3256.00,0.0500
3255.00,0.0497
3254.00,0.0494
3253.00,0.0492
3252.00,0.0489
3251.00,0.0487
3250.00,0.0484
3249.00,0.0481
3248.00,0.0478
3247.00,0.0475
3246.00,0.0472
3245.00,0.0470
3244.00,0.0468
3243.00,0.0466
3242.00,0.0464
3241.00,0.0461
3240.00,0.0458
3239.00,0.0455
3238.00,0.0453
3237.00,0.0450
3236.00,0.0448
3235.00,0.0446
3234.00,0.0444
3233.00,0.0442
3232.00,0.0440
3231.00,0.0439
3230.00,0.0437
3229.00,0.0435
3228.00,0.0433
3227.00,0.0432
3226.00,0.0430
3225.00,0.0429
3224.00,0.0427
3223.00,0.0425
3222.00,0.0423
3221.00,0.0421
3220.00,0.0419
3219.00,0.0418
3218.00,0.0417
3217.00,0.0416
3216.00,0.0414
3215.00,0.0413
3214.00,0.0412
3213.00,0.0410
3212.00,0.0409
3211.00,0.0408
3210.00,0.0406
3209.00,0.0405
3208.00,0.0403
3207.00,0.0401
3206.00,0.0400
3205.00,0.0398
3204.00,0.0397
3203.00,0.0396
3202.00,0.0394
3201.00,0.0393
3200.00,0.0391
3199.00,0.0390
3198.00,0.0389
3197.00,0.0387
3196.00,0.0386
3195.00,0.0384
3194.00,0.0383
3193.00,0.0381
3192.00,0.0379
3191.00,0.0377
3190.00,0.0375
3189.00,0.0374
3188.00,0.0372
3187.00,0.0371
3186.00,0.0369
3185.00,0.0367
3184.00,0.0365
3183.00,0.0364
3182.00,0.0362
3181.00,0.0360
3180.00,0.0358
3179.00,0.0357
3178.00,0.0355
3177.00,0.0353
3176.00,0.0352
3175.00,0.0350
3174.00,0.0349
3173.00,0.0346
3172.00,0.0344
3171.00,0.0342
3170.00,0.0340
3169.00,0.0339
3168.00,0.0337
3167.00,0.0335
3166.00,0.0333
3165.00,0.0332
3164.00,0.0330
3163.00,0.0328
3162.00,0.0326
3161.00,0.0324
3160.00,0.0323
3159.00,0.0321
3158.00,0.0319
3157.00,0.0318
3156.00,0.0316
3155.00,0.0315
3154.00,0.0313
3153.00,0.0312
3152.00,0.0311
3151.00,0.0309
3150.00,0.0308
3149.00,0.0307
3148.00,0.0306
3147.00,0.0305
3146.00,0.0303
3145.00,0.0302
3144.00,0.0301
3143.00,0.0300
3142.00,0.0299
3141.00,0.0297
3140.00,0.0296
3139.00,0.0295
3138.00,0.0293
3137.00,0.0292
3136.00,0.0291
3135.00,0.0290
3134.00,0.0289
3133.00,0.0288
3132.00,0.0287
3131.00,0.0287
3130.00,0.0286
3129.00,0.0286
3128.00,0.0285
3127.00,0.0284
3126.00,0.0283
3125.00,0.0282
3124.00,0.0281
3123.00,0.0280
3122.00,0.0280
3121.00,0.0279
3120.00,0.0278
3119.00,0.0278
3118.00,0.0278
3117.00,0.0278
3116.00,0.0277
3115.00,0.0277
3114.00,0.0277
3113.00,0.0277
3112.00,0.0276
3111.00,0.0276
3110.00,0.0277
3109.00,0.0277
3108.00,0.0277
3107.00,0.0277
3106.00,0.0277
3105.00,0.0278
3104.00,0.0278
3103.00,0.0278
3102.00,0.0278
3101.00,0.0279
3100.00,0.0279
3099.00,0.0279
3098.00,0.0280
3097.00,0.0280
3096.00,0.0280
3095.00,0.0280
3094.00,0.0281
3093.00,0.0281
3092.00,0.0281
3091.00,0.0281
3090.00,0.0282
3089.00,0.0282
3088.00,0.0282
3087.00,0.0283
3086.00,0.0284
3085.00,0.0284
3084.00,0.0285
3083.00,0.0285
3082.00,0.0284
3081.00,0.0284
3080.00,0.0284
3079.00,0.0284
3078.00,0.0285
3077.00,0.0286
3076.00,0.0286
3075.00,0.0287
3074.00,0.0288
3073.00,0.0288
3072.00,0.0288
3071.00,0.0288
3070.00,0.0288
3069.00,0.0287
3068.00,0.0287
3067.00,0.0287
3066.00,0.0287
3065.00,0.0287
3064.00,0.0287
3063.00,0.0288
3062.00,0.0288
3061.00,0.0287
3060.00,0.0287
3059.00,0.0286
3058.00,0.0285
3057.00,0.0284
3056.00,0.0283
3055.00,0.0282
3054.00,0.0281
3053.00,0.0280
3052.00,0.0279
3051.00,0.0279
3050.00,0.0278
3049.00,0.0277
3048.00,0.0277
3047.00,0.0276
3046.00,0.0275
3045.00,0.0273
3044.00,0.0272
3043.00,0.0271
3042.00,0.0270
3041.00,0.0270
3040.00,0.0269
3039.00,0.0268
3038.00,0.0266
3037.00,0.0265
3036.00,0.0264
3035.00,0.0263
3034.00,0.0262
3033.00,0.0261
3032.00,0.0260
3031.00,0.0260
3030.00,0.0259
3029.00,0.0258
3028.00,0.0258
3027.00,0.0257
3026.00,0.0255
3025.00,0.0254
3024.00,0.0253
3023.00,0.0251
3022.00,0.0250
3021.00,0.0248
3020.00,0.0247
3019.00,0.0245
3018.00,0.0243
3017.00,0.0242
3016.00,0.0242
3015.00,0.0241
3014.00,0.0241
3013.00,0.0241
3012.00,0.0240
3011.00,0.0240
3010.00,0.0240
3009.00,0.0240
3008.00,0.0240
3007.00,0.0240
3006.00,0.0240
3005.00,0.0239
3004.00,0.0239
3003.00,0.0240
3002.00,0.0240
3001.00,0.0240
3000.00,0.0240
2999.00,0.0240
2998.00,0.0241
2997.00,0.0241
2996.00,0.0242
2995.00,0.0243
2994.00,0.0244
2993.00,0.0246
2992.00,0.0247
2991.00,0.0249
2990.00,0.0250
2989.00,0.0252
2988.00,0.0254
2987.00,0.0256
2986.00,0.0257
2985.00,0.0259
2984.00,0.0260
2983.00,0.0262
2982.00,0.0263
2981.00,0.0265
2980.00,0.0267
2979.00,0.0268
2978.00,0.0270
2977.00,0.0271
2976.00,0.0273
2975.00,0.0275
2974.00,0.0276
2973.00,0.0278
2972.00,0.0280
2971.00,0.0281
2970.00,0.0283
2969.00,0.0284
2968.00,0.0285
2967.00,0.0287
2966.00,0.0288
2965.00,0.0288
2964.00,0.0289
2963.00,0.0289
2962.00,0.0290
2961.00,0.0290
2960.00,0.0290
2959.00,0.0290
2958.00,0.0290
2957.00,0.0289
2956.00,0.0288
2955.00,0.0287
2954.00,0.0286
2953.00,0.0286
2952.00,0.0285
2951.00,0.0284
2950.00,0.0284
2949.00,0.0284
2948.00,0.0284
2947.00,0.0285
2946.00,0.0285
2945.00,0.0287
2944.00,0.0288
2943.00,0.0290
2942.00,0.0292
2941.00,0.0294
2940.00,0.0297
2939.00,0.0299
2938.00,0.0301
2937.00,0.0303
2936.00,0.0305
2935.00,0.0307
2934.00,0.0309
2933.00,0.0310
2932.00,0.0311
2931.00,0.0312
2930.00,0.0314
2929.00,0.0315
2928.00,0.0317
2927.00,0.0318
2926.00,0.0320
2925.00,0.0322
2924.00,0.0324
2923.00,0.0327
2922.00,0.0329
2921.00,0.0332
2920.00,0.0334
2919.00,0.0335
2918.00,0.0334
2917.00,0.0333
2916.00,0.0329
2915.00,0.0324
2914.00,0.0317
2913.00,0.0310
2912.00,0.0303
2911.00,0.0296
2910.00,0.0291
2909.00,0.0286
2908.00,0.0282
2907.00,0.0279
2906.00,0.0276
2905.00,0.0274
2904.00,0.0272
2903.00,0.0270
2902.00,0.0268
2901.00,0.0267
2900.00,0.0265
2899.00,0.0264
2898.00,0.0263
2897.00,0.0261
2896.00,0.0261
2895.00,0.0260
2894.00,0.0259
2893.00,0.0258
2892.00,0.0257
2891.00,0.0257
2890.00,0.0256
2889.00,0.0256
2888.00,0.0256
2887.00,0.0255
2886.00,0.0255
2885.00,0.0256
2884.00,0.0256
2883.00,0.0256
2882.00,0.0257
2881.00,0.0257
2880.00,0.0258
2879.00,0.0258
2878.00,0.0258
2877.00,0.0259
2876.00,0.0259
2875.00,0.0258
2874.00,0.0258
2873.00,0.0258
2872.00,0.0257
2871.00,0.0255
2870.00,0.0254
2869.00,0.0252
2868.00,0.0250
2867.00,0.0248
2866.00,0.0247
2865.00,0.0245
2864.00,0.0244
2863.00,0.0243
2862.00,0.0242
2861.00,0.0241
2860.00,0.0242
2859.00,0.0243
2858.00,0.0244
2857.00,0.0246
2856.00,0.0248
2855.00,0.0251
2854.00,0.0254
2853.00,0.0257
2852.00,0.0261
2851.00,0.0263
2850.00,0.0264
2849.00,0.0262
2848.00,0.0258
2847.00,0.0252
2846.00,0.0246
2845.00,0.0240
2844.00,0.0235
2843.00,0.0230
2842.00,0.0226
2841.00,0.0224
2840.00,0.0221
2839.00,0.0219
2838.00,0.0217
2837.00,0.0216
2836.00,0.0215
2835.00,0.0213
2834.00,0.0212
2833.00,0.0212
2832.00,0.0211
2831.00,0.0210
2830.00,0.0209
2829.00,0.0209
2828.00,0.0208
2827.00,0.0207
2826.00,0.0207
2825.00,0.0206
2824.00,0.0206
2823.00,0.0205
2822.00,0.0205
2821.00,0.0205
2820.00,0.0204
2819.00,0.0204
2818.00,0.0203
2817.00,0.0203
2816.00,0.0202
2815.00,0.0201
2814.00,0.0201
2813.00,0.0200
2812.00,0.0200
2811.00,0.0199
2810.00,0.0199
2809.00,0.0199
2808.00,0.0199
2807.00,0.0198
2806.00,0.0198
2805.00,0.0198
2804.00,0.0197
2803.00,0.0197
2802.00,0.0197
2801.00,0.0196
2800.00,0.0196
2799.00,0.0195
2798.00,0.0195
2797.00,0.0194
2796.00,0.0194
2795.00,0.0194
2794.00,0.0193
2793.00,0.0193
2792.00,0.0193
2791.00,0.0192
2790.00,0.0192
2789.00,0.0192
2788.00,0.0191
2787.00,0.0191
2786.00,0.0191
2785.00,0.0190
2784.00,0.0190
2783.00,0.0190
2782.00,0.0189
2781.00,0.0189
2780.00,0.0189
2779.00,0.0189
2778.00,0.0188
2777.00,0.0188
2776.00,0.0188
2775.00,0.0187
2774.00,0.0187
2773.00,0.0186
2772.00,0.0186
2771.00,0.0186
2770.00,0.0185
2769.00,0.0185
2768.00,0.0185
2767.00,0.0184
2766.00,0.0184
2765.00,0.0183
2764.00,0.0183
2763.00,0.0183
2762.00,0.0183
2761.00,0.0183
2760.00,0.0183
2759.00,0.0182
2758.00,0.0182
2757.00,0.0182
