Created as New Dataset,Sample 667 By YargerLab Date Wednesday, June 11 2025
cm-1,A
4000.00,0.0033
3999.00,0.0033
3998.00,0.0033
3997.00,0.0033
3996.00,0.0032
3995.00,0.0032
3994.00,0.0032
3993.00,0.0032
3992.00,0.0032
3991.00,0.0033
3990.00,0.0034
3989.00,0.0034
3988.00,0.0035
3987.00,0.0034
3986.00,0.0034
3985.00,0.0034
3984.00,0.0033
3983.00,0.0033
3982.00,0.0033
3981.00,0.0033
3980.00,0.0034
3979.00,0.0034
3978.00,0.0034
3977.00,0.0034
3976.00,0.0033
3975.00,0.0033
3974.00,0.0033
3973.00,0.0033
3972.00,0.0033
3971.00,0.0034
3970.00,0.0034
3969.00,0.0034
3968.00,0.0034
3967.00,0.0034
3966.00,0.0034
3965.00,0.0033
3964.00,0.0033
3963.00,0.0033
3962.00,0.0033
3961.00,0.0032
3960.00,0.0032
3959.00,0.0032
3958.00,0.0032
3957.00,0.0032
3956.00,0.0032
3955.00,0.0032
3954.00,0.0032
3953.00,0.0032
3952.00,0.0032
3951.00,0.0032
3950.00,0.0033
3949.00,0.0033
3948.00,0.0033
3947.00,0.0033
3946.00,0.0032
3945.00,0.0031
3944.00,0.0030
3943.00,0.0030
3942.00,0.0031
3941.00,0.0032
3940.00,0.0032
3939.00,0.0032
3938.00,0.0032
3937.00,0.0032
3936.00,0.0032
3935.00,0.0032
3934.00,0.0032
3933.00,0.0032
3932.00,0.0033
3931.00,0.0033
3930.00,0.0033
3929.00,0.0033
3928.00,0.0033
3927.00,0.0032
3926.00,0.0032
3925.00,0.0032
3924.00,0.0032
3923.00,0.0032
3922.00,0.0033
3921.00,0.0033
3920.00,0.0033
3919.00,0.0032
3918.00,0.0032
3917.00,0.0032
3916.00,0.0032
3915.00,0.0032
3914.00,0.0033
3913.00,0.0033
3912.00,0.0033
3911.00,0.0034
3910.00,0.0034
3909.00,0.0034
3908.00,0.0034
3907.00,0.0034
3906.00,0.0033
3905.00,0.0032
3904.00,0.0031
3903.00,0.0030
3902.00,0.0029
3901.00,0.0029
3900.00,0.0030
3899.00,0.0031
3898.00,0.0032
3897.00,0.0032
3896.00,0.0032
3895.00,0.0031
3894.00,0.0031
3893.00,0.0030
3892.00,0.0030
3891.00,0.0031
3890.00,0.0031
3889.00,0.0031
3888.00,0.0031
3887.00,0.0030
3886.00,0.0030
3885.00,0.0029
3884.00,0.0030
3883.00,0.0030
3882.00,0.0030
3881.00,0.0031
3880.00,0.0032
3879.00,0.0033
3878.00,0.0033
3877.00,0.0034
3876.00,0.0033
3875.00,0.0033
3874.00,0.0032
3873.00,0.0032
3872.00,0.0033
3871.00,0.0033
3870.00,0.0033
3869.00,0.0033
3868.00,0.0032
3867.00,0.0032
3866.00,0.0032
3865.00,0.0032
3864.00,0.0032
3863.00,0.0032
3862.00,0.0033
3861.00,0.0033
3860.00,0.0033
3859.00,0.0033
3858.00,0.0032
3857.00,0.0032
3856.00,0.0031
3855.00,0.0029
3854.00,0.0028
3853.00,0.0028
3852.00,0.0029
3851.00,0.0030
3850.00,0.0031
3849.00,0.0032
3848.00,0.0032
3847.00,0.0031
3846.00,0.0031
3845.00,0.0031
3844.00,0.0031
3843.00,0.0031
3842.00,0.0031
3841.00,0.0031
3840.00,0.0032
3839.00,0.0032
3838.00,0.0031
3837.00,0.0031
3836.00,0.0031
3835.00,0.0032
3834.00,0.0033
3833.00,0.0034
3832.00,0.0035
3831.00,0.0035
3830.00,0.0034
3829.00,0.0033
3828.00,0.0032
3827.00,0.0032
3826.00,0.0033
3825.00,0.0033
3824.00,0.0033
3823.00,0.0032
3822.00,0.0032
3821.00,0.0031
3820.00,0.0030
3819.00,0.0030
3818.00,0.0030
3817.00,0.0029
3816.00,0.0029
3815.00,0.0028
3814.00,0.0029
3813.00,0.0030
3812.00,0.0031
3811.00,0.0032
3810.00,0.0032
3809.00,0.0032
3808.00,0.0031
3807.00,0.0030
3806.00,0.0030
3805.00,0.0030
3804.00,0.0031
3803.00,0.0032
3802.00,0.0032
3801.00,0.0033
3800.00,0.0033
3799.00,0.0034
3798.00,0.0033
3797.00,0.0032
3796.00,0.0031
3795.00,0.0031
3794.00,0.0030
3793.00,0.0031
3792.00,0.0031
3791.00,0.0032
3790.00,0.0033
3789.00,0.0033
3788.00,0.0033
3787.00,0.0033
3786.00,0.0032
3785.00,0.0032
3784.00,0.0032
3783.00,0.0031
3782.00,0.0032
3781.00,0.0032
3780.00,0.0033
3779.00,0.0033
3778.00,0.0034
3777.00,0.0034
3776.00,0.0034
3775.00,0.0034
3774.00,0.0033
3773.00,0.0033
3772.00,0.0033
3771.00,0.0034
3770.00,0.0035
3769.00,0.0035
3768.00,0.0035
3767.00,0.0034
3766.00,0.0033
3765.00,0.0032
3764.00,0.0032
3763.00,0.0031
3762.00,0.0031
3761.00,0.0031
3760.00,0.0030
3759.00,0.0031
3758.00,0.0031
3757.00,0.0032
3756.00,0.0032
3755.00,0.0032
3754.00,0.0032
3753.00,0.0032
3752.00,0.0032
3751.00,0.0032
3750.00,0.0031
3749.00,0.0030
3748.00,0.0029
3747.00,0.0028
3746.00,0.0028
3745.00,0.0028
3744.00,0.0029
3743.00,0.0030
3742.00,0.0031
3741.00,0.0031
3740.00,0.0032
3739.00,0.0032
3738.00,0.0032
3737.00,0.0032
3736.00,0.0031
3735.00,0.0030
3734.00,0.0028
3733.00,0.0027
3732.00,0.0028
3731.00,0.0029
3730.00,0.0030
3729.00,0.0031
3728.00,0.0032
3727.00,0.0033
3726.00,0.0032
3725.00,0.0031
3724.00,0.0030
3723.00,0.0029
3722.00,0.0029
3721.00,0.0029
3720.00,0.0029
3719.00,0.0030
3718.00,0.0030
3717.00,0.0030
3716.00,0.0031
3715.00,0.0031
3714.00,0.0032
3713.00,0.0032
3712.00,0.0032
3711.00,0.0032
3710.00,0.0031
3709.00,0.0031
3708.00,0.0031
3707.00,0.0031
3706.00,0.0031
3705.00,0.0031
3704.00,0.0031
3703.00,0.0030
3702.00,0.0030
3701.00,0.0030
3700.00,0.0031
3699.00,0.0032
3698.00,0.0033
3697.00,0.0033
3696.00,0.0032
3695.00,0.0031
3694.00,0.0031
3693.00,0.0030
3692.00,0.0030
3691.00,0.0030
3690.00,0.0029
3689.00,0.0029
3688.00,0.0028
3687.00,0.0028
3686.00,0.0029
3685.00,0.0029
3684.00,0.0029
3683.00,0.0029
3682.00,0.0029
3681.00,0.0029
3680.00,0.0030
3679.00,0.0032
3678.00,0.0033
3677.00,0.0033
3676.00,0.0032
3675.00,0.0031
3674.00,0.0030
3673.00,0.0029
3672.00,0.0028
3671.00,0.0028
3670.00,0.0028
3669.00,0.0030
3668.00,0.0031
3667.00,0.0033
3666.00,0.0033
3665.00,0.0032
3664.00,0.0032
3663.00,0.0031
3662.00,0.0031
3661.00,0.0032
3660.00,0.0032
3659.00,0.0033
3658.00,0.0033
3657.00,0.0034
3656.00,0.0034
3655.00,0.0034
3654.00,0.0033
3653.00,0.0032
3652.00,0.0031
3651.00,0.0029
3650.00,0.0028
3649.00,0.0028
3648.00,0.0030
3647.00,0.0032
3646.00,0.0033
3645.00,0.0034
3644.00,0.0033
3643.00,0.0032
3642.00,0.0031
3641.00,0.0031
3640.00,0.0031
3639.00,0.0032
3638.00,0.0032
3637.00,0.0032
3636.00,0.0032
3635.00,0.0033
3634.00,0.0033
3633.00,0.0034
3632.00,0.0035
3631.00,0.0035
3630.00,0.0035
3629.00,0.0035
3628.00,0.0035
3627.00,0.0035
3626.00,0.0035
3625.00,0.0036
3624.00,0.0036
3623.00,0.0037
3622.00,0.0038
3621.00,0.0039
3620.00,0.0038
3619.00,0.0036
3618.00,0.0034
3617.00,0.0034
3616.00,0.0034
3615.00,0.0034
3614.00,0.0034
3613.00,0.0033
3612.00,0.0032
3611.00,0.0032
3610.00,0.0033
3609.00,0.0033
3608.00,0.0034
3607.00,0.0035
3606.00,0.0036
3605.00,0.0036
3604.00,0.0037
3603.00,0.0037
3602.00,0.0038
3601.00,0.0038
3600.00,0.0038
3599.00,0.0038
3598.00,0.0038
3597.00,0.0037
3596.00,0.0037
3595.00,0.0036
3594.00,0.0036
3593.00,0.0036
3592.00,0.0036
3591.00,0.0036
3590.00,0.0036
3589.00,0.0037
3588.00,0.0037
3587.00,0.0038
3586.00,0.0038
3585.00,0.0038
3584.00,0.0038
3583.00,0.0038
3582.00,0.0039
3581.00,0.0040
3580.00,0.0041
3579.00,0.0041
3578.00,0.0041
3577.00,0.0042
3576.00,0.0043
3575.00,0.0043
3574.00,0.0043
3573.00,0.0043
3572.00,0.0042
3571.00,0.0042
3570.00,0.0042
3569.00,0.0042
3568.00,0.0041
3567.00,0.0040
3566.00,0.0040
3565.00,0.0041
3564.00,0.0042
3563.00,0.0044
3562.00,0.0044
3561.00,0.0045
3560.00,0.0045
3559.00,0.0045
3558.00,0.0045
3557.00,0.0046
3556.00,0.0047
3555.00,0.0048
3554.00,0.0048
3553.00,0.0048
3552.00,0.0047
3551.00,0.0047
3550.00,0.0047
3549.00,0.0047
3548.00,0.0048
3547.00,0.0049
3546.00,0.0049
3545.00,0.0048
3544.00,0.0048
3543.00,0.0048
3542.00,0.0049
3541.00,0.0050
3540.00,0.0051
3539.00,0.0052
3538.00,0.0052
3537.00,0.0053
3536.00,0.0053
3535.00,0.0053
3534.00,0.0053
3533.00,0.0052
3532.00,0.0052
3531.00,0.0052
3530.00,0.0052
3529.00,0.0052
3528.00,0.0052
3527.00,0.0052
3526.00,0.0052
3525.00,0.0052
3524.00,0.0052
3523.00,0.0053
3522.00,0.0055
3521.00,0.0057
3520.00,0.0059
3519.00,0.0059
3518.00,0.0058
3517.00,0.0057
3516.00,0.0056
3515.00,0.0055
3514.00,0.0055
3513.00,0.0055
3512.00,0.0055
3511.00,0.0055
3510.00,0.0055
3509.00,0.0055
3508.00,0.0055
3507.00,0.0055
3506.00,0.0055
3505.00,0.0056
3504.00,0.0057
3503.00,0.0057
3502.00,0.0057
3501.00,0.0057
3500.00,0.0057
3499.00,0.0057
3498.00,0.0057
3497.00,0.0057
3496.00,0.0057
3495.00,0.0058
3494.00,0.0059
3493.00,0.0060
3492.00,0.0060
3491.00,0.0061
3490.00,0.0061
3489.00,0.0061
3488.00,0.0062
3487.00,0.0062
3486.00,0.0063
3485.00,0.0063
3484.00,0.0063
3483.00,0.0062
3482.00,0.0062
3481.00,0.0063
3480.00,0.0064
3479.00,0.0065
3478.00,0.0065
3477.00,0.0065
3476.00,0.0064
3475.00,0.0064
3474.00,0.0064
3473.00,0.0065
3472.00,0.0065
3471.00,0.0066
3470.00,0.0066
3469.00,0.0066
3468.00,0.0066
3467.00,0.0066
3466.00,0.0066
3465.00,0.0066
3464.00,0.0067
3463.00,0.0068
3462.00,0.0068
3461.00,0.0069
3460.00,0.0069
3459.00,0.0069
3458.00,0.0070
3457.00,0.0070
3456.00,0.0070
3455.00,0.0071
3454.00,0.0071
3453.00,0.0072
3452.00,0.0072
3451.00,0.0072
3450.00,0.0072
3449.00,0.0073
3448.00,0.0073
3447.00,0.0073
3446.00,0.0073
3445.00,0.0074
3444.00,0.0075
3443.00,0.0076
3442.00,0.0076
3441.00,0.0076
3440.00,0.0075
3439.00,0.0074
3438.00,0.0074
3437.00,0.0073
3436.00,0.0073
3435.00,0.0074
3434.00,0.0075
3433.00,0.0075
3432.00,0.0076
3431.00,0.0076
3430.00,0.0076
3429.00,0.0077
3428.00,0.0078
3427.00,0.0079
3426.00,0.0079
3425.00,0.0080
3424.00,0.0080
3423.00,0.0080
3422.00,0.0080
3421.00,0.0079
3420.00,0.0079
3419.00,0.0080
3418.00,0.0080
3417.00,0.0080
3416.00,0.0080
3415.00,0.0081
3414.00,0.0081
3413.00,0.0081
3412.00,0.0082
3411.00,0.0082
3410.00,0.0083
3409.00,0.0083
3408.00,0.0083
3407.00,0.0083
3406.00,0.0083
3405.00,0.0084
3404.00,0.0084
3403.00,0.0084
3402.00,0.0084
3401.00,0.0084
3400.00,0.0085
3399.00,0.0086
3398.00,0.0087
3397.00,0.0087
3396.00,0.0088
3395.00,0.0088
3394.00,0.0088
3393.00,0.0089
3392.00,0.0089
3391.00,0.0089
3390.00,0.0089
3389.00,0.0089
3388.00,0.0089
3387.00,0.0089
3386.00,0.0089
3385.00,0.0089
3384.00,0.0089
3383.00,0.0089
3382.00,0.0088
3381.00,0.0088
3380.00,0.0088
3379.00,0.0089
3378.00,0.0090
3377.00,0.0092
3376.00,0.0093
3375.00,0.0094
3374.00,0.0094
3373.00,0.0093
3372.00,0.0092
3371.00,0.0091
3370.00,0.0091
3369.00,0.0092
3368.00,0.0093
3367.00,0.0093
3366.00,0.0094
3365.00,0.0095
3364.00,0.0096
3363.00,0.0096
3362.00,0.0097
3361.00,0.0097
3360.00,0.0098
3359.00,0.0098
3358.00,0.0098
3357.00,0.0097
3356.00,0.0097
3355.00,0.0097
3354.00,0.0098
3353.00,0.0099
3352.00,0.0101
3351.00,0.0103
3350.00,0.0104
3349.00,0.0104
3348.00,0.0103
3347.00,0.0102
3346.00,0.0101
3345.00,0.0101
3344.00,0.0101
3343.00,0.0102
3342.00,0.0103
3341.00,0.0103
3340.00,0.0103
3339.00,0.0104
3338.00,0.0105
3337.00,0.0106
3336.00,0.0107
3335.00,0.0108
3334.00,0.0109
3333.00,0.0110
3332.00,0.0111
3331.00,0.0111
3330.00,0.0112
3329.00,0.0112
3328.00,0.0112
3327.00,0.0113
3326.00,0.0114
3325.00,0.0116
3324.00,0.0117
3323.00,0.0117
3322.00,0.0118
3321.00,0.0118
3320.00,0.0118
3319.00,0.0120
3318.00,0.0122
3317.00,0.0124
3316.00,0.0125
3315.00,0.0126
3314.00,0.0127
3313.00,0.0127
3312.00,0.0128
3311.00,0.0128
3310.00,0.0128
3309.00,0.0127
3308.00,0.0127
3307.00,0.0127
3306.00,0.0127
3305.00,0.0129
3304.00,0.0130
3303.00,0.0132
3302.00,0.0134
3301.00,0.0135
3300.00,0.0136
3299.00,0.0137
3298.00,0.0136
3297.00,0.0136
3296.00,0.0136
3295.00,0.0137
3294.00,0.0138
3293.00,0.0139
3292.00,0.0140
3291.00,0.0141
3290.00,0.0141
3289.00,0.0142
3288.00,0.0143
3287.00,0.0144
3286.00,0.0145
3285.00,0.0146
3284.00,0.0146
3283.00,0.0146
3282.00,0.0146
3281.00,0.0146
3280.00,0.0146
3279.00,0.0147
3278.00,0.0147
3277.00,0.0148
3276.00,0.0148
3275.00,0.0148
3274.00,0.0147
3273.00,0.0147
3272.00,0.0146
3271.00,0.0147
3270.00,0.0148
3269.00,0.0150
3268.00,0.0151
3267.00,0.0151
3266.00,0.0151
3265.00,0.0149
3264.00,0.0147
3263.00,0.0145
3262.00,0.0144
3261.00,0.0142
3260.00,0.0141
3259.00,0.0139
3258.00,0.0139
3257.00,0.0138
3256.00,0.0138
3255.00,0.0137
3254.00,0.0137
3253.00,0.0137
3252.00,0.0138
3251.00,0.0138
3250.00,0.0138
3249.00,0.0137
3248.00,0.0136
3247.00,0.0134
3246.00,0.0133
3245.00,0.0132
3244.00,0.0131
3243.00,0.0131
3242.00,0.0131
3241.00,0.0130
3240.00,0.0130
3239.00,0.0130
3238.00,0.0129
3237.00,0.0128
3236.00,0.0128
3235.00,0.0127
3234.00,0.0126
3233.00,0.0125
3232.00,0.0125
3231.00,0.0124
3230.00,0.0124
3229.00,0.0124
3228.00,0.0124
3227.00,0.0124
3226.00,0.0123
3225.00,0.0122
3224.00,0.0121
3223.00,0.0121
3222.00,0.0121
3221.00,0.0121
3220.00,0.0121
3219.00,0.0121
3218.00,0.0120
3217.00,0.0120
3216.00,0.0119
3215.00,0.0119
3214.00,0.0118
3213.00,0.0118
3212.00,0.0118
3211.00,0.0118
3210.00,0.0117
3209.00,0.0116
3208.00,0.0115
3207.00,0.0115
3206.00,0.0115
3205.00,0.0115
3204.00,0.0114
3203.00,0.0114
3202.00,0.0113
3201.00,0.0112
3200.00,0.0112
3199.00,0.0112
3198.00,0.0112
3197.00,0.0113
3196.00,0.0113
3195.00,0.0112
3194.00,0.0111
3193.00,0.0110
3192.00,0.0110
3191.00,0.0110
3190.00,0.0110
3189.00,0.0109
3188.00,0.0109
3187.00,0.0109
3186.00,0.0107
3185.00,0.0106
3184.00,0.0104
3183.00,0.0103
3182.00,0.0103
3181.00,0.0104
3180.00,0.0104
3179.00,0.0103
3178.00,0.0102
3177.00,0.0102
3176.00,0.0101
3175.00,0.0101
3174.00,0.0102
3173.00,0.0102
3172.00,0.0102
3171.00,0.0102
3170.00,0.0101
3169.00,0.0100
3168.00,0.0099
3167.00,0.0098
3166.00,0.0097
3165.00,0.0097
3164.00,0.0096
3163.00,0.0095
3162.00,0.0095
3161.00,0.0094
3160.00,0.0093
3159.00,0.0093
3158.00,0.0093
3157.00,0.0093
3156.00,0.0093
3155.00,0.0092
3154.00,0.0091
3153.00,0.0091
3152.00,0.0091
3151.00,0.0091
3150.00,0.0090
3149.00,0.0090
3148.00,0.0090
3147.00,0.0089
3146.00,0.0089
3145.00,0.0089
3144.00,0.0088
3143.00,0.0087
3142.00,0.0086
3141.00,0.0086
3140.00,0.0086
3139.00,0.0087
3138.00,0.0087
3137.00,0.0087
3136.00,0.0086
3135.00,0.0085
3134.00,0.0084
3133.00,0.0083
3132.00,0.0083
3131.00,0.0083
3130.00,0.0084
3129.00,0.0084
3128.00,0.0084
3127.00,0.0084
3126.00,0.0084
3125.00,0.0083
3124.00,0.0083
3123.00,0.0082
3122.00,0.0081
3121.00,0.0080
3120.00,0.0080
3119.00,0.0080
3118.00,0.0080
3117.00,0.0080
3116.00,0.0080
3115.00,0.0081
3114.00,0.0082
3113.00,0.0083
3112.00,0.0083
3111.00,0.0082
3110.00,0.0082
3109.00,0.0081
3108.00,0.0082
3107.00,0.0082
3106.00,0.0083
3105.00,0.0084
3104.00,0.0084
3103.00,0.0083
3102.00,0.0083
3101.00,0.0084
3100.00,0.0084
3099.00,0.0085
3098.00,0.0086
3097.00,0.0086
3096.00,0.0086
3095.00,0.0086
3094.00,0.0085
3093.00,0.0085
3092.00,0.0085
3091.00,0.0085
3090.00,0.0086
3089.00,0.0086
3088.00,0.0086
3087.00,0.0085
3086.00,0.0084
3085.00,0.0084
3084.00,0.0085
3083.00,0.0085
3082.00,0.0085
3081.00,0.0085
3080.00,0.0085
3079.00,0.0084
3078.00,0.0084
3077.00,0.0084
3076.00,0.0084
3075.00,0.0084
3074.00,0.0085
3073.00,0.0086
3072.00,0.0086
3071.00,0.0086
3070.00,0.0085
3069.00,0.0085
3068.00,0.0085
3067.00,0.0085
3066.00,0.0085
3065.00,0.0085
3064.00,0.0084
3063.00,0.0084
3062.00,0.0084
3061.00,0.0084
3060.00,0.0084
3059.00,0.0084
3058.00,0.0084
3057.00,0.0084
3056.00,0.0084
3055.00,0.0084
3054.00,0.0084
3053.00,0.0083
3052.00,0.0083
3051.00,0.0082
3050.00,0.0082
3049.00,0.0082
3048.00,0.0082
3047.00,0.0081
3046.00,0.0080
3045.00,0.0079
3044.00,0.0079
3043.00,0.0080
3042.00,0.0081
3041.00,0.0081
3040.00,0.0082
3039.00,0.0081
3038.00,0.0080
3037.00,0.0079
3036.00,0.0078
3035.00,0.0077
3034.00,0.0078
3033.00,0.0078
3032.00,0.0078
3031.00,0.0078
3030.00,0.0078
3029.00,0.0077
3028.00,0.0077
3027.00,0.0077
3026.00,0.0076
3025.00,0.0076
3024.00,0.0077
3023.00,0.0077
3022.00,0.0077
3021.00,0.0076
3020.00,0.0075
3019.00,0.0073
3018.00,0.0072
3017.00,0.0071
3016.00,0.0072
3015.00,0.0073
3014.00,0.0074
3013.00,0.0074
3012.00,0.0074
3011.00,0.0074
3010.00,0.0074
3009.00,0.0074
3008.00,0.0074
3007.00,0.0074
3006.00,0.0075
3005.00,0.0076
3004.00,0.0076
3003.00,0.0076
3002.00,0.0075
3001.00,0.0075
3000.00,0.0074
2999.00,0.0074
2998.00,0.0073
2997.00,0.0073
2996.00,0.0073
2995.00,0.0073
2994.00,0.0073
2993.00,0.0074
2992.00,0.0075
2991.00,0.0075
2990.00,0.0076
2989.00,0.0077
2988.00,0.0078
2987.00,0.0078
2986.00,0.0079
2985.00,0.0079
2984.00,0.0079
2983.00,0.0080
2982.00,0.0080
2981.00,0.0081
2980.00,0.0081
2979.00,0.0082
2978.00,0.0082
2977.00,0.0083
2976.00,0.0084
2975.00,0.0085
2974.00,0.0085
2973.00,0.0086
2972.00,0.0086
2971.00,0.0086
2970.00,0.0086
2969.00,0.0087
2968.00,0.0088
2967.00,0.0089
2966.00,0.0090
2965.00,0.0090
2964.00,0.0090
2963.00,0.0090
2962.00,0.0090
2961.00,0.0090
2960.00,0.0090
2959.00,0.0090
2958.00,0.0090
2957.00,0.0090
2956.00,0.0089
2955.00,0.0088
2954.00,0.0088
2953.00,0.0087
2952.00,0.0087
2951.00,0.0087
2950.00,0.0086
2949.00,0.0085
2948.00,0.0084
2947.00,0.0084
2946.00,0.0085
2945.00,0.0086
2944.00,0.0086
2943.00,0.0088
2942.00,0.0089
2941.00,0.0091
2940.00,0.0092
2939.00,0.0092
2938.00,0.0092
2937.00,0.0092
2936.00,0.0092
2935.00,0.0092
2934.00,0.0092
2933.00,0.0091
2932.00,0.0090
2931.00,0.0090
2930.00,0.0090
2929.00,0.0091
2928.00,0.0091
2927.00,0.0091
2926.00,0.0090
2925.00,0.0089
2924.00,0.0088
2923.00,0.0088
2922.00,0.0088
2921.00,0.0087
2920.00,0.0087
2919.00,0.0086
2918.00,0.0084
2917.00,0.0083
2916.00,0.0082
2915.00,0.0081
2914.00,0.0081
2913.00,0.0081
2912.00,0.0081
2911.00,0.0080
2910.00,0.0079
2909.00,0.0079
2908.00,0.0079
2907.00,0.0079
2906.00,0.0080
2905.00,0.0080
2904.00,0.0081
2903.00,0.0081
2902.00,0.0080
2901.00,0.0079
2900.00,0.0078
2899.00,0.0077
2898.00,0.0077
2897.00,0.0077
2896.00,0.0077
2895.00,0.0077
2894.00,0.0077
2893.00,0.0078
2892.00,0.0078
2891.00,0.0078
2890.00,0.0079
2889.00,0.0079
2888.00,0.0079
2887.00,0.0078
2886.00,0.0078
2885.00,0.0079
2884.00,0.0079
2883.00,0.0080
2882.00,0.0081
2881.00,0.0081
2880.00,0.0081
2879.00,0.0081
2878.00,0.0081
2877.00,0.0081
2876.00,0.0080
2875.00,0.0080
2874.00,0.0080
2873.00,0.0079
2872.00,0.0079
2871.00,0.0079
2870.00,0.0079
2869.00,0.0079
2868.00,0.0078
2867.00,0.0077
2866.00,0.0076
2865.00,0.0076
2864.00,0.0076
2863.00,0.0077
2862.00,0.0077
2861.00,0.0077
2860.00,0.0076
2859.00,0.0075
2858.00,0.0074
2857.00,0.0074
2856.00,0.0073
2855.00,0.0072
2854.00,0.0072
2853.00,0.0071
2852.00,0.0070
2851.00,0.0070
2850.00,0.0070
2849.00,0.0070
2848.00,0.0071
2847.00,0.0072
2846.00,0.0072
2845.00,0.0071
2844.00,0.0071
2843.00,0.0070
2842.00,0.0070
2841.00,0.0069
2840.00,0.0069
2839.00,0.0068
2838.00,0.0069
2837.00,0.0069
2836.00,0.0069
2835.00,0.0069
2834.00,0.0070
2833.00,0.0069
2832.00,0.0069
2831.00,0.0069
2830.00,0.0068
2829.00,0.0068
2828.00,0.0068
2827.00,0.0068
2826.00,0.0068
2825.00,0.0067
2824.00,0.0067
2823.00,0.0067
2822.00,0.0067
2821.00,0.0067
2820.00,0.0066
2819.00,0.0066
2818.00,0.0065
2817.00,0.0065
2816.00,0.0065
2815.00,0.0065
2814.00,0.0065
2813.00,0.0066
2812.00,0.0066
2811.00,0.0066
2810.00,0.0067
2809.00,0.0067
2808.00,0.0066
2807.00,0.0066
2806.00,0.0065
2805.00,0.0065
2804.00,0.0065
2803.00,0.0065
2802.00,0.0065
2801.00,0.0065
2800.00,0.0065
2799.00,0.0065
2798.00,0.0064
2797.00,0.0064
2796.00,0.0065
2795.00,0.0065
2794.00,0.0065
2793.00,0.0065
2792.00,0.0065
2791.00,0.0064
2790.00,0.0063
2789.00,0.0063
2788.00,0.0063
2787.00,0.0063
2786.00,0.0064
2785.00,0.0064
2784.00,0.0065
2783.00,0.0064
2782.00,0.0064
2781.00,0.0063
2780.00,0.0063
2779.00,0.0063
2778.00,0.0063
2777.00,0.0063
2776.00,0.0062
2775.00,0.0062
2774.00,0.0062
2773.00,0.0062
2772.00,0.0062
2771.00,0.0062
2770.00,0.0062
2769.00,0.0063
2768.00,0.0063
2767.00,0.0063
2766.00,0.0063
2765.00,0.0063
2764.00,0.0063
2763.00,0.0063
2762.00,0.0063
2761.00,0.0062
2760.00,0.0062
2759.00,0.0061
2758.00,0.0060
2757.00,0.0060
