Created as New Dataset,Sample 468 By YargerLab Date Saturday, March 01 2025
cm-1,A
4000.00,-0.0091
3999.00,-0.0091
3998.00,-0.0091
3997.00,-0.0091
3996.00,-0.0091
3995.00,-0.0091
3994.00,-0.0091
3993.00,-0.0091
3992.00,-0.0091
3991.00,-0.0091
3990.00,-0.0091
3989.00,-0.0091
3988.00,-0.0091
3987.00,-0.0091
3986.00,-0.0091
3985.00,-0.0091
3984.00,-0.0091
3983.00,-0.0091
3982.00,-0.0091
3981.00,-0.0091
3980.00,-0.0091
3979.00,-0.0091
3978.00,-0.0091
3977.00,-0.0091
3976.00,-0.0091
3975.00,-0.0091
3974.00,-0.0091
3973.00,-0.0091
3972.00,-0.0092
3971.00,-0.0092
3970.00,-0.0092
3969.00,-0.0092
3968.00,-0.0092
3967.00,-0.0092
3966.00,-0.0092
3965.00,-0.0092
3964.00,-0.0092
3963.00,-0.0092
3962.00,-0.0092
3961.00,-0.0092
3960.00,-0.0092
3959.00,-0.0092
3958.00,-0.0092
3957.00,-0.0092
3956.00,-0.0092
3955.00,-0.0092
3954.00,-0.0092
3953.00,-0.0092
3952.00,-0.0093
3951.00,-0.0092
3950.00,-0.0092
3949.00,-0.0092
3948.00,-0.0092
3947.00,-0.0092
3946.00,-0.0092
3945.00,-0.0092
3944.00,-0.0092
3943.00,-0.0092
3942.00,-0.0092
3941.00,-0.0092
3940.00,-0.0093
3939.00,-0.0093
3938.00,-0.0093
3937.00,-0.0094
3936.00,-0.0094
3935.00,-0.0094
3934.00,-0.0093
3933.00,-0.0093
3932.00,-0.0093
3931.00,-0.0093
3930.00,-0.0093
3929.00,-0.0093
3928.00,-0.0093
3927.00,-0.0093
3926.00,-0.0093
3925.00,-0.0094
3924.00,-0.0094
3923.00,-0.0094
3922.00,-0.0094
3921.00,-0.0094
3920.00,-0.0094
3919.00,-0.0094
3918.00,-0.0094
3917.00,-0.0094
3916.00,-0.0094
3915.00,-0.0094
3914.00,-0.0094
3913.00,-0.0094
3912.00,-0.0094
3911.00,-0.0094
3910.00,-0.0094
3909.00,-0.0094
3908.00,-0.0095
3907.00,-0.0095
3906.00,-0.0095
3905.00,-0.0095
3904.00,-0.0095
3903.00,-0.0096
3902.00,-0.0096
3901.00,-0.0096
3900.00,-0.0096
3899.00,-0.0096
3898.00,-0.0096
3897.00,-0.0095
3896.00,-0.0096
3895.00,-0.0096
3894.00,-0.0096
3893.00,-0.0096
3892.00,-0.0096
3891.00,-0.0096
3890.00,-0.0096
3889.00,-0.0096
3888.00,-0.0095
3887.00,-0.0095
3886.00,-0.0095
3885.00,-0.0095
3884.00,-0.0096
3883.00,-0.0096
3882.00,-0.0096
3881.00,-0.0096
3880.00,-0.0096
3879.00,-0.0096
3878.00,-0.0096
3877.00,-0.0096
3876.00,-0.0096
3875.00,-0.0096
3874.00,-0.0096
3873.00,-0.0097
3872.00,-0.0097
3871.00,-0.0097
3870.00,-0.0097
3869.00,-0.0097
3868.00,-0.0098
3867.00,-0.0098
3866.00,-0.0098
3865.00,-0.0098
3864.00,-0.0098
3863.00,-0.0097
3862.00,-0.0097
3861.00,-0.0097
3860.00,-0.0097
3859.00,-0.0097
3858.00,-0.0097
3857.00,-0.0097
3856.00,-0.0098
3855.00,-0.0098
3854.00,-0.0098
3853.00,-0.0097
3852.00,-0.0097
3851.00,-0.0098
3850.00,-0.0098
3849.00,-0.0098
3848.00,-0.0098
3847.00,-0.0098
3846.00,-0.0098
3845.00,-0.0099
3844.00,-0.0099
3843.00,-0.0099
3842.00,-0.0099
3841.00,-0.0099
3840.00,-0.0099
3839.00,-0.0099
3838.00,-0.0099
3837.00,-0.0099
3836.00,-0.0100
3835.00,-0.0100
3834.00,-0.0100
3833.00,-0.0100
3832.00,-0.0099
3831.00,-0.0099
3830.00,-0.0099
3829.00,-0.0099
3828.00,-0.0099
3827.00,-0.0099
3826.00,-0.0099
3825.00,-0.0100
3824.00,-0.0100
3823.00,-0.0100
3822.00,-0.0100
3821.00,-0.0100
3820.00,-0.0100
3819.00,-0.0100
3818.00,-0.0100
3817.00,-0.0100
3816.00,-0.0100
3815.00,-0.0100
3814.00,-0.0100
3813.00,-0.0100
3812.00,-0.0100
3811.00,-0.0100
3810.00,-0.0100
3809.00,-0.0100
3808.00,-0.0100
3807.00,-0.0100
3806.00,-0.0101
3805.00,-0.0101
3804.00,-0.0101
3803.00,-0.0101
3802.00,-0.0100
3801.00,-0.0100
3800.00,-0.0100
3799.00,-0.0100
3798.00,-0.0100
3797.00,-0.0100
3796.00,-0.0100
3795.00,-0.0100
3794.00,-0.0101
3793.00,-0.0101
3792.00,-0.0101
3791.00,-0.0101
3790.00,-0.0101
3789.00,-0.0101
3788.00,-0.0101
3787.00,-0.0101
3786.00,-0.0101
3785.00,-0.0101
3784.00,-0.0101
3783.00,-0.0101
3782.00,-0.0101
3781.00,-0.0101
3780.00,-0.0100
3779.00,-0.0100
3778.00,-0.0101
3777.00,-0.0101
3776.00,-0.0101
3775.00,-0.0101
3774.00,-0.0101
3773.00,-0.0101
3772.00,-0.0101
3771.00,-0.0101
3770.00,-0.0102
3769.00,-0.0102
3768.00,-0.0101
3767.00,-0.0101
3766.00,-0.0101
3765.00,-0.0102
3764.00,-0.0102
3763.00,-0.0102
3762.00,-0.0102
3761.00,-0.0103
3760.00,-0.0103
3759.00,-0.0102
3758.00,-0.0102
3757.00,-0.0102
3756.00,-0.0102
3755.00,-0.0102
3754.00,-0.0102
3753.00,-0.0102
3752.00,-0.0102
3751.00,-0.0103
3750.00,-0.0103
3749.00,-0.0104
3748.00,-0.0104
3747.00,-0.0104
3746.00,-0.0103
3745.00,-0.0103
3744.00,-0.0103
3743.00,-0.0103
3742.00,-0.0103
3741.00,-0.0103
3740.00,-0.0103
3739.00,-0.0104
3738.00,-0.0104
3737.00,-0.0104
3736.00,-0.0104
3735.00,-0.0104
3734.00,-0.0104
3733.00,-0.0104
3732.00,-0.0103
3731.00,-0.0103
3730.00,-0.0103
3729.00,-0.0104
3728.00,-0.0104
3727.00,-0.0104
3726.00,-0.0104
3725.00,-0.0105
3724.00,-0.0105
3723.00,-0.0105
3722.00,-0.0104
3721.00,-0.0104
3720.00,-0.0104
3719.00,-0.0104
3718.00,-0.0104
3717.00,-0.0105
3716.00,-0.0105
3715.00,-0.0105
3714.00,-0.0105
3713.00,-0.0105
3712.00,-0.0105
3711.00,-0.0105
3710.00,-0.0104
3709.00,-0.0104
3708.00,-0.0103
3707.00,-0.0103
3706.00,-0.0104
3705.00,-0.0104
3704.00,-0.0104
3703.00,-0.0105
3702.00,-0.0105
3701.00,-0.0105
3700.00,-0.0105
3699.00,-0.0105
3698.00,-0.0105
3697.00,-0.0106
3696.00,-0.0106
3695.00,-0.0106
3694.00,-0.0106
3693.00,-0.0106
3692.00,-0.0106
3691.00,-0.0106
3690.00,-0.0106
3689.00,-0.0106
3688.00,-0.0107
3687.00,-0.0107
3686.00,-0.0107
3685.00,-0.0107
3684.00,-0.0108
3683.00,-0.0108
3682.00,-0.0109
3681.00,-0.0109
3680.00,-0.0110
3679.00,-0.0110
3678.00,-0.0111
3677.00,-0.0111
3676.00,-0.0111
3675.00,-0.0112
3674.00,-0.0112
3673.00,-0.0112
3672.00,-0.0112
3671.00,-0.0112
3670.00,-0.0112
3669.00,-0.0111
3668.00,-0.0111
3667.00,-0.0111
3666.00,-0.0110
3665.00,-0.0110
3664.00,-0.0110
3663.00,-0.0111
3662.00,-0.0111
3661.00,-0.0111
3660.00,-0.0111
3659.00,-0.0111
3658.00,-0.0111
3657.00,-0.0111
3656.00,-0.0111
3655.00,-0.0111
3654.00,-0.0112
3653.00,-0.0112
3652.00,-0.0112
3651.00,-0.0112
3650.00,-0.0112
3649.00,-0.0112
3648.00,-0.0111
3647.00,-0.0111
3646.00,-0.0110
3645.00,-0.0109
3644.00,-0.0109
3643.00,-0.0108
3642.00,-0.0108
3641.00,-0.0107
3640.00,-0.0107
3639.00,-0.0107
3638.00,-0.0107
3637.00,-0.0107
3636.00,-0.0107
3635.00,-0.0106
3634.00,-0.0106
3633.00,-0.0105
3632.00,-0.0104
3631.00,-0.0104
3630.00,-0.0103
3629.00,-0.0103
3628.00,-0.0103
3627.00,-0.0103
3626.00,-0.0102
3625.00,-0.0102
3624.00,-0.0102
3623.00,-0.0101
3622.00,-0.0101
3621.00,-0.0101
3620.00,-0.0100
3619.00,-0.0100
3618.00,-0.0100
3617.00,-0.0100
3616.00,-0.0100
3615.00,-0.0100
3614.00,-0.0100
3613.00,-0.0100
3612.00,-0.0100
3611.00,-0.0100
3610.00,-0.0099
3609.00,-0.0099
3608.00,-0.0099
3607.00,-0.0099
3606.00,-0.0098
3605.00,-0.0098
3604.00,-0.0098
3603.00,-0.0098
3602.00,-0.0098
3601.00,-0.0097
3600.00,-0.0097
3599.00,-0.0097
3598.00,-0.0097
3597.00,-0.0096
3596.00,-0.0096
3595.00,-0.0096
3594.00,-0.0096
3593.00,-0.0096
3592.00,-0.0095
3591.00,-0.0095
3590.00,-0.0095
3589.00,-0.0094
3588.00,-0.0094
3587.00,-0.0094
3586.00,-0.0094
3585.00,-0.0094
3584.00,-0.0094
3583.00,-0.0094
3582.00,-0.0094
3581.00,-0.0094
3580.00,-0.0094
3579.00,-0.0094
3578.00,-0.0093
3577.00,-0.0093
3576.00,-0.0093
3575.00,-0.0092
3574.00,-0.0092
3573.00,-0.0092
3572.00,-0.0092
3571.00,-0.0092
3570.00,-0.0093
3569.00,-0.0093
3568.00,-0.0092
3567.00,-0.0092
3566.00,-0.0092
3565.00,-0.0091
3564.00,-0.0091
3563.00,-0.0091
3562.00,-0.0090
3561.00,-0.0090
3560.00,-0.0090
3559.00,-0.0090
3558.00,-0.0090
3557.00,-0.0090
3556.00,-0.0089
3555.00,-0.0089
3554.00,-0.0089
3553.00,-0.0089
3552.00,-0.0089
3551.00,-0.0089
3550.00,-0.0089
3549.00,-0.0089
3548.00,-0.0089
3547.00,-0.0089
3546.00,-0.0089
3545.00,-0.0088
3544.00,-0.0088
3543.00,-0.0087
3542.00,-0.0087
3541.00,-0.0087
3540.00,-0.0087
3539.00,-0.0087
3538.00,-0.0087
3537.00,-0.0086
3536.00,-0.0086
3535.00,-0.0086
3534.00,-0.0086
3533.00,-0.0086
3532.00,-0.0086
3531.00,-0.0085
3530.00,-0.0085
3529.00,-0.0085
3528.00,-0.0085
3527.00,-0.0085
3526.00,-0.0084
3525.00,-0.0084
3524.00,-0.0084
3523.00,-0.0084
3522.00,-0.0084
3521.00,-0.0083
3520.00,-0.0083
3519.00,-0.0083
3518.00,-0.0082
3517.00,-0.0082
3516.00,-0.0082
3515.00,-0.0082
3514.00,-0.0082
3513.00,-0.0082
3512.00,-0.0082
3511.00,-0.0082
3510.00,-0.0081
3509.00,-0.0081
3508.00,-0.0080
3507.00,-0.0080
3506.00,-0.0080
3505.00,-0.0080
3504.00,-0.0079
3503.00,-0.0079
3502.00,-0.0079
3501.00,-0.0079
3500.00,-0.0079
3499.00,-0.0078
3498.00,-0.0078
3497.00,-0.0077
3496.00,-0.0077
3495.00,-0.0077
3494.00,-0.0077
3493.00,-0.0076
3492.00,-0.0076
3491.00,-0.0075
3490.00,-0.0075
3489.00,-0.0074
3488.00,-0.0074
3487.00,-0.0074
3486.00,-0.0074
3485.00,-0.0074
3484.00,-0.0073
3483.00,-0.0073
3482.00,-0.0073
3481.00,-0.0072
3480.00,-0.0072
3479.00,-0.0071
3478.00,-0.0071
3477.00,-0.0071
3476.00,-0.0071
3475.00,-0.0070
3474.00,-0.0070
3473.00,-0.0070
3472.00,-0.0069
3471.00,-0.0069
3470.00,-0.0068
3469.00,-0.0068
3468.00,-0.0067
3467.00,-0.0067
3466.00,-0.0067
3465.00,-0.0067
3464.00,-0.0067
3463.00,-0.0067
3462.00,-0.0066
3461.00,-0.0066
3460.00,-0.0065
3459.00,-0.0065
3458.00,-0.0065
3457.00,-0.0064
3456.00,-0.0064
3455.00,-0.0064
3454.00,-0.0063
3453.00,-0.0063
3452.00,-0.0063
3451.00,-0.0062
3450.00,-0.0062
3449.00,-0.0061
3448.00,-0.0061
3447.00,-0.0060
3446.00,-0.0060
3445.00,-0.0059
3444.00,-0.0059
3443.00,-0.0059
3442.00,-0.0059
3441.00,-0.0059
3440.00,-0.0058
3439.00,-0.0057
3438.00,-0.0056
3437.00,-0.0055
3436.00,-0.0054
3435.00,-0.0054
3434.00,-0.0054
3433.00,-0.0054
3432.00,-0.0053
3431.00,-0.0053
3430.00,-0.0052
3429.00,-0.0051
3428.00,-0.0051
3427.00,-0.0050
3426.00,-0.0050
3425.00,-0.0049
3424.00,-0.0048
3423.00,-0.0048
3422.00,-0.0047
3421.00,-0.0047
3420.00,-0.0047
3419.00,-0.0046
3418.00,-0.0046
3417.00,-0.0045
3416.00,-0.0045
3415.00,-0.0044
3414.00,-0.0044
3413.00,-0.0043
3412.00,-0.0043
3411.00,-0.0042
3410.00,-0.0042
3409.00,-0.0041
3408.00,-0.0041
3407.00,-0.0040
3406.00,-0.0040
3405.00,-0.0039
3404.00,-0.0038
3403.00,-0.0037
3402.00,-0.0037
3401.00,-0.0036
3400.00,-0.0036
3399.00,-0.0035
3398.00,-0.0035
3397.00,-0.0034
3396.00,-0.0033
3395.00,-0.0033
3394.00,-0.0032
3393.00,-0.0031
3392.00,-0.0030
3391.00,-0.0030
3390.00,-0.0029
3389.00,-0.0029
3388.00,-0.0029
3387.00,-0.0028
3386.00,-0.0028
3385.00,-0.0027
3384.00,-0.0026
3383.00,-0.0026
3382.00,-0.0025
3381.00,-0.0024
3380.00,-0.0023
3379.00,-0.0023
3378.00,-0.0022
3377.00,-0.0021
3376.00,-0.0020
3375.00,-0.0019
3374.00,-0.0018
3373.00,-0.0017
3372.00,-0.0017
3371.00,-0.0016
3370.00,-0.0015
3369.00,-0.0014
3368.00,-0.0013
3367.00,-0.0011
3366.00,-0.0010
3365.00,-0.0009
3364.00,-0.0008
3363.00,-0.0007
3362.00,-0.0006
3361.00,-0.0005
3360.00,-0.0004
3359.00,-0.0003
3358.00,-0.0002
3357.00,-0.0000
3356.00,0.0001
3355.00,0.0002
3354.00,0.0003
3353.00,0.0004
3352.00,0.0006
3351.00,0.0007
3350.00,0.0008
3349.00,0.0010
3348.00,0.0011
3347.00,0.0013
3346.00,0.0014
3345.00,0.0016
3344.00,0.0017
3343.00,0.0019
3342.00,0.0020
3341.00,0.0022
3340.00,0.0023
3339.00,0.0025
3338.00,0.0026
3337.00,0.0028
3336.00,0.0030
3335.00,0.0032
3334.00,0.0034
3333.00,0.0036
3332.00,0.0037
3331.00,0.0039
3330.00,0.0041
3329.00,0.0043
3328.00,0.0045
3327.00,0.0047
3326.00,0.0049
3325.00,0.0051
3324.00,0.0053
3323.00,0.0055
3322.00,0.0057
3321.00,0.0059
3320.00,0.0062
3319.00,0.0064
3318.00,0.0066
3317.00,0.0068
3316.00,0.0071
3315.00,0.0073
3314.00,0.0076
3313.00,0.0078
3312.00,0.0081
3311.00,0.0084
3310.00,0.0086
3309.00,0.0089
3308.00,0.0091
3307.00,0.0094
3306.00,0.0097
3305.00,0.0099
3304.00,0.0102
3303.00,0.0105
3302.00,0.0108
3301.00,0.0111
3300.00,0.0113
3299.00,0.0116
3298.00,0.0119
3297.00,0.0121
3296.00,0.0124
3295.00,0.0127
3294.00,0.0130
3293.00,0.0132
3292.00,0.0135
3291.00,0.0137
3290.00,0.0140
3289.00,0.0142
3288.00,0.0144
3287.00,0.0146
3286.00,0.0148
3285.00,0.0150
3284.00,0.0152
3283.00,0.0154
3282.00,0.0156
3281.00,0.0157
3280.00,0.0158
3279.00,0.0159
3278.00,0.0160
3277.00,0.0161
3276.00,0.0161
3275.00,0.0162
3274.00,0.0163
3273.00,0.0163
3272.00,0.0163
3271.00,0.0163
3270.00,0.0162
3269.00,0.0161
3268.00,0.0160
3267.00,0.0159
3266.00,0.0158
3265.00,0.0157
3264.00,0.0155
3263.00,0.0153
3262.00,0.0152
3261.00,0.0150
3260.00,0.0149
3259.00,0.0147
3258.00,0.0145
3257.00,0.0143
3256.00,0.0141
3255.00,0.0138
3254.00,0.0136
3253.00,0.0134
3252.00,0.0132
3251.00,0.0129
3250.00,0.0127
3249.00,0.0125
3248.00,0.0124
3247.00,0.0122
3246.00,0.0120
3245.00,0.0118
3244.00,0.0116
3243.00,0.0114
3242.00,0.0112
3241.00,0.0111
3240.00,0.0109
3239.00,0.0107
3238.00,0.0105
3237.00,0.0104
3236.00,0.0102
3235.00,0.0100
3234.00,0.0099
3233.00,0.0097
3232.00,0.0096
3231.00,0.0094
3230.00,0.0093
3229.00,0.0091
3228.00,0.0090
3227.00,0.0088
3226.00,0.0087
3225.00,0.0086
3224.00,0.0085
3223.00,0.0084
3222.00,0.0082
3221.00,0.0081
3220.00,0.0080
3219.00,0.0078
3218.00,0.0077
3217.00,0.0075
3216.00,0.0074
3215.00,0.0073
3214.00,0.0072
3213.00,0.0071
3212.00,0.0071
3211.00,0.0070
3210.00,0.0068
3209.00,0.0067
3208.00,0.0066
3207.00,0.0065
3206.00,0.0064
3205.00,0.0063
3204.00,0.0062
3203.00,0.0061
3202.00,0.0060
3201.00,0.0059
3200.00,0.0057
3199.00,0.0056
3198.00,0.0056
3197.00,0.0055
3196.00,0.0055
3195.00,0.0054
3194.00,0.0052
3193.00,0.0051
3192.00,0.0050
3191.00,0.0049
3190.00,0.0048
3189.00,0.0047
3188.00,0.0046
3187.00,0.0045
3186.00,0.0044
3185.00,0.0043
3184.00,0.0041
3183.00,0.0040
3182.00,0.0038
3181.00,0.0037
3180.00,0.0036
3179.00,0.0034
3178.00,0.0033
3177.00,0.0032
3176.00,0.0030
3175.00,0.0029
3174.00,0.0028
3173.00,0.0027
3172.00,0.0026
3171.00,0.0025
3170.00,0.0024
3169.00,0.0023
3168.00,0.0022
3167.00,0.0020
3166.00,0.0019
3165.00,0.0018
3164.00,0.0017
3163.00,0.0016
3162.00,0.0015
3161.00,0.0014
3160.00,0.0013
3159.00,0.0012
3158.00,0.0010
3157.00,0.0009
3156.00,0.0008
3155.00,0.0007
3154.00,0.0006
3153.00,0.0005
3152.00,0.0005
3151.00,0.0003
3150.00,0.0002
3149.00,0.0001
3148.00,-0.0000
3147.00,-0.0001
3146.00,-0.0002
3145.00,-0.0003
3144.00,-0.0003
3143.00,-0.0004
3142.00,-0.0005
3141.00,-0.0005
3140.00,-0.0006
3139.00,-0.0007
3138.00,-0.0008
3137.00,-0.0008
3136.00,-0.0009
3135.00,-0.0010
3134.00,-0.0011
3133.00,-0.0012
3132.00,-0.0013
3131.00,-0.0013
3130.00,-0.0013
3129.00,-0.0014
3128.00,-0.0014
3127.00,-0.0015
3126.00,-0.0016
3125.00,-0.0016
3124.00,-0.0017
3123.00,-0.0017
3122.00,-0.0018
3121.00,-0.0019
3120.00,-0.0019
3119.00,-0.0020
3118.00,-0.0021
3117.00,-0.0021
3116.00,-0.0021
3115.00,-0.0021
3114.00,-0.0021
3113.00,-0.0021
3112.00,-0.0021
3111.00,-0.0021
3110.00,-0.0022
3109.00,-0.0022
3108.00,-0.0022
3107.00,-0.0022
3106.00,-0.0022
3105.00,-0.0021
3104.00,-0.0021
3103.00,-0.0021
3102.00,-0.0021
3101.00,-0.0021
3100.00,-0.0022
3099.00,-0.0022
3098.00,-0.0022
3097.00,-0.0021
3096.00,-0.0021
3095.00,-0.0021
3094.00,-0.0021
3093.00,-0.0021
3092.00,-0.0021
3091.00,-0.0020
3090.00,-0.0020
3089.00,-0.0019
3088.00,-0.0019
3087.00,-0.0019
3086.00,-0.0019
3085.00,-0.0019
3084.00,-0.0018
3083.00,-0.0018
3082.00,-0.0018
3081.00,-0.0018
3080.00,-0.0018
3079.00,-0.0018
3078.00,-0.0018
3077.00,-0.0017
3076.00,-0.0017
3075.00,-0.0016
3074.00,-0.0016
3073.00,-0.0016
3072.00,-0.0016
3071.00,-0.0016
3070.00,-0.0016
3069.00,-0.0016
3068.00,-0.0016
3067.00,-0.0016
3066.00,-0.0016
3065.00,-0.0017
3064.00,-0.0017
3063.00,-0.0017
3062.00,-0.0017
3061.00,-0.0017
3060.00,-0.0017
3059.00,-0.0017
3058.00,-0.0018
3057.00,-0.0019
3056.00,-0.0020
3055.00,-0.0020
3054.00,-0.0021
3053.00,-0.0021
3052.00,-0.0022
3051.00,-0.0022
3050.00,-0.0023
3049.00,-0.0024
3048.00,-0.0026
3047.00,-0.0027
3046.00,-0.0028
3045.00,-0.0029
3044.00,-0.0030
3043.00,-0.0031
3042.00,-0.0032
3041.00,-0.0033
3040.00,-0.0033
3039.00,-0.0034
3038.00,-0.0035
3037.00,-0.0036
3036.00,-0.0037
3035.00,-0.0038
3034.00,-0.0039
3033.00,-0.0040
3032.00,-0.0041
3031.00,-0.0042
3030.00,-0.0042
3029.00,-0.0043
3028.00,-0.0044
3027.00,-0.0045
3026.00,-0.0047
3025.00,-0.0048
3024.00,-0.0049
3023.00,-0.0049
3022.00,-0.0051
3021.00,-0.0052
3020.00,-0.0053
3019.00,-0.0055
3018.00,-0.0056
3017.00,-0.0058
3016.00,-0.0059
3015.00,-0.0060
3014.00,-0.0062
3013.00,-0.0063
3012.00,-0.0064
3011.00,-0.0065
3010.00,-0.0066
3009.00,-0.0068
3008.00,-0.0070
3007.00,-0.0072
3006.00,-0.0074
3005.00,-0.0076
3004.00,-0.0078
3003.00,-0.0081
3002.00,-0.0083
3001.00,-0.0085
3000.00,-0.0088
2999.00,-0.0090
2998.00,-0.0092
2997.00,-0.0093
2996.00,-0.0094
2995.00,-0.0095
2994.00,-0.0095
2993.00,-0.0096
2992.00,-0.0097
2991.00,-0.0097
2990.00,-0.0097
2989.00,-0.0097
2988.00,-0.0097
2987.00,-0.0098
2986.00,-0.0100
2985.00,-0.0104
2984.00,-0.0109
2983.00,-0.0114
2982.00,-0.0117
2981.00,-0.0118
2980.00,-0.0116
2979.00,-0.0112
2978.00,-0.0107
2977.00,-0.0103
2976.00,-0.0100
2975.00,-0.0097
2974.00,-0.0096
2973.00,-0.0095
2972.00,-0.0094
2971.00,-0.0091
2970.00,-0.0088
2969.00,-0.0084
2968.00,-0.0080
2967.00,-0.0077
2966.00,-0.0075
2965.00,-0.0072
2964.00,-0.0070
2963.00,-0.0068
2962.00,-0.0066
2961.00,-0.0064
2960.00,-0.0063
2959.00,-0.0062
2958.00,-0.0061
2957.00,-0.0060
2956.00,-0.0060
2955.00,-0.0060
2954.00,-0.0060
2953.00,-0.0060
2952.00,-0.0060
2951.00,-0.0060
2950.00,-0.0060
2949.00,-0.0060
2948.00,-0.0059
2947.00,-0.0058
2946.00,-0.0057
2945.00,-0.0056
2944.00,-0.0055
2943.00,-0.0053
2942.00,-0.0052
2941.00,-0.0050
2940.00,-0.0048
2939.00,-0.0046
2938.00,-0.0044
2937.00,-0.0042
2936.00,-0.0040
2935.00,-0.0038
2934.00,-0.0036
2933.00,-0.0034
2932.00,-0.0033
2931.00,-0.0031
2930.00,-0.0029
2929.00,-0.0027
2928.00,-0.0026
2927.00,-0.0025
2926.00,-0.0024
2925.00,-0.0023
2924.00,-0.0023
2923.00,-0.0023
2922.00,-0.0024
2921.00,-0.0025
2920.00,-0.0026
2919.00,-0.0028
2918.00,-0.0030
2917.00,-0.0033
2916.00,-0.0035
2915.00,-0.0038
2914.00,-0.0040
2913.00,-0.0043
2912.00,-0.0045
2911.00,-0.0048
2910.00,-0.0050
2909.00,-0.0052
2908.00,-0.0054
2907.00,-0.0056
2906.00,-0.0057
2905.00,-0.0059
2904.00,-0.0060
2903.00,-0.0061
2902.00,-0.0062
2901.00,-0.0063
2900.00,-0.0064
2899.00,-0.0065
2898.00,-0.0066
2897.00,-0.0067
2896.00,-0.0069
2895.00,-0.0070
2894.00,-0.0071
2893.00,-0.0072
2892.00,-0.0073
2891.00,-0.0074
2890.00,-0.0075
2889.00,-0.0076
2888.00,-0.0076
2887.00,-0.0076
2886.00,-0.0076
2885.00,-0.0076
2884.00,-0.0075
2883.00,-0.0074
2882.00,-0.0073
2881.00,-0.0072
2880.00,-0.0070
2879.00,-0.0069
2878.00,-0.0067
2877.00,-0.0066
2876.00,-0.0066
2875.00,-0.0065
2874.00,-0.0065
2873.00,-0.0065
2872.00,-0.0065
2871.00,-0.0065
2870.00,-0.0066
2869.00,-0.0066
2868.00,-0.0066
2867.00,-0.0067
2866.00,-0.0067
2865.00,-0.0067
2864.00,-0.0068
2863.00,-0.0067
2862.00,-0.0067
2861.00,-0.0067
2860.00,-0.0066
2859.00,-0.0065
2858.00,-0.0064
2857.00,-0.0063
2856.00,-0.0062
2855.00,-0.0061
2854.00,-0.0060
2853.00,-0.0060
2852.00,-0.0060
2851.00,-0.0061
2850.00,-0.0062
2849.00,-0.0064
2848.00,-0.0066
2847.00,-0.0068
2846.00,-0.0070
2845.00,-0.0072
2844.00,-0.0073
2843.00,-0.0075
2842.00,-0.0077
2841.00,-0.0078
2840.00,-0.0079
2839.00,-0.0080
2838.00,-0.0081
2837.00,-0.0082
2836.00,-0.0083
2835.00,-0.0084
2834.00,-0.0084
2833.00,-0.0084
2832.00,-0.0085
2831.00,-0.0085
2830.00,-0.0085
2829.00,-0.0086
2828.00,-0.0086
2827.00,-0.0086
2826.00,-0.0087
2825.00,-0.0087
2824.00,-0.0087
2823.00,-0.0087
2822.00,-0.0087
2821.00,-0.0088
2820.00,-0.0088
2819.00,-0.0089
2818.00,-0.0089
