Created as New Dataset,Sample 600 By YargerLab Date Thursday, June 05 2025
cm-1,A
4000.00,0.0054
3999.00,0.0054
3998.00,0.0054
3997.00,0.0053
3996.00,0.0053
3995.00,0.0053
3994.00,0.0054
3993.00,0.0054
3992.00,0.0053
3991.00,0.0053
3990.00,0.0053
3989.00,0.0053
3988.00,0.0053
3987.00,0.0053
3986.00,0.0053
3985.00,0.0053
3984.00,0.0054
3983.00,0.0054
3982.00,0.0054
3981.00,0.0054
3980.00,0.0053
3979.00,0.0053
3978.00,0.0053
3977.00,0.0053
3976.00,0.0053
3975.00,0.0053
3974.00,0.0053
3973.00,0.0053
3972.00,0.0053
3971.00,0.0053
3970.00,0.0053
3969.00,0.0053
3968.00,0.0053
3967.00,0.0053
3966.00,0.0054
3965.00,0.0054
3964.00,0.0054
3963.00,0.0053
3962.00,0.0053
3961.00,0.0053
3960.00,0.0053
3959.00,0.0053
3958.00,0.0053
3957.00,0.0053
3956.00,0.0053
3955.00,0.0053
3954.00,0.0053
3953.00,0.0053
3952.00,0.0053
3951.00,0.0052
3950.00,0.0052
3949.00,0.0052
3948.00,0.0052
3947.00,0.0052
3946.00,0.0052
3945.00,0.0052
3944.00,0.0052
3943.00,0.0053
3942.00,0.0053
3941.00,0.0053
3940.00,0.0053
3939.00,0.0053
3938.00,0.0053
3937.00,0.0053
3936.00,0.0053
3935.00,0.0053
3934.00,0.0053
3933.00,0.0053
3932.00,0.0053
3931.00,0.0053
3930.00,0.0053
3929.00,0.0052
3928.00,0.0052
3927.00,0.0052
3926.00,0.0052
3925.00,0.0053
3924.00,0.0053
3923.00,0.0053
3922.00,0.0052
3921.00,0.0052
3920.00,0.0052
3919.00,0.0052
3918.00,0.0052
3917.00,0.0052
3916.00,0.0052
3915.00,0.0052
3914.00,0.0052
3913.00,0.0052
3912.00,0.0052
3911.00,0.0052
3910.00,0.0053
3909.00,0.0053
3908.00,0.0053
3907.00,0.0053
3906.00,0.0052
3905.00,0.0052
3904.00,0.0052
3903.00,0.0052
3902.00,0.0051
3901.00,0.0051
3900.00,0.0051
3899.00,0.0051
3898.00,0.0051
3897.00,0.0052
3896.00,0.0052
3895.00,0.0052
3894.00,0.0052
3893.00,0.0052
3892.00,0.0052
3891.00,0.0052
3890.00,0.0051
3889.00,0.0051
3888.00,0.0051
3887.00,0.0051
3886.00,0.0051
3885.00,0.0051
3884.00,0.0051
3883.00,0.0050
3882.00,0.0050
3881.00,0.0050
3880.00,0.0051
3879.00,0.0051
3878.00,0.0051
3877.00,0.0051
3876.00,0.0051
3875.00,0.0050
3874.00,0.0050
3873.00,0.0050
3872.00,0.0050
3871.00,0.0050
3870.00,0.0050
3869.00,0.0050
3868.00,0.0050
3867.00,0.0050
3866.00,0.0050
3865.00,0.0050
3864.00,0.0050
3863.00,0.0051
3862.00,0.0050
3861.00,0.0050
3860.00,0.0050
3859.00,0.0050
3858.00,0.0051
3857.00,0.0051
3856.00,0.0051
3855.00,0.0050
3854.00,0.0049
3853.00,0.0049
3852.00,0.0049
3851.00,0.0049
3850.00,0.0049
3849.00,0.0049
3848.00,0.0049
3847.00,0.0049
3846.00,0.0050
3845.00,0.0050
3844.00,0.0050
3843.00,0.0049
3842.00,0.0049
3841.00,0.0049
3840.00,0.0049
3839.00,0.0048
3838.00,0.0048
3837.00,0.0048
3836.00,0.0048
3835.00,0.0049
3834.00,0.0049
3833.00,0.0049
3832.00,0.0049
3831.00,0.0049
3830.00,0.0050
3829.00,0.0050
3828.00,0.0050
3827.00,0.0050
3826.00,0.0050
3825.00,0.0050
3824.00,0.0049
3823.00,0.0049
3822.00,0.0048
3821.00,0.0048
3820.00,0.0048
3819.00,0.0048
3818.00,0.0048
3817.00,0.0048
3816.00,0.0048
3815.00,0.0049
3814.00,0.0049
3813.00,0.0049
3812.00,0.0049
3811.00,0.0049
3810.00,0.0049
3809.00,0.0049
3808.00,0.0049
3807.00,0.0048
3806.00,0.0049
3805.00,0.0049
3804.00,0.0049
3803.00,0.0049
3802.00,0.0048
3801.00,0.0049
3800.00,0.0049
3799.00,0.0049
3798.00,0.0049
3797.00,0.0049
3796.00,0.0049
3795.00,0.0049
3794.00,0.0050
3793.00,0.0050
3792.00,0.0050
3791.00,0.0050
3790.00,0.0050
3789.00,0.0050
3788.00,0.0050
3787.00,0.0050
3786.00,0.0049
3785.00,0.0049
3784.00,0.0049
3783.00,0.0049
3782.00,0.0049
3781.00,0.0049
3780.00,0.0049
3779.00,0.0049
3778.00,0.0049
3777.00,0.0049
3776.00,0.0049
3775.00,0.0049
3774.00,0.0049
3773.00,0.0049
3772.00,0.0049
3771.00,0.0049
3770.00,0.0049
3769.00,0.0049
3768.00,0.0048
3767.00,0.0048
3766.00,0.0048
3765.00,0.0048
3764.00,0.0048
3763.00,0.0049
3762.00,0.0049
3761.00,0.0049
3760.00,0.0048
3759.00,0.0048
3758.00,0.0048
3757.00,0.0048
3756.00,0.0048
3755.00,0.0048
3754.00,0.0048
3753.00,0.0047
3752.00,0.0047
3751.00,0.0047
3750.00,0.0046
3749.00,0.0046
3748.00,0.0046
3747.00,0.0046
3746.00,0.0046
3745.00,0.0046
3744.00,0.0046
3743.00,0.0046
3742.00,0.0046
3741.00,0.0046
3740.00,0.0045
3739.00,0.0045
3738.00,0.0045
3737.00,0.0044
3736.00,0.0044
3735.00,0.0045
3734.00,0.0045
3733.00,0.0045
3732.00,0.0046
3731.00,0.0046
3730.00,0.0046
3729.00,0.0046
3728.00,0.0046
3727.00,0.0046
3726.00,0.0046
3725.00,0.0046
3724.00,0.0046
3723.00,0.0046
3722.00,0.0046
3721.00,0.0046
3720.00,0.0046
3719.00,0.0046
3718.00,0.0046
3717.00,0.0047
3716.00,0.0047
3715.00,0.0047
3714.00,0.0046
3713.00,0.0046
3712.00,0.0045
3711.00,0.0045
3710.00,0.0045
3709.00,0.0045
3708.00,0.0045
3707.00,0.0045
3706.00,0.0046
3705.00,0.0046
3704.00,0.0046
3703.00,0.0046
3702.00,0.0046
3701.00,0.0046
3700.00,0.0047
3699.00,0.0046
3698.00,0.0046
3697.00,0.0046
3696.00,0.0046
3695.00,0.0046
3694.00,0.0046
3693.00,0.0046
3692.00,0.0045
3691.00,0.0045
3690.00,0.0045
3689.00,0.0045
3688.00,0.0045
3687.00,0.0045
3686.00,0.0045
3685.00,0.0045
3684.00,0.0045
3683.00,0.0045
3682.00,0.0045
3681.00,0.0045
3680.00,0.0045
3679.00,0.0045
3678.00,0.0045
3677.00,0.0044
3676.00,0.0044
3675.00,0.0043
3674.00,0.0043
3673.00,0.0043
3672.00,0.0043
3671.00,0.0043
3670.00,0.0043
3669.00,0.0044
3668.00,0.0044
3667.00,0.0044
3666.00,0.0044
3665.00,0.0044
3664.00,0.0045
3663.00,0.0045
3662.00,0.0045
3661.00,0.0046
3660.00,0.0046
3659.00,0.0046
3658.00,0.0046
3657.00,0.0046
3656.00,0.0046
3655.00,0.0046
3654.00,0.0045
3653.00,0.0045
3652.00,0.0044
3651.00,0.0044
3650.00,0.0044
3649.00,0.0044
3648.00,0.0045
3647.00,0.0045
3646.00,0.0045
3645.00,0.0046
3644.00,0.0046
3643.00,0.0047
3642.00,0.0047
3641.00,0.0048
3640.00,0.0048
3639.00,0.0048
3638.00,0.0048
3637.00,0.0048
3636.00,0.0048
3635.00,0.0048
3634.00,0.0048
3633.00,0.0048
3632.00,0.0049
3631.00,0.0049
3630.00,0.0048
3629.00,0.0048
3628.00,0.0049
3627.00,0.0049
3626.00,0.0050
3625.00,0.0050
3624.00,0.0051
3623.00,0.0051
3622.00,0.0052
3621.00,0.0052
3620.00,0.0052
3619.00,0.0052
3618.00,0.0052
3617.00,0.0052
3616.00,0.0051
3615.00,0.0051
3614.00,0.0052
3613.00,0.0052
3612.00,0.0053
3611.00,0.0053
3610.00,0.0053
3609.00,0.0053
3608.00,0.0054
3607.00,0.0054
3606.00,0.0054
3605.00,0.0054
3604.00,0.0054
3603.00,0.0054
3602.00,0.0054
3601.00,0.0055
3600.00,0.0055
3599.00,0.0055
3598.00,0.0055
3597.00,0.0055
3596.00,0.0056
3595.00,0.0056
3594.00,0.0056
3593.00,0.0057
3592.00,0.0057
3591.00,0.0057
3590.00,0.0057
3589.00,0.0057
3588.00,0.0058
3587.00,0.0058
3586.00,0.0059
3585.00,0.0059
3584.00,0.0059
3583.00,0.0059
3582.00,0.0059
3581.00,0.0060
3580.00,0.0060
3579.00,0.0061
3578.00,0.0061
3577.00,0.0061
3576.00,0.0061
3575.00,0.0062
3574.00,0.0062
3573.00,0.0063
3572.00,0.0063
3571.00,0.0063
3570.00,0.0063
3569.00,0.0063
3568.00,0.0063
3567.00,0.0063
3566.00,0.0063
3565.00,0.0064
3564.00,0.0064
3563.00,0.0064
3562.00,0.0065
3561.00,0.0065
3560.00,0.0066
3559.00,0.0066
3558.00,0.0067
3557.00,0.0067
3556.00,0.0067
3555.00,0.0068
3554.00,0.0068
3553.00,0.0068
3552.00,0.0068
3551.00,0.0068
3550.00,0.0068
3549.00,0.0069
3548.00,0.0069
3547.00,0.0069
3546.00,0.0070
3545.00,0.0070
3544.00,0.0070
3543.00,0.0071
3542.00,0.0071
3541.00,0.0071
3540.00,0.0071
3539.00,0.0072
3538.00,0.0072
3537.00,0.0073
3536.00,0.0074
3535.00,0.0074
3534.00,0.0074
3533.00,0.0074
3532.00,0.0074
3531.00,0.0074
3530.00,0.0075
3529.00,0.0075
3528.00,0.0075
3527.00,0.0076
3526.00,0.0076
3525.00,0.0077
3524.00,0.0077
3523.00,0.0077
3522.00,0.0078
3521.00,0.0078
3520.00,0.0078
3519.00,0.0078
3518.00,0.0079
3517.00,0.0079
3516.00,0.0079
3515.00,0.0079
3514.00,0.0080
3513.00,0.0080
3512.00,0.0080
3511.00,0.0080
3510.00,0.0081
3509.00,0.0081
3508.00,0.0081
3507.00,0.0081
3506.00,0.0081
3505.00,0.0081
3504.00,0.0082
3503.00,0.0082
3502.00,0.0083
3501.00,0.0083
3500.00,0.0084
3499.00,0.0084
3498.00,0.0085
3497.00,0.0085
3496.00,0.0085
3495.00,0.0086
3494.00,0.0086
3493.00,0.0086
3492.00,0.0086
3491.00,0.0087
3490.00,0.0087
3489.00,0.0088
3488.00,0.0088
3487.00,0.0088
3486.00,0.0089
3485.00,0.0089
3484.00,0.0089
3483.00,0.0090
3482.00,0.0090
3481.00,0.0091
3480.00,0.0091
3479.00,0.0091
3478.00,0.0092
3477.00,0.0092
3476.00,0.0092
3475.00,0.0093
3474.00,0.0093
3473.00,0.0093
3472.00,0.0094
3471.00,0.0094
3470.00,0.0094
3469.00,0.0095
3468.00,0.0095
3467.00,0.0096
3466.00,0.0096
3465.00,0.0096
3464.00,0.0097
3463.00,0.0097
3462.00,0.0097
3461.00,0.0098
3460.00,0.0098
3459.00,0.0099
3458.00,0.0100
3457.00,0.0101
3456.00,0.0101
3455.00,0.0102
3454.00,0.0104
3453.00,0.0105
3452.00,0.0106
3451.00,0.0107
3450.00,0.0108
3449.00,0.0109
3448.00,0.0110
3447.00,0.0111
3446.00,0.0112
3445.00,0.0112
3444.00,0.0113
3443.00,0.0113
3442.00,0.0114
3441.00,0.0114
3440.00,0.0114
3439.00,0.0114
3438.00,0.0114
3437.00,0.0114
3436.00,0.0114
3435.00,0.0114
3434.00,0.0114
3433.00,0.0114
3432.00,0.0114
3431.00,0.0114
3430.00,0.0115
3429.00,0.0115
3428.00,0.0115
3427.00,0.0116
3426.00,0.0116
3425.00,0.0116
3424.00,0.0117
3423.00,0.0117
3422.00,0.0117
3421.00,0.0118
3420.00,0.0118
3419.00,0.0119
3418.00,0.0119
3417.00,0.0120
3416.00,0.0121
3415.00,0.0121
3414.00,0.0122
3413.00,0.0122
3412.00,0.0122
3411.00,0.0123
3410.00,0.0123
3409.00,0.0124
3408.00,0.0125
3407.00,0.0125
3406.00,0.0126
3405.00,0.0126
3404.00,0.0127
3403.00,0.0127
3402.00,0.0128
3401.00,0.0128
3400.00,0.0129
3399.00,0.0130
3398.00,0.0130
3397.00,0.0131
3396.00,0.0131
3395.00,0.0131
3394.00,0.0131
3393.00,0.0132
3392.00,0.0132
3391.00,0.0133
3390.00,0.0134
3389.00,0.0135
3388.00,0.0136
3387.00,0.0136
3386.00,0.0137
3385.00,0.0137
3384.00,0.0138
3383.00,0.0138
3382.00,0.0139
3381.00,0.0140
3380.00,0.0140
3379.00,0.0141
3378.00,0.0141
3377.00,0.0142
3376.00,0.0142
3375.00,0.0143
3374.00,0.0143
3373.00,0.0144
3372.00,0.0144
3371.00,0.0145
3370.00,0.0145
3369.00,0.0146
3368.00,0.0147
3367.00,0.0148
3366.00,0.0149
3365.00,0.0150
3364.00,0.0151
3363.00,0.0152
3362.00,0.0153
3361.00,0.0154
3360.00,0.0154
3359.00,0.0155
3358.00,0.0156
3357.00,0.0157
3356.00,0.0158
3355.00,0.0159
3354.00,0.0160
3353.00,0.0160
3352.00,0.0161
3351.00,0.0162
3350.00,0.0163
3349.00,0.0164
3348.00,0.0165
3347.00,0.0166
3346.00,0.0167
3345.00,0.0168
3344.00,0.0168
3343.00,0.0169
3342.00,0.0170
3341.00,0.0171
3340.00,0.0171
3339.00,0.0172
3338.00,0.0173
3337.00,0.0175
3336.00,0.0176
3335.00,0.0177
3334.00,0.0178
3333.00,0.0179
3332.00,0.0180
3331.00,0.0181
3330.00,0.0182
3329.00,0.0183
3328.00,0.0184
3327.00,0.0185
3326.00,0.0186
3325.00,0.0187
3324.00,0.0189
3323.00,0.0190
3322.00,0.0191
3321.00,0.0191
3320.00,0.0192
3319.00,0.0193
3318.00,0.0194
3317.00,0.0195
3316.00,0.0197
3315.00,0.0198
3314.00,0.0199
3313.00,0.0199
3312.00,0.0200
3311.00,0.0200
3310.00,0.0200
3309.00,0.0201
3308.00,0.0201
3307.00,0.0202
3306.00,0.0203
3305.00,0.0205
3304.00,0.0207
3303.00,0.0208
3302.00,0.0210
3301.00,0.0211
3300.00,0.0211
3299.00,0.0212
3298.00,0.0212
3297.00,0.0212
3296.00,0.0212
3295.00,0.0213
3294.00,0.0213
3293.00,0.0214
3292.00,0.0215
3291.00,0.0217
3290.00,0.0218
3289.00,0.0219
3288.00,0.0220
3287.00,0.0220
3286.00,0.0221
3285.00,0.0221
3284.00,0.0221
3283.00,0.0222
3282.00,0.0222
3281.00,0.0222
3280.00,0.0222
3279.00,0.0222
3278.00,0.0221
3277.00,0.0221
3276.00,0.0220
3275.00,0.0219
3274.00,0.0218
3273.00,0.0217
3272.00,0.0216
3271.00,0.0216
3270.00,0.0216
3269.00,0.0216
3268.00,0.0217
3267.00,0.0216
3266.00,0.0215
3265.00,0.0214
3264.00,0.0213
3263.00,0.0212
3262.00,0.0212
3261.00,0.0211
3260.00,0.0210
3259.00,0.0209
3258.00,0.0208
3257.00,0.0206
3256.00,0.0205
3255.00,0.0204
3254.00,0.0204
3253.00,0.0203
3252.00,0.0202
3251.00,0.0201
3250.00,0.0199
3249.00,0.0198
3248.00,0.0197
3247.00,0.0196
3246.00,0.0195
3245.00,0.0195
3244.00,0.0195
3243.00,0.0194
3242.00,0.0193
3241.00,0.0192
3240.00,0.0191
3239.00,0.0190
3238.00,0.0189
3237.00,0.0188
3236.00,0.0187
3235.00,0.0185
3234.00,0.0184
3233.00,0.0184
3232.00,0.0184
3231.00,0.0184
3230.00,0.0184
3229.00,0.0183
3228.00,0.0183
3227.00,0.0182
3226.00,0.0181
3225.00,0.0180
3224.00,0.0180
3223.00,0.0179
3222.00,0.0179
3221.00,0.0178
3220.00,0.0178
3219.00,0.0177
3218.00,0.0176
3217.00,0.0176
3216.00,0.0175
3215.00,0.0175
3214.00,0.0175
3213.00,0.0174
3212.00,0.0174
3211.00,0.0173
3210.00,0.0173
3209.00,0.0172
3208.00,0.0172
3207.00,0.0171
3206.00,0.0171
3205.00,0.0170
3204.00,0.0170
3203.00,0.0169
3202.00,0.0169
3201.00,0.0168
3200.00,0.0168
3199.00,0.0167
3198.00,0.0166
3197.00,0.0166
3196.00,0.0165
3195.00,0.0164
3194.00,0.0164
3193.00,0.0163
3192.00,0.0163
3191.00,0.0162
3190.00,0.0162
3189.00,0.0161
3188.00,0.0161
3187.00,0.0160
3186.00,0.0159
3185.00,0.0159
3184.00,0.0158
3183.00,0.0158
3182.00,0.0157
3181.00,0.0157
3180.00,0.0156
3179.00,0.0155
3178.00,0.0155
3177.00,0.0154
3176.00,0.0153
3175.00,0.0152
3174.00,0.0152
3173.00,0.0151
3172.00,0.0151
3171.00,0.0150
3170.00,0.0150
3169.00,0.0149
3168.00,0.0148
3167.00,0.0147
3166.00,0.0147
3165.00,0.0146
3164.00,0.0146
3163.00,0.0145
3162.00,0.0145
3161.00,0.0144
3160.00,0.0143
3159.00,0.0143
3158.00,0.0142
3157.00,0.0141
3156.00,0.0140
3155.00,0.0139
3154.00,0.0138
3153.00,0.0138
3152.00,0.0138
3151.00,0.0138
3150.00,0.0138
3149.00,0.0138
3148.00,0.0138
3147.00,0.0137
3146.00,0.0137
3145.00,0.0136
3144.00,0.0136
3143.00,0.0135
3142.00,0.0134
3141.00,0.0134
3140.00,0.0133
3139.00,0.0132
3138.00,0.0132
3137.00,0.0132
3136.00,0.0133
3135.00,0.0133
3134.00,0.0132
3133.00,0.0132
3132.00,0.0131
3131.00,0.0131
3130.00,0.0130
3129.00,0.0130
3128.00,0.0130
3127.00,0.0130
3126.00,0.0130
3125.00,0.0129
3124.00,0.0129
3123.00,0.0128
3122.00,0.0127
3121.00,0.0127
3120.00,0.0126
3119.00,0.0126
3118.00,0.0126
3117.00,0.0126
3116.00,0.0126
3115.00,0.0127
3114.00,0.0127
3113.00,0.0128
3112.00,0.0128
3111.00,0.0128
3110.00,0.0128
3109.00,0.0127
3108.00,0.0127
3107.00,0.0128
3106.00,0.0128
3105.00,0.0129
3104.00,0.0129
3103.00,0.0129
3102.00,0.0129
3101.00,0.0129
3100.00,0.0129
3099.00,0.0129
3098.00,0.0129
3097.00,0.0130
3096.00,0.0130
3095.00,0.0130
3094.00,0.0130
3093.00,0.0130
3092.00,0.0129
3091.00,0.0129
3090.00,0.0130
3089.00,0.0130
3088.00,0.0130
3087.00,0.0130
3086.00,0.0130
3085.00,0.0130
3084.00,0.0130
3083.00,0.0130
3082.00,0.0130
3081.00,0.0130
3080.00,0.0130
3079.00,0.0130
3078.00,0.0130
3077.00,0.0131
3076.00,0.0132
3075.00,0.0133
3074.00,0.0134
3073.00,0.0134
3072.00,0.0134
3071.00,0.0133
3070.00,0.0132
3069.00,0.0132
3068.00,0.0131
3067.00,0.0131
3066.00,0.0131
3065.00,0.0132
3064.00,0.0132
3063.00,0.0132
3062.00,0.0132
3061.00,0.0132
3060.00,0.0132
3059.00,0.0132
3058.00,0.0131
3057.00,0.0130
3056.00,0.0130
3055.00,0.0129
3054.00,0.0129
3053.00,0.0128
3052.00,0.0128
3051.00,0.0127
3050.00,0.0127
3049.00,0.0127
3048.00,0.0127
3047.00,0.0126
3046.00,0.0125
3045.00,0.0124
3044.00,0.0124
3043.00,0.0123
3042.00,0.0123
3041.00,0.0123
3040.00,0.0123
3039.00,0.0123
3038.00,0.0123
3037.00,0.0122
3036.00,0.0121
3035.00,0.0121
3034.00,0.0120
3033.00,0.0120
3032.00,0.0120
3031.00,0.0120
3030.00,0.0120
3029.00,0.0120
3028.00,0.0119
3027.00,0.0119
3026.00,0.0118
3025.00,0.0118
3024.00,0.0117
3023.00,0.0117
3022.00,0.0116
3021.00,0.0115
3020.00,0.0114
3019.00,0.0114
3018.00,0.0113
3017.00,0.0112
3016.00,0.0111
3015.00,0.0110
3014.00,0.0109
3013.00,0.0109
3012.00,0.0108
3011.00,0.0108
3010.00,0.0108
3009.00,0.0108
3008.00,0.0108
3007.00,0.0107
3006.00,0.0107
3005.00,0.0106
3004.00,0.0105
3003.00,0.0104
3002.00,0.0103
3001.00,0.0102
3000.00,0.0102
2999.00,0.0101
2998.00,0.0101
2997.00,0.0100
2996.00,0.0100
2995.00,0.0100
2994.00,0.0100
2993.00,0.0100
2992.00,0.0101
2991.00,0.0101
2990.00,0.0102
2989.00,0.0103
2988.00,0.0103
2987.00,0.0104
2986.00,0.0103
2985.00,0.0103
2984.00,0.0101
2983.00,0.0100
2982.00,0.0100
2981.00,0.0100
2980.00,0.0102
2979.00,0.0105
2978.00,0.0107
2977.00,0.0109
2976.00,0.0111
2975.00,0.0113
2974.00,0.0114
2973.00,0.0115
2972.00,0.0116
2971.00,0.0117
2970.00,0.0118
2969.00,0.0120
2968.00,0.0122
2967.00,0.0123
2966.00,0.0125
2965.00,0.0126
2964.00,0.0127
2963.00,0.0128
2962.00,0.0129
2961.00,0.0130
2960.00,0.0130
2959.00,0.0130
2958.00,0.0130
2957.00,0.0130
2956.00,0.0129
2955.00,0.0129
2954.00,0.0128
2953.00,0.0128
2952.00,0.0127
2951.00,0.0127
2950.00,0.0126
2949.00,0.0126
2948.00,0.0126
2947.00,0.0126
2946.00,0.0126
2945.00,0.0127
2944.00,0.0128
2943.00,0.0129
2942.00,0.0130
2941.00,0.0131
2940.00,0.0132
2939.00,0.0133
2938.00,0.0133
2937.00,0.0134
2936.00,0.0134
2935.00,0.0135
2934.00,0.0135
2933.00,0.0136
2932.00,0.0136
2931.00,0.0136
2930.00,0.0136
2929.00,0.0137
2928.00,0.0137
2927.00,0.0137
2926.00,0.0137
2925.00,0.0137
2924.00,0.0137
2923.00,0.0136
2922.00,0.0136
2921.00,0.0136
2920.00,0.0136
2919.00,0.0136
2918.00,0.0135
2917.00,0.0133
2916.00,0.0131
2915.00,0.0130
2914.00,0.0128
2913.00,0.0126
2912.00,0.0124
2911.00,0.0123
2910.00,0.0121
2909.00,0.0120
2908.00,0.0119
2907.00,0.0118
2906.00,0.0117
2905.00,0.0116
2904.00,0.0115
2903.00,0.0114
2902.00,0.0114
2901.00,0.0113
2900.00,0.0113
2899.00,0.0112
2898.00,0.0111
2897.00,0.0110
2896.00,0.0110
2895.00,0.0109
2894.00,0.0109
2893.00,0.0108
2892.00,0.0108
2891.00,0.0108
2890.00,0.0107
2889.00,0.0107
2888.00,0.0107
2887.00,0.0107
2886.00,0.0108
2885.00,0.0108
2884.00,0.0108
2883.00,0.0108
2882.00,0.0109
2881.00,0.0110
2880.00,0.0110
2879.00,0.0111
2878.00,0.0112
2877.00,0.0112
2876.00,0.0113
2875.00,0.0113
2874.00,0.0113
2873.00,0.0113
2872.00,0.0112
2871.00,0.0112
2870.00,0.0112
2869.00,0.0111
2868.00,0.0110
2867.00,0.0109
2866.00,0.0109
2865.00,0.0108
2864.00,0.0107
2863.00,0.0106
2862.00,0.0105
2861.00,0.0105
2860.00,0.0104
2859.00,0.0104
2858.00,0.0104
2857.00,0.0104
2856.00,0.0103
2855.00,0.0103
2854.00,0.0103
2853.00,0.0104
2852.00,0.0104
2851.00,0.0104
2850.00,0.0103
2849.00,0.0103
2848.00,0.0102
2847.00,0.0101
2846.00,0.0100
2845.00,0.0099
2844.00,0.0099
2843.00,0.0098
2842.00,0.0097
2841.00,0.0096
2840.00,0.0096
2839.00,0.0095
2838.00,0.0094
2837.00,0.0094
2836.00,0.0094
2835.00,0.0094
2834.00,0.0093
2833.00,0.0093
2832.00,0.0093
2831.00,0.0093
2830.00,0.0092
2829.00,0.0092
2828.00,0.0092
2827.00,0.0091
2826.00,0.0091
2825.00,0.0090
2824.00,0.0090
2823.00,0.0090
2822.00,0.0090
2821.00,0.0090
2820.00,0.0090
2819.00,0.0090
2818.00,0.0090
2817.00,0.0090
2816.00,0.0089
2815.00,0.0089
2814.00,0.0089
2813.00,0.0089
2812.00,0.0089
2811.00,0.0088
2810.00,0.0088
2809.00,0.0088
2808.00,0.0088
2807.00,0.0088
2806.00,0.0088
2805.00,0.0088
2804.00,0.0088
2803.00,0.0087
2802.00,0.0087
2801.00,0.0087
2800.00,0.0087
2799.00,0.0087
2798.00,0.0086
2797.00,0.0086
2796.00,0.0086
2795.00,0.0086
2794.00,0.0086
2793.00,0.0085
2792.00,0.0085
2791.00,0.0085
2790.00,0.0085
2789.00,0.0085
2788.00,0.0085
2787.00,0.0084
2786.00,0.0084
2785.00,0.0084
2784.00,0.0084
2783.00,0.0084
2782.00,0.0084
2781.00,0.0083
2780.00,0.0083
2779.00,0.0083
2778.00,0.0083
2777.00,0.0083
2776.00,0.0082
2775.00,0.0082
2774.00,0.0082
2773.00,0.0082
2772.00,0.0082
2771.00,0.0082
2770.00,0.0082
2769.00,0.0081
2768.00,0.0081
2767.00,0.0081
2766.00,0.0081
2765.00,0.0081
2764.00,0.0081
2763.00,0.0080
2762.00,0.0080
2761.00,0.0080
2760.00,0.0080
2759.00,0.0080
2758.00,0.0080
2757.00,0.0080
