Created as New Dataset,Sample 654 By YargerLab Date Tuesday, June 10 2025
cm-1,A
4000.00,0.0083
3999.00,0.0083
3998.00,0.0083
3997.00,0.0083
3996.00,0.0083
3995.00,0.0084
3994.00,0.0084
3993.00,0.0084
3992.00,0.0084
3991.00,0.0084
3990.00,0.0084
3989.00,0.0083
3988.00,0.0083
3987.00,0.0084
3986.00,0.0084
3985.00,0.0084
3984.00,0.0084
3983.00,0.0084
3982.00,0.0084
3981.00,0.0083
3980.00,0.0083
3979.00,0.0083
3978.00,0.0083
3977.00,0.0082
3976.00,0.0082
3975.00,0.0082
3974.00,0.0083
3973.00,0.0083
3972.00,0.0083
3971.00,0.0084
3970.00,0.0084
3969.00,0.0084
3968.00,0.0084
3967.00,0.0083
3966.00,0.0083
3965.00,0.0083
3964.00,0.0083
3963.00,0.0084
3962.00,0.0084
3961.00,0.0084
3960.00,0.0084
3959.00,0.0084
3958.00,0.0084
3957.00,0.0084
3956.00,0.0084
3955.00,0.0084
3954.00,0.0084
3953.00,0.0084
3952.00,0.0083
3951.00,0.0083
3950.00,0.0083
3949.00,0.0083
3948.00,0.0084
3947.00,0.0084
3946.00,0.0084
3945.00,0.0084
3944.00,0.0084
3943.00,0.0083
3942.00,0.0083
3941.00,0.0083
3940.00,0.0083
3939.00,0.0083
3938.00,0.0083
3937.00,0.0083
3936.00,0.0084
3935.00,0.0084
3934.00,0.0084
3933.00,0.0084
3932.00,0.0083
3931.00,0.0083
3930.00,0.0083
3929.00,0.0083
3928.00,0.0083
3927.00,0.0083
3926.00,0.0083
3925.00,0.0083
3924.00,0.0083
3923.00,0.0083
3922.00,0.0083
3921.00,0.0083
3920.00,0.0083
3919.00,0.0083
3918.00,0.0082
3917.00,0.0082
3916.00,0.0082
3915.00,0.0082
3914.00,0.0083
3913.00,0.0083
3912.00,0.0083
3911.00,0.0083
3910.00,0.0083
3909.00,0.0083
3908.00,0.0083
3907.00,0.0083
3906.00,0.0083
3905.00,0.0083
3904.00,0.0083
3903.00,0.0083
3902.00,0.0083
3901.00,0.0083
3900.00,0.0083
3899.00,0.0084
3898.00,0.0084
3897.00,0.0084
3896.00,0.0084
3895.00,0.0084
3894.00,0.0083
3893.00,0.0083
3892.00,0.0083
3891.00,0.0083
3890.00,0.0083
3889.00,0.0083
3888.00,0.0083
3887.00,0.0082
3886.00,0.0082
3885.00,0.0082
3884.00,0.0082
3883.00,0.0082
3882.00,0.0082
3881.00,0.0082
3880.00,0.0082
3879.00,0.0082
3878.00,0.0082
3877.00,0.0082
3876.00,0.0082
3875.00,0.0082
3874.00,0.0082
3873.00,0.0082
3872.00,0.0082
3871.00,0.0082
3870.00,0.0082
3869.00,0.0082
3868.00,0.0082
3867.00,0.0082
3866.00,0.0083
3865.00,0.0083
3864.00,0.0082
3863.00,0.0082
3862.00,0.0082
3861.00,0.0082
3860.00,0.0081
3859.00,0.0081
3858.00,0.0081
3857.00,0.0081
3856.00,0.0081
3855.00,0.0081
3854.00,0.0081
3853.00,0.0081
3852.00,0.0081
3851.00,0.0081
3850.00,0.0081
3849.00,0.0081
3848.00,0.0081
3847.00,0.0082
3846.00,0.0082
3845.00,0.0082
3844.00,0.0082
3843.00,0.0082
3842.00,0.0082
3841.00,0.0082
3840.00,0.0081
3839.00,0.0081
3838.00,0.0081
3837.00,0.0081
3836.00,0.0081
3835.00,0.0081
3834.00,0.0081
3833.00,0.0081
3832.00,0.0081
3831.00,0.0082
3830.00,0.0081
3829.00,0.0081
3828.00,0.0081
3827.00,0.0081
3826.00,0.0081
3825.00,0.0081
3824.00,0.0081
3823.00,0.0081
3822.00,0.0080
3821.00,0.0080
3820.00,0.0080
3819.00,0.0080
3818.00,0.0080
3817.00,0.0080
3816.00,0.0080
3815.00,0.0080
3814.00,0.0080
3813.00,0.0080
3812.00,0.0080
3811.00,0.0081
3810.00,0.0081
3809.00,0.0081
3808.00,0.0081
3807.00,0.0081
3806.00,0.0081
3805.00,0.0081
3804.00,0.0081
3803.00,0.0081
3802.00,0.0081
3801.00,0.0080
3800.00,0.0080
3799.00,0.0080
3798.00,0.0080
3797.00,0.0080
3796.00,0.0081
3795.00,0.0081
3794.00,0.0081
3793.00,0.0081
3792.00,0.0081
3791.00,0.0081
3790.00,0.0081
3789.00,0.0081
3788.00,0.0080
3787.00,0.0080
3786.00,0.0080
3785.00,0.0080
3784.00,0.0080
3783.00,0.0080
3782.00,0.0080
3781.00,0.0080
3780.00,0.0080
3779.00,0.0080
3778.00,0.0080
3777.00,0.0080
3776.00,0.0080
3775.00,0.0080
3774.00,0.0081
3773.00,0.0081
3772.00,0.0081
3771.00,0.0081
3770.00,0.0081
3769.00,0.0081
3768.00,0.0081
3767.00,0.0081
3766.00,0.0081
3765.00,0.0081
3764.00,0.0081
3763.00,0.0081
3762.00,0.0080
3761.00,0.0080
3760.00,0.0080
3759.00,0.0080
3758.00,0.0080
3757.00,0.0080
3756.00,0.0080
3755.00,0.0080
3754.00,0.0080
3753.00,0.0080
3752.00,0.0080
3751.00,0.0080
3750.00,0.0080
3749.00,0.0080
3748.00,0.0080
3747.00,0.0080
3746.00,0.0080
3745.00,0.0080
3744.00,0.0080
3743.00,0.0080
3742.00,0.0080
3741.00,0.0080
3740.00,0.0079
3739.00,0.0079
3738.00,0.0079
3737.00,0.0079
3736.00,0.0080
3735.00,0.0080
3734.00,0.0081
3733.00,0.0081
3732.00,0.0081
3731.00,0.0080
3730.00,0.0080
3729.00,0.0080
3728.00,0.0080
3727.00,0.0080
3726.00,0.0080
3725.00,0.0080
3724.00,0.0080
3723.00,0.0080
3722.00,0.0080
3721.00,0.0080
3720.00,0.0080
3719.00,0.0079
3718.00,0.0079
3717.00,0.0079
3716.00,0.0079
3715.00,0.0079
3714.00,0.0078
3713.00,0.0078
3712.00,0.0078
3711.00,0.0078
3710.00,0.0079
3709.00,0.0079
3708.00,0.0079
3707.00,0.0079
3706.00,0.0078
3705.00,0.0078
3704.00,0.0078
3703.00,0.0078
3702.00,0.0078
3701.00,0.0078
3700.00,0.0078
3699.00,0.0078
3698.00,0.0078
3697.00,0.0078
3696.00,0.0078
3695.00,0.0078
3694.00,0.0078
3693.00,0.0078
3692.00,0.0078
3691.00,0.0078
3690.00,0.0077
3689.00,0.0077
3688.00,0.0077
3687.00,0.0077
3686.00,0.0077
3685.00,0.0077
3684.00,0.0077
3683.00,0.0077
3682.00,0.0078
3681.00,0.0078
3680.00,0.0079
3679.00,0.0079
3678.00,0.0080
3677.00,0.0080
3676.00,0.0080
3675.00,0.0080
3674.00,0.0080
3673.00,0.0080
3672.00,0.0079
3671.00,0.0079
3670.00,0.0079
3669.00,0.0079
3668.00,0.0080
3667.00,0.0080
3666.00,0.0080
3665.00,0.0081
3664.00,0.0081
3663.00,0.0081
3662.00,0.0081
3661.00,0.0081
3660.00,0.0081
3659.00,0.0081
3658.00,0.0081
3657.00,0.0082
3656.00,0.0082
3655.00,0.0082
3654.00,0.0083
3653.00,0.0083
3652.00,0.0083
3651.00,0.0083
3650.00,0.0082
3649.00,0.0082
3648.00,0.0083
3647.00,0.0083
3646.00,0.0083
3645.00,0.0082
3644.00,0.0082
3643.00,0.0082
3642.00,0.0083
3641.00,0.0084
3640.00,0.0084
3639.00,0.0084
3638.00,0.0085
3637.00,0.0085
3636.00,0.0085
3635.00,0.0085
3634.00,0.0086
3633.00,0.0086
3632.00,0.0086
3631.00,0.0087
3630.00,0.0087
3629.00,0.0087
3628.00,0.0088
3627.00,0.0088
3626.00,0.0088
3625.00,0.0089
3624.00,0.0089
3623.00,0.0089
3622.00,0.0089
3621.00,0.0088
3620.00,0.0088
3619.00,0.0088
3618.00,0.0089
3617.00,0.0089
3616.00,0.0090
3615.00,0.0090
3614.00,0.0090
3613.00,0.0091
3612.00,0.0092
3611.00,0.0093
3610.00,0.0093
3609.00,0.0093
3608.00,0.0094
3607.00,0.0094
3606.00,0.0094
3605.00,0.0094
3604.00,0.0095
3603.00,0.0095
3602.00,0.0095
3601.00,0.0096
3600.00,0.0096
3599.00,0.0097
3598.00,0.0097
3597.00,0.0098
3596.00,0.0098
3595.00,0.0098
3594.00,0.0099
3593.00,0.0099
3592.00,0.0100
3591.00,0.0100
3590.00,0.0101
3589.00,0.0101
3588.00,0.0101
3587.00,0.0102
3586.00,0.0102
3585.00,0.0103
3584.00,0.0103
3583.00,0.0104
3582.00,0.0104
3581.00,0.0104
3580.00,0.0104
3579.00,0.0104
3578.00,0.0104
3577.00,0.0104
3576.00,0.0105
3575.00,0.0106
3574.00,0.0107
3573.00,0.0107
3572.00,0.0108
3571.00,0.0109
3570.00,0.0110
3569.00,0.0111
3568.00,0.0112
3567.00,0.0112
3566.00,0.0112
3565.00,0.0112
3564.00,0.0112
3563.00,0.0112
3562.00,0.0113
3561.00,0.0113
3560.00,0.0114
3559.00,0.0114
3558.00,0.0115
3557.00,0.0115
3556.00,0.0115
3555.00,0.0116
3554.00,0.0116
3553.00,0.0116
3552.00,0.0117
3551.00,0.0117
3550.00,0.0118
3549.00,0.0118
3548.00,0.0119
3547.00,0.0120
3546.00,0.0121
3545.00,0.0122
3544.00,0.0122
3543.00,0.0123
3542.00,0.0123
3541.00,0.0123
3540.00,0.0124
3539.00,0.0124
3538.00,0.0125
3537.00,0.0125
3536.00,0.0126
3535.00,0.0126
3534.00,0.0126
3533.00,0.0127
3532.00,0.0127
3531.00,0.0128
3530.00,0.0129
3529.00,0.0129
3528.00,0.0130
3527.00,0.0130
3526.00,0.0131
3525.00,0.0132
3524.00,0.0133
3523.00,0.0133
3522.00,0.0134
3521.00,0.0135
3520.00,0.0135
3519.00,0.0136
3518.00,0.0136
3517.00,0.0136
3516.00,0.0137
3515.00,0.0137
3514.00,0.0138
3513.00,0.0139
3512.00,0.0139
3511.00,0.0139
3510.00,0.0139
3509.00,0.0140
3508.00,0.0140
3507.00,0.0141
3506.00,0.0141
3505.00,0.0142
3504.00,0.0143
3503.00,0.0144
3502.00,0.0144
3501.00,0.0145
3500.00,0.0145
3499.00,0.0146
3498.00,0.0146
3497.00,0.0147
3496.00,0.0148
3495.00,0.0148
3494.00,0.0149
3493.00,0.0150
3492.00,0.0150
3491.00,0.0151
3490.00,0.0151
3489.00,0.0152
3488.00,0.0153
3487.00,0.0153
3486.00,0.0154
3485.00,0.0155
3484.00,0.0156
3483.00,0.0156
3482.00,0.0157
3481.00,0.0158
3480.00,0.0159
3479.00,0.0160
3478.00,0.0161
3477.00,0.0161
3476.00,0.0162
3475.00,0.0162
3474.00,0.0162
3473.00,0.0163
3472.00,0.0164
3471.00,0.0165
3470.00,0.0166
3469.00,0.0167
3468.00,0.0167
3467.00,0.0168
3466.00,0.0168
3465.00,0.0169
3464.00,0.0170
3463.00,0.0170
3462.00,0.0171
3461.00,0.0172
3460.00,0.0173
3459.00,0.0175
3458.00,0.0176
3457.00,0.0177
3456.00,0.0178
3455.00,0.0179
3454.00,0.0179
3453.00,0.0178
3452.00,0.0178
3451.00,0.0179
3450.00,0.0180
3449.00,0.0181
3448.00,0.0181
3447.00,0.0182
3446.00,0.0183
3445.00,0.0183
3444.00,0.0184
3443.00,0.0185
3442.00,0.0185
3441.00,0.0186
3440.00,0.0187
3439.00,0.0188
3438.00,0.0189
3437.00,0.0190
3436.00,0.0190
3435.00,0.0191
3434.00,0.0192
3433.00,0.0193
3432.00,0.0194
3431.00,0.0195
3430.00,0.0196
3429.00,0.0197
3428.00,0.0198
3427.00,0.0199
3426.00,0.0200
3425.00,0.0200
3424.00,0.0201
3423.00,0.0202
3422.00,0.0203
3421.00,0.0204
3420.00,0.0205
3419.00,0.0206
3418.00,0.0207
3417.00,0.0208
3416.00,0.0209
3415.00,0.0210
3414.00,0.0211
3413.00,0.0211
3412.00,0.0212
3411.00,0.0213
3410.00,0.0213
3409.00,0.0214
3408.00,0.0215
3407.00,0.0216
3406.00,0.0217
3405.00,0.0217
3404.00,0.0218
3403.00,0.0219
3402.00,0.0220
3401.00,0.0221
3400.00,0.0222
3399.00,0.0223
3398.00,0.0224
3397.00,0.0225
3396.00,0.0226
3395.00,0.0226
3394.00,0.0227
3393.00,0.0228
3392.00,0.0229
3391.00,0.0230
3390.00,0.0231
3389.00,0.0232
3388.00,0.0233
3387.00,0.0234
3386.00,0.0235
3385.00,0.0236
3384.00,0.0237
3383.00,0.0238
3382.00,0.0238
3381.00,0.0239
3380.00,0.0240
3379.00,0.0241
3378.00,0.0243
3377.00,0.0244
3376.00,0.0245
3375.00,0.0246
3374.00,0.0247
3373.00,0.0248
3372.00,0.0249
3371.00,0.0250
3370.00,0.0251
3369.00,0.0252
3368.00,0.0254
3367.00,0.0255
3366.00,0.0256
3365.00,0.0258
3364.00,0.0260
3363.00,0.0261
3362.00,0.0263
3361.00,0.0264
3360.00,0.0265
3359.00,0.0266
3358.00,0.0267
3357.00,0.0269
3356.00,0.0270
3355.00,0.0272
3354.00,0.0273
3353.00,0.0275
3352.00,0.0276
3351.00,0.0278
3350.00,0.0279
3349.00,0.0281
3348.00,0.0283
3347.00,0.0284
3346.00,0.0286
3345.00,0.0288
3344.00,0.0289
3343.00,0.0291
3342.00,0.0293
3341.00,0.0295
3340.00,0.0296
3339.00,0.0298
3338.00,0.0300
3337.00,0.0302
3336.00,0.0304
3335.00,0.0305
3334.00,0.0307
3333.00,0.0308
3332.00,0.0309
3331.00,0.0311
3330.00,0.0313
3329.00,0.0315
3328.00,0.0317
3327.00,0.0319
3326.00,0.0321
3325.00,0.0323
3324.00,0.0325
3323.00,0.0327
3322.00,0.0329
3321.00,0.0331
3320.00,0.0333
3319.00,0.0335
3318.00,0.0337
3317.00,0.0339
3316.00,0.0341
3315.00,0.0342
3314.00,0.0344
3313.00,0.0346
3312.00,0.0348
3311.00,0.0350
3310.00,0.0352
3309.00,0.0354
3308.00,0.0356
3307.00,0.0358
3306.00,0.0360
3305.00,0.0362
3304.00,0.0364
3303.00,0.0367
3302.00,0.0369
3301.00,0.0371
3300.00,0.0373
3299.00,0.0375
3298.00,0.0377
3297.00,0.0379
3296.00,0.0380
3295.00,0.0382
3294.00,0.0384
3293.00,0.0385
3292.00,0.0387
3291.00,0.0388
3290.00,0.0390
3289.00,0.0391
3288.00,0.0393
3287.00,0.0394
3286.00,0.0396
3285.00,0.0397
3284.00,0.0398
3283.00,0.0399
3282.00,0.0399
3281.00,0.0400
3280.00,0.0400
3279.00,0.0400
3278.00,0.0400
3277.00,0.0400
3276.00,0.0400
3275.00,0.0400
3274.00,0.0399
3273.00,0.0398
3272.00,0.0397
3271.00,0.0397
3270.00,0.0396
3269.00,0.0395
3268.00,0.0394
3267.00,0.0392
3266.00,0.0391
3265.00,0.0389
3264.00,0.0387
3263.00,0.0386
3262.00,0.0384
3261.00,0.0382
3260.00,0.0380
3259.00,0.0378
3258.00,0.0376
3257.00,0.0374
3256.00,0.0372
3255.00,0.0371
3254.00,0.0369
3253.00,0.0367
3252.00,0.0365
3251.00,0.0363
3250.00,0.0361
3249.00,0.0359
3248.00,0.0357
3247.00,0.0356
3246.00,0.0354
3245.00,0.0352
3244.00,0.0351
3243.00,0.0349
3242.00,0.0347
3241.00,0.0346
3240.00,0.0344
3239.00,0.0342
3238.00,0.0341
3237.00,0.0339
3236.00,0.0338
3235.00,0.0336
3234.00,0.0335
3233.00,0.0334
3232.00,0.0333
3231.00,0.0331
3230.00,0.0330
3229.00,0.0328
3228.00,0.0327
3227.00,0.0326
3226.00,0.0325
3225.00,0.0324
3224.00,0.0323
3223.00,0.0321
3222.00,0.0320
3221.00,0.0319
3220.00,0.0318
3219.00,0.0317
3218.00,0.0316
3217.00,0.0315
3216.00,0.0314
3215.00,0.0313
3214.00,0.0312
3213.00,0.0311
3212.00,0.0310
3211.00,0.0309
3210.00,0.0308
3209.00,0.0307
3208.00,0.0306
3207.00,0.0305
3206.00,0.0304
3205.00,0.0303
3204.00,0.0302
3203.00,0.0301
3202.00,0.0300
3201.00,0.0300
3200.00,0.0299
3199.00,0.0298
3198.00,0.0297
3197.00,0.0296
3196.00,0.0295
3195.00,0.0293
3194.00,0.0292
3193.00,0.0291
3192.00,0.0290
3191.00,0.0288
3190.00,0.0287
3189.00,0.0286
3188.00,0.0285
3187.00,0.0284
3186.00,0.0283
3185.00,0.0282
3184.00,0.0281
3183.00,0.0280
3182.00,0.0278
3181.00,0.0277
3180.00,0.0276
3179.00,0.0275
3178.00,0.0273
3177.00,0.0272
3176.00,0.0272
3175.00,0.0271
3174.00,0.0269
3173.00,0.0267
3172.00,0.0266
3171.00,0.0264
3170.00,0.0263
3169.00,0.0262
3168.00,0.0261
3167.00,0.0259
3166.00,0.0258
3165.00,0.0257
3164.00,0.0255
3163.00,0.0254
3162.00,0.0253
3161.00,0.0252
3160.00,0.0251
3159.00,0.0250
3158.00,0.0249
3157.00,0.0248
3156.00,0.0247
3155.00,0.0246
3154.00,0.0245
3153.00,0.0244
3152.00,0.0242
3151.00,0.0241
3150.00,0.0240
3149.00,0.0239
3148.00,0.0238
3147.00,0.0238
3146.00,0.0237
3145.00,0.0236
3144.00,0.0235
3143.00,0.0235
3142.00,0.0234
3141.00,0.0233
3140.00,0.0232
3139.00,0.0231
3138.00,0.0230
3137.00,0.0229
3136.00,0.0228
3135.00,0.0227
3134.00,0.0226
3133.00,0.0225
3132.00,0.0225
3131.00,0.0224
3130.00,0.0224
3129.00,0.0224
3128.00,0.0223
3127.00,0.0223
3126.00,0.0222
3125.00,0.0221
3124.00,0.0221
3123.00,0.0220
3122.00,0.0220
3121.00,0.0219
3120.00,0.0219
3119.00,0.0219
3118.00,0.0219
3117.00,0.0218
3116.00,0.0218
3115.00,0.0218
3114.00,0.0218
3113.00,0.0218
3112.00,0.0217
3111.00,0.0217
3110.00,0.0217
3109.00,0.0217
3108.00,0.0218
3107.00,0.0218
3106.00,0.0218
3105.00,0.0218
3104.00,0.0218
3103.00,0.0219
3102.00,0.0219
3101.00,0.0219
3100.00,0.0220
3099.00,0.0220
3098.00,0.0220
3097.00,0.0220
3096.00,0.0220
3095.00,0.0220
3094.00,0.0221
3093.00,0.0221
3092.00,0.0221
3091.00,0.0222
3090.00,0.0222
3089.00,0.0222
3088.00,0.0222
3087.00,0.0223
3086.00,0.0223
3085.00,0.0224
3084.00,0.0224
3083.00,0.0224
3082.00,0.0224
3081.00,0.0224
3080.00,0.0224
3079.00,0.0224
3078.00,0.0225
3077.00,0.0225
3076.00,0.0226
3075.00,0.0226
3074.00,0.0226
3073.00,0.0226
3072.00,0.0226
3071.00,0.0226
3070.00,0.0226
3069.00,0.0226
3068.00,0.0226
3067.00,0.0226
3066.00,0.0226
3065.00,0.0226
3064.00,0.0226
3063.00,0.0226
3062.00,0.0227
3061.00,0.0226
3060.00,0.0226
3059.00,0.0225
3058.00,0.0224
3057.00,0.0224
3056.00,0.0223
3055.00,0.0222
3054.00,0.0222
3053.00,0.0221
3052.00,0.0221
3051.00,0.0220
3050.00,0.0220
3049.00,0.0220
3048.00,0.0219
3047.00,0.0218
3046.00,0.0218
3045.00,0.0217
3044.00,0.0216
3043.00,0.0215
3042.00,0.0215
3041.00,0.0214
3040.00,0.0213
3039.00,0.0213
3038.00,0.0212
3037.00,0.0211
3036.00,0.0210
3035.00,0.0209
3034.00,0.0208
3033.00,0.0207
3032.00,0.0206
3031.00,0.0206
3030.00,0.0205
3029.00,0.0205
3028.00,0.0205
3027.00,0.0204
3026.00,0.0203
3025.00,0.0203
3024.00,0.0202
3023.00,0.0200
3022.00,0.0199
3021.00,0.0198
3020.00,0.0196
3019.00,0.0195
3018.00,0.0194
3017.00,0.0194
3016.00,0.0193
3015.00,0.0193
3014.00,0.0193
3013.00,0.0193
3012.00,0.0193
3011.00,0.0193
3010.00,0.0193
3009.00,0.0193
3008.00,0.0193
3007.00,0.0192
3006.00,0.0192
3005.00,0.0191
3004.00,0.0191
3003.00,0.0191
3002.00,0.0191
3001.00,0.0191
3000.00,0.0191
2999.00,0.0191
2998.00,0.0192
2997.00,0.0192
2996.00,0.0193
2995.00,0.0193
2994.00,0.0194
2993.00,0.0195
2992.00,0.0195
2991.00,0.0196
2990.00,0.0197
2989.00,0.0199
2988.00,0.0200
2987.00,0.0201
2986.00,0.0202
2985.00,0.0203
2984.00,0.0204
2983.00,0.0206
2982.00,0.0207
2981.00,0.0208
2980.00,0.0209
2979.00,0.0211
2978.00,0.0212
2977.00,0.0213
2976.00,0.0214
2975.00,0.0215
2974.00,0.0216
2973.00,0.0218
2972.00,0.0219
2971.00,0.0220
2970.00,0.0221
2969.00,0.0222
2968.00,0.0223
2967.00,0.0224
2966.00,0.0225
2965.00,0.0226
2964.00,0.0226
2963.00,0.0226
2962.00,0.0227
2961.00,0.0227
2960.00,0.0227
2959.00,0.0227
2958.00,0.0227
2957.00,0.0226
2956.00,0.0225
2955.00,0.0225
2954.00,0.0224
2953.00,0.0224
2952.00,0.0223
2951.00,0.0222
2950.00,0.0222
2949.00,0.0222
2948.00,0.0222
2947.00,0.0222
2946.00,0.0223
2945.00,0.0224
2944.00,0.0225
2943.00,0.0227
2942.00,0.0228
2941.00,0.0230
2940.00,0.0231
2939.00,0.0233
2938.00,0.0235
2937.00,0.0236
2936.00,0.0238
2935.00,0.0239
2934.00,0.0241
2933.00,0.0242
2932.00,0.0243
2931.00,0.0244
2930.00,0.0245
2929.00,0.0246
2928.00,0.0247
2927.00,0.0248
2926.00,0.0250
2925.00,0.0251
2924.00,0.0253
2923.00,0.0255
2922.00,0.0257
2921.00,0.0259
2920.00,0.0261
2919.00,0.0262
2918.00,0.0262
2917.00,0.0261
2916.00,0.0259
2915.00,0.0255
2914.00,0.0251
2913.00,0.0245
2912.00,0.0240
2911.00,0.0235
2910.00,0.0231
2909.00,0.0228
2908.00,0.0225
2907.00,0.0223
2906.00,0.0220
2905.00,0.0219
2904.00,0.0217
2903.00,0.0216
2902.00,0.0215
2901.00,0.0213
2900.00,0.0212
2899.00,0.0211
2898.00,0.0210
2897.00,0.0210
2896.00,0.0209
2895.00,0.0208
2894.00,0.0207
2893.00,0.0207
2892.00,0.0206
2891.00,0.0205
2890.00,0.0204
2889.00,0.0204
2888.00,0.0204
2887.00,0.0203
2886.00,0.0204
2885.00,0.0204
2884.00,0.0204
2883.00,0.0204
2882.00,0.0204
2881.00,0.0204
2880.00,0.0205
2879.00,0.0205
2878.00,0.0205
2877.00,0.0205
2876.00,0.0206
2875.00,0.0206
2874.00,0.0205
2873.00,0.0205
2872.00,0.0204
2871.00,0.0204
2870.00,0.0203
2869.00,0.0202
2868.00,0.0200
2867.00,0.0199
2866.00,0.0197
2865.00,0.0196
2864.00,0.0195
2863.00,0.0194
2862.00,0.0193
2861.00,0.0193
2860.00,0.0193
2859.00,0.0194
2858.00,0.0195
2857.00,0.0196
2856.00,0.0197
2855.00,0.0199
2854.00,0.0201
2853.00,0.0204
2852.00,0.0206
2851.00,0.0209
2850.00,0.0210
2849.00,0.0209
2848.00,0.0207
2847.00,0.0203
2846.00,0.0199
2845.00,0.0194
2844.00,0.0190
2843.00,0.0186
2842.00,0.0183
2841.00,0.0181
2840.00,0.0179
2839.00,0.0177
2838.00,0.0176
2837.00,0.0175
2836.00,0.0174
2835.00,0.0173
2834.00,0.0172
2833.00,0.0171
2832.00,0.0171
2831.00,0.0170
2830.00,0.0170
2829.00,0.0169
2828.00,0.0169
2827.00,0.0168
2826.00,0.0168
2825.00,0.0167
2824.00,0.0166
2823.00,0.0166
2822.00,0.0166
2821.00,0.0166
2820.00,0.0166
2819.00,0.0165
2818.00,0.0165
2817.00,0.0164
2816.00,0.0164
2815.00,0.0163
2814.00,0.0163
2813.00,0.0163
2812.00,0.0162
2811.00,0.0162
2810.00,0.0162
2809.00,0.0162
2808.00,0.0161
2807.00,0.0161
2806.00,0.0160
2805.00,0.0160
2804.00,0.0160
2803.00,0.0160
2802.00,0.0159
2801.00,0.0159
2800.00,0.0159
2799.00,0.0158
2798.00,0.0158
2797.00,0.0157
2796.00,0.0157
2795.00,0.0157
2794.00,0.0157
2793.00,0.0156
2792.00,0.0156
2791.00,0.0156
2790.00,0.0156
2789.00,0.0155
2788.00,0.0155
2787.00,0.0155
2786.00,0.0155
2785.00,0.0154
2784.00,0.0154
2783.00,0.0154
2782.00,0.0154
2781.00,0.0153
2780.00,0.0153
2779.00,0.0153
2778.00,0.0153
2777.00,0.0152
2776.00,0.0152
2775.00,0.0152
2774.00,0.0152
2773.00,0.0151
2772.00,0.0151
2771.00,0.0151
2770.00,0.0151
2769.00,0.0150
2768.00,0.0150
2767.00,0.0150
2766.00,0.0149
2765.00,0.0149
2764.00,0.0149
2763.00,0.0149
2762.00,0.0149
2761.00,0.0149
2760.00,0.0149
2759.00,0.0148
2758.00,0.0148
2757.00,0.0148
