Created as New Dataset,Sample 391 By YargerLab Date Tuesday, December 02 2025
cm-1,A
4000.00,0.0005
3999.00,0.0005
3998.00,0.0005
3997.00,0.0005
3996.00,0.0005
3995.00,0.0005
3994.00,0.0004
3993.00,0.0004
3992.00,0.0004
3991.00,0.0004
3990.00,0.0005
3989.00,0.0005
3988.00,0.0005
3987.00,0.0005
3986.00,0.0005
3985.00,0.0004
3984.00,0.0004
3983.00,0.0004
3982.00,0.0004
3981.00,0.0004
3980.00,0.0004
3979.00,0.0005
3978.00,0.0005
3977.00,0.0005
3976.00,0.0005
3975.00,0.0005
3974.00,0.0005
3973.00,0.0005
3972.00,0.0005
3971.00,0.0004
3970.00,0.0004
3969.00,0.0004
3968.00,0.0004
3967.00,0.0004
3966.00,0.0004
3965.00,0.0004
3964.00,0.0004
3963.00,0.0004
3962.00,0.0005
3961.00,0.0005
3960.00,0.0005
3959.00,0.0005
3958.00,0.0004
3957.00,0.0004
3956.00,0.0005
3955.00,0.0005
3954.00,0.0005
3953.00,0.0005
3952.00,0.0005
3951.00,0.0005
3950.00,0.0005
3949.00,0.0005
3948.00,0.0005
3947.00,0.0005
3946.00,0.0005
3945.00,0.0005
3944.00,0.0005
3943.00,0.0005
3942.00,0.0005
3941.00,0.0005
3940.00,0.0005
3939.00,0.0005
3938.00,0.0005
3937.00,0.0005
3936.00,0.0005
3935.00,0.0005
3934.00,0.0005
3933.00,0.0005
3932.00,0.0005
3931.00,0.0004
3930.00,0.0004
3929.00,0.0004
3928.00,0.0004
3927.00,0.0005
3926.00,0.0005
3925.00,0.0005
3924.00,0.0004
3923.00,0.0004
3922.00,0.0005
3921.00,0.0005
3920.00,0.0005
3919.00,0.0005
3918.00,0.0005
3917.00,0.0005
3916.00,0.0005
3915.00,0.0005
3914.00,0.0005
3913.00,0.0005
3912.00,0.0005
3911.00,0.0004
3910.00,0.0004
3909.00,0.0004
3908.00,0.0005
3907.00,0.0005
3906.00,0.0005
3905.00,0.0005
3904.00,0.0005
3903.00,0.0006
3902.00,0.0006
3901.00,0.0006
3900.00,0.0006
3899.00,0.0006
3898.00,0.0006
3897.00,0.0006
3896.00,0.0005
3895.00,0.0005
3894.00,0.0005
3893.00,0.0005
3892.00,0.0005
3891.00,0.0005
3890.00,0.0005
3889.00,0.0005
3888.00,0.0005
3887.00,0.0005
3886.00,0.0005
3885.00,0.0005
3884.00,0.0005
3883.00,0.0005
3882.00,0.0005
3881.00,0.0005
3880.00,0.0005
3879.00,0.0005
3878.00,0.0005
3877.00,0.0005
3876.00,0.0005
3875.00,0.0005
3874.00,0.0004
3873.00,0.0004
3872.00,0.0005
3871.00,0.0005
3870.00,0.0005
3869.00,0.0005
3868.00,0.0005
3867.00,0.0005
3866.00,0.0005
3865.00,0.0006
3864.00,0.0006
3863.00,0.0005
3862.00,0.0005
3861.00,0.0005
3860.00,0.0005
3859.00,0.0005
3858.00,0.0005
3857.00,0.0006
3856.00,0.0006
3855.00,0.0007
3854.00,0.0007
3853.00,0.0007
3852.00,0.0008
3851.00,0.0008
3850.00,0.0007
3849.00,0.0006
3848.00,0.0006
3847.00,0.0005
3846.00,0.0005
3845.00,0.0005
3844.00,0.0005
3843.00,0.0005
3842.00,0.0005
3841.00,0.0005
3840.00,0.0005
3839.00,0.0005
3838.00,0.0005
3837.00,0.0006
3836.00,0.0006
3835.00,0.0006
3834.00,0.0005
3833.00,0.0005
3832.00,0.0005
3831.00,0.0005
3830.00,0.0005
3829.00,0.0005
3828.00,0.0005
3827.00,0.0005
3826.00,0.0005
3825.00,0.0005
3824.00,0.0005
3823.00,0.0005
3822.00,0.0006
3821.00,0.0006
3820.00,0.0006
3819.00,0.0007
3818.00,0.0007
3817.00,0.0006
3816.00,0.0006
3815.00,0.0006
3814.00,0.0006
3813.00,0.0006
3812.00,0.0005
3811.00,0.0005
3810.00,0.0005
3809.00,0.0005
3808.00,0.0005
3807.00,0.0005
3806.00,0.0006
3805.00,0.0006
3804.00,0.0006
3803.00,0.0006
3802.00,0.0006
3801.00,0.0006
3800.00,0.0006
3799.00,0.0006
3798.00,0.0007
3797.00,0.0006
3796.00,0.0006
3795.00,0.0005
3794.00,0.0005
3793.00,0.0005
3792.00,0.0005
3791.00,0.0005
3790.00,0.0005
3789.00,0.0005
3788.00,0.0005
3787.00,0.0005
3786.00,0.0005
3785.00,0.0005
3784.00,0.0005
3783.00,0.0005
3782.00,0.0005
3781.00,0.0005
3780.00,0.0005
3779.00,0.0005
3778.00,0.0005
3777.00,0.0005
3776.00,0.0005
3775.00,0.0005
3774.00,0.0005
3773.00,0.0005
3772.00,0.0005
3771.00,0.0005
3770.00,0.0005
3769.00,0.0005
3768.00,0.0005
3767.00,0.0005
3766.00,0.0005
3765.00,0.0005
3764.00,0.0005
3763.00,0.0005
3762.00,0.0005
3761.00,0.0005
3760.00,0.0005
3759.00,0.0005
3758.00,0.0005
3757.00,0.0005
3756.00,0.0006
3755.00,0.0006
3754.00,0.0006
3753.00,0.0006
3752.00,0.0007
3751.00,0.0007
3750.00,0.0007
3749.00,0.0007
3748.00,0.0007
3747.00,0.0007
3746.00,0.0007
3745.00,0.0007
3744.00,0.0007
3743.00,0.0007
3742.00,0.0007
3741.00,0.0007
3740.00,0.0006
3739.00,0.0006
3738.00,0.0005
3737.00,0.0005
3736.00,0.0005
3735.00,0.0005
3734.00,0.0005
3733.00,0.0005
3732.00,0.0005
3731.00,0.0005
3730.00,0.0005
3729.00,0.0005
3728.00,0.0005
3727.00,0.0005
3726.00,0.0005
3725.00,0.0005
3724.00,0.0005
3723.00,0.0005
3722.00,0.0005
3721.00,0.0005
3720.00,0.0005
3719.00,0.0005
3718.00,0.0005
3717.00,0.0005
3716.00,0.0005
3715.00,0.0005
3714.00,0.0005
3713.00,0.0006
3712.00,0.0006
3711.00,0.0006
3710.00,0.0005
3709.00,0.0005
3708.00,0.0005
3707.00,0.0005
3706.00,0.0005
3705.00,0.0005
3704.00,0.0005
3703.00,0.0005
3702.00,0.0005
3701.00,0.0005
3700.00,0.0005
3699.00,0.0005
3698.00,0.0005
3697.00,0.0005
3696.00,0.0005
3695.00,0.0005
3694.00,0.0005
3693.00,0.0006
3692.00,0.0006
3691.00,0.0006
3690.00,0.0005
3689.00,0.0005
3688.00,0.0005
3687.00,0.0005
3686.00,0.0005
3685.00,0.0005
3684.00,0.0005
3683.00,0.0005
3682.00,0.0004
3681.00,0.0004
3680.00,0.0005
3679.00,0.0005
3678.00,0.0006
3677.00,0.0006
3676.00,0.0006
3675.00,0.0005
3674.00,0.0006
3673.00,0.0006
3672.00,0.0006
3671.00,0.0006
3670.00,0.0005
3669.00,0.0005
3668.00,0.0005
3667.00,0.0005
3666.00,0.0005
3665.00,0.0005
3664.00,0.0005
3663.00,0.0005
3662.00,0.0005
3661.00,0.0005
3660.00,0.0005
3659.00,0.0005
3658.00,0.0005
3657.00,0.0005
3656.00,0.0005
3655.00,0.0006
3654.00,0.0006
3653.00,0.0007
3652.00,0.0007
3651.00,0.0007
3650.00,0.0007
3649.00,0.0007
3648.00,0.0007
3647.00,0.0007
3646.00,0.0007
3645.00,0.0007
3644.00,0.0006
3643.00,0.0006
3642.00,0.0006
3641.00,0.0006
3640.00,0.0006
3639.00,0.0005
3638.00,0.0005
3637.00,0.0005
3636.00,0.0005
3635.00,0.0005
3634.00,0.0005
3633.00,0.0006
3632.00,0.0006
3631.00,0.0006
3630.00,0.0006
3629.00,0.0006
3628.00,0.0006
3627.00,0.0007
3626.00,0.0007
3625.00,0.0007
3624.00,0.0006
3623.00,0.0007
3622.00,0.0007
3621.00,0.0007
3620.00,0.0007
3619.00,0.0006
3618.00,0.0006
3617.00,0.0006
3616.00,0.0007
3615.00,0.0007
3614.00,0.0007
3613.00,0.0007
3612.00,0.0007
3611.00,0.0007
3610.00,0.0007
3609.00,0.0007
3608.00,0.0008
3607.00,0.0008
3606.00,0.0008
3605.00,0.0008
3604.00,0.0008
3603.00,0.0008
3602.00,0.0008
3601.00,0.0008
3600.00,0.0008
3599.00,0.0008
3598.00,0.0008
3597.00,0.0008
3596.00,0.0007
3595.00,0.0007
3594.00,0.0007
3593.00,0.0007
3592.00,0.0007
3591.00,0.0008
3590.00,0.0008
3589.00,0.0008
3588.00,0.0008
3587.00,0.0008
3586.00,0.0008
3585.00,0.0008
3584.00,0.0008
3583.00,0.0008
3582.00,0.0008
3581.00,0.0008
3580.00,0.0008
3579.00,0.0008
3578.00,0.0008
3577.00,0.0008
3576.00,0.0008
3575.00,0.0008
3574.00,0.0009
3573.00,0.0009
3572.00,0.0009
3571.00,0.0009
3570.00,0.0009
3569.00,0.0009
3568.00,0.0009
3567.00,0.0009
3566.00,0.0009
3565.00,0.0010
3564.00,0.0010
3563.00,0.0010
3562.00,0.0010
3561.00,0.0010
3560.00,0.0010
3559.00,0.0010
3558.00,0.0011
3557.00,0.0011
3556.00,0.0010
3555.00,0.0010
3554.00,0.0010
3553.00,0.0010
3552.00,0.0011
3551.00,0.0011
3550.00,0.0011
3549.00,0.0011
3548.00,0.0011
3547.00,0.0012
3546.00,0.0012
3545.00,0.0012
3544.00,0.0012
3543.00,0.0013
3542.00,0.0013
3541.00,0.0013
3540.00,0.0012
3539.00,0.0012
3538.00,0.0012
3537.00,0.0012
3536.00,0.0012
3535.00,0.0012
3534.00,0.0012
3533.00,0.0012
3532.00,0.0013
3531.00,0.0013
3530.00,0.0013
3529.00,0.0013
3528.00,0.0013
3527.00,0.0013
3526.00,0.0013
3525.00,0.0013
3524.00,0.0013
3523.00,0.0013
3522.00,0.0013
3521.00,0.0013
3520.00,0.0013
3519.00,0.0014
3518.00,0.0014
3517.00,0.0014
3516.00,0.0014
3515.00,0.0014
3514.00,0.0014
3513.00,0.0014
3512.00,0.0014
3511.00,0.0014
3510.00,0.0015
3509.00,0.0015
3508.00,0.0015
3507.00,0.0015
3506.00,0.0015
3505.00,0.0015
3504.00,0.0015
3503.00,0.0015
3502.00,0.0015
3501.00,0.0016
3500.00,0.0016
3499.00,0.0016
3498.00,0.0016
3497.00,0.0016
3496.00,0.0016
3495.00,0.0016
3494.00,0.0016
3493.00,0.0016
3492.00,0.0017
3491.00,0.0017
3490.00,0.0017
3489.00,0.0017
3488.00,0.0017
3487.00,0.0017
3486.00,0.0017
3485.00,0.0017
3484.00,0.0017
3483.00,0.0017
3482.00,0.0017
3481.00,0.0017
3480.00,0.0017
3479.00,0.0017
3478.00,0.0017
3477.00,0.0017
3476.00,0.0017
3475.00,0.0017
3474.00,0.0017
3473.00,0.0017
3472.00,0.0018
3471.00,0.0018
3470.00,0.0018
3469.00,0.0018
3468.00,0.0018
3467.00,0.0018
3466.00,0.0018
3465.00,0.0019
3464.00,0.0019
3463.00,0.0019
3462.00,0.0019
3461.00,0.0019
3460.00,0.0019
3459.00,0.0019
3458.00,0.0019
3457.00,0.0019
3456.00,0.0020
3455.00,0.0020
3454.00,0.0020
3453.00,0.0020
3452.00,0.0019
3451.00,0.0019
3450.00,0.0019
3449.00,0.0019
3448.00,0.0019
3447.00,0.0019
3446.00,0.0019
3445.00,0.0020
3444.00,0.0020
3443.00,0.0020
3442.00,0.0020
3441.00,0.0020
3440.00,0.0020
3439.00,0.0020
3438.00,0.0020
3437.00,0.0020
3436.00,0.0020
3435.00,0.0020
3434.00,0.0020
3433.00,0.0020
3432.00,0.0020
3431.00,0.0021
3430.00,0.0021
3429.00,0.0021
3428.00,0.0021
3427.00,0.0021
3426.00,0.0021
3425.00,0.0021
3424.00,0.0021
3423.00,0.0021
3422.00,0.0021
3421.00,0.0021
3420.00,0.0021
3419.00,0.0021
3418.00,0.0022
3417.00,0.0022
3416.00,0.0022
3415.00,0.0022
3414.00,0.0022
3413.00,0.0022
3412.00,0.0022
3411.00,0.0022
3410.00,0.0022
3409.00,0.0022
3408.00,0.0022
3407.00,0.0022
3406.00,0.0022
3405.00,0.0022
3404.00,0.0022
3403.00,0.0022
3402.00,0.0022
3401.00,0.0022
3400.00,0.0022
3399.00,0.0022
3398.00,0.0022
3397.00,0.0023
3396.00,0.0023
3395.00,0.0023
3394.00,0.0023
3393.00,0.0023
3392.00,0.0023
3391.00,0.0023
3390.00,0.0023
3389.00,0.0023
3388.00,0.0023
3387.00,0.0023
3386.00,0.0023
3385.00,0.0023
3384.00,0.0023
3383.00,0.0023
3382.00,0.0023
3381.00,0.0023
3380.00,0.0024
3379.00,0.0024
3378.00,0.0024
3377.00,0.0024
3376.00,0.0024
3375.00,0.0024
3374.00,0.0024
3373.00,0.0025
3372.00,0.0025
3371.00,0.0025
3370.00,0.0025
3369.00,0.0025
3368.00,0.0025
3367.00,0.0025
3366.00,0.0025
3365.00,0.0025
3364.00,0.0025
3363.00,0.0025
3362.00,0.0025
3361.00,0.0025
3360.00,0.0025
3359.00,0.0025
3358.00,0.0025
3357.00,0.0025
3356.00,0.0025
3355.00,0.0026
3354.00,0.0026
3353.00,0.0026
3352.00,0.0026
3351.00,0.0026
3350.00,0.0026
3349.00,0.0026
3348.00,0.0026
3347.00,0.0026
3346.00,0.0026
3345.00,0.0026
3344.00,0.0027
3343.00,0.0027
3342.00,0.0026
3341.00,0.0026
3340.00,0.0026
3339.00,0.0026
3338.00,0.0026
3337.00,0.0027
3336.00,0.0027
3335.00,0.0027
3334.00,0.0027
3333.00,0.0027
3332.00,0.0027
3331.00,0.0027
3330.00,0.0027
3329.00,0.0027
3328.00,0.0027
3327.00,0.0027
3326.00,0.0027
3325.00,0.0027
3324.00,0.0027
3323.00,0.0027
3322.00,0.0027
3321.00,0.0028
3320.00,0.0028
3319.00,0.0028
3318.00,0.0028
3317.00,0.0028
3316.00,0.0028
3315.00,0.0028
3314.00,0.0028
3313.00,0.0028
3312.00,0.0028
3311.00,0.0029
3310.00,0.0029
3309.00,0.0029
3308.00,0.0028
3307.00,0.0028
3306.00,0.0028
3305.00,0.0029
3304.00,0.0029
3303.00,0.0029
3302.00,0.0029
3301.00,0.0029
3300.00,0.0029
3299.00,0.0029
3298.00,0.0029
3297.00,0.0029
3296.00,0.0029
3295.00,0.0029
3294.00,0.0029
3293.00,0.0029
3292.00,0.0030
3291.00,0.0030
3290.00,0.0030
3289.00,0.0030
3288.00,0.0029
3287.00,0.0029
3286.00,0.0029
3285.00,0.0029
3284.00,0.0029
3283.00,0.0029
3282.00,0.0029
3281.00,0.0029
3280.00,0.0029
3279.00,0.0029
3278.00,0.0029
3277.00,0.0028
3276.00,0.0028
3275.00,0.0028
3274.00,0.0028
3273.00,0.0028
3272.00,0.0029
3271.00,0.0029
3270.00,0.0029
3269.00,0.0029
3268.00,0.0029
3267.00,0.0029
3266.00,0.0029
3265.00,0.0028
3264.00,0.0028
3263.00,0.0028
3262.00,0.0028
3261.00,0.0028
3260.00,0.0027
3259.00,0.0027
3258.00,0.0027
3257.00,0.0027
3256.00,0.0027
3255.00,0.0027
3254.00,0.0026
3253.00,0.0026
3252.00,0.0025
3251.00,0.0026
3250.00,0.0026
3249.00,0.0026
3248.00,0.0027
3247.00,0.0027
3246.00,0.0026
3245.00,0.0026
3244.00,0.0026
3243.00,0.0026
3242.00,0.0026
3241.00,0.0026
3240.00,0.0026
3239.00,0.0026
3238.00,0.0026
3237.00,0.0025
3236.00,0.0025
3235.00,0.0025
3234.00,0.0025
3233.00,0.0025
3232.00,0.0025
3231.00,0.0025
3230.00,0.0025
3229.00,0.0025
3228.00,0.0025
3227.00,0.0025
3226.00,0.0025
3225.00,0.0025
3224.00,0.0025
3223.00,0.0025
3222.00,0.0024
3221.00,0.0024
3220.00,0.0024
3219.00,0.0024
3218.00,0.0024
3217.00,0.0024
3216.00,0.0024
3215.00,0.0024
3214.00,0.0024
3213.00,0.0024
3212.00,0.0024
3211.00,0.0024
3210.00,0.0024
3209.00,0.0024
3208.00,0.0024
3207.00,0.0024
3206.00,0.0024
3205.00,0.0024
3204.00,0.0024
3203.00,0.0024
3202.00,0.0024
3201.00,0.0024
3200.00,0.0025
3199.00,0.0025
3198.00,0.0024
3197.00,0.0024
3196.00,0.0024
3195.00,0.0023
3194.00,0.0023
3193.00,0.0023
3192.00,0.0023
3191.00,0.0023
3190.00,0.0023
3189.00,0.0023
3188.00,0.0023
3187.00,0.0023
3186.00,0.0023
3185.00,0.0022
3184.00,0.0022
3183.00,0.0022
3182.00,0.0022
3181.00,0.0022
3180.00,0.0022
3179.00,0.0022
3178.00,0.0022
3177.00,0.0022
3176.00,0.0022
3175.00,0.0022
3174.00,0.0022
3173.00,0.0022
3172.00,0.0022
3171.00,0.0022
3170.00,0.0022
3169.00,0.0022
3168.00,0.0022
3167.00,0.0022
3166.00,0.0022
3165.00,0.0022
3164.00,0.0022
3163.00,0.0022
3162.00,0.0022
3161.00,0.0022
3160.00,0.0022
3159.00,0.0022
3158.00,0.0022
3157.00,0.0022
3156.00,0.0022
3155.00,0.0021
3154.00,0.0021
3153.00,0.0021
3152.00,0.0021
3151.00,0.0021
3150.00,0.0021
3149.00,0.0021
3148.00,0.0021
3147.00,0.0020
3146.00,0.0020
3145.00,0.0020
3144.00,0.0020
3143.00,0.0020
3142.00,0.0020
3141.00,0.0020
3140.00,0.0020
3139.00,0.0020
3138.00,0.0021
3137.00,0.0021
3136.00,0.0021
3135.00,0.0020
3134.00,0.0020
3133.00,0.0020
3132.00,0.0020
3131.00,0.0020
3130.00,0.0020
3129.00,0.0020
3128.00,0.0020
3127.00,0.0020
3126.00,0.0020
3125.00,0.0020
3124.00,0.0020
3123.00,0.0020
3122.00,0.0020
3121.00,0.0020
3120.00,0.0020
3119.00,0.0021
3118.00,0.0021
3117.00,0.0021
3116.00,0.0021
3115.00,0.0022
3114.00,0.0022
3113.00,0.0022
3112.00,0.0023
3111.00,0.0024
3110.00,0.0024
3109.00,0.0025
3108.00,0.0026
3107.00,0.0027
3106.00,0.0028
3105.00,0.0029
3104.00,0.0030
3103.00,0.0030
3102.00,0.0030
3101.00,0.0030
3100.00,0.0029
3099.00,0.0029
3098.00,0.0029
3097.00,0.0029
3096.00,0.0029
3095.00,0.0029
3094.00,0.0029
3093.00,0.0030
3092.00,0.0031
3091.00,0.0033
3090.00,0.0034
3089.00,0.0037
3088.00,0.0039
3087.00,0.0042
3086.00,0.0046
3085.00,0.0049
3084.00,0.0051
3083.00,0.0053
3082.00,0.0054
3081.00,0.0054
3080.00,0.0052
3079.00,0.0051
3078.00,0.0049
3077.00,0.0047
3076.00,0.0045
3075.00,0.0044
3074.00,0.0043
3073.00,0.0043
3072.00,0.0044
3071.00,0.0044
3070.00,0.0045
3069.00,0.0046
3068.00,0.0048
3067.00,0.0050
3066.00,0.0053
3065.00,0.0056
3064.00,0.0059
3063.00,0.0062
3062.00,0.0065
3061.00,0.0067
3060.00,0.0068
3059.00,0.0069
3058.00,0.0068
3057.00,0.0066
3056.00,0.0064
3055.00,0.0061
3054.00,0.0057
3053.00,0.0054
3052.00,0.0051
3051.00,0.0049
3050.00,0.0046
3049.00,0.0044
3048.00,0.0043
3047.00,0.0042
3046.00,0.0041
3045.00,0.0041
3044.00,0.0041
3043.00,0.0042
3042.00,0.0043
3041.00,0.0044
3040.00,0.0046
3039.00,0.0048
3038.00,0.0050
3037.00,0.0053
3036.00,0.0056
3035.00,0.0061
3034.00,0.0066
3033.00,0.0071
3032.00,0.0078
3031.00,0.0085
3030.00,0.0093
3029.00,0.0101
3028.00,0.0108
3027.00,0.0113
3026.00,0.0117
3025.00,0.0119
3024.00,0.0118
3023.00,0.0113
3022.00,0.0107
3021.00,0.0098
3020.00,0.0089
3019.00,0.0080
3018.00,0.0071
3017.00,0.0064
3016.00,0.0058
3015.00,0.0052
3014.00,0.0048
3013.00,0.0045
3012.00,0.0042
3011.00,0.0040
3010.00,0.0039
3009.00,0.0038
3008.00,0.0038
3007.00,0.0039
3006.00,0.0039
3005.00,0.0040
3004.00,0.0041
3003.00,0.0042
3002.00,0.0042
3001.00,0.0042
3000.00,0.0042
2999.00,0.0041
2998.00,0.0040
2997.00,0.0038
2996.00,0.0036
2995.00,0.0034
2994.00,0.0033
2993.00,0.0032
2992.00,0.0031
2991.00,0.0030
2990.00,0.0030
2989.00,0.0029
2988.00,0.0029
2987.00,0.0029
2986.00,0.0029
2985.00,0.0030
2984.00,0.0030
2983.00,0.0030
2982.00,0.0031
2981.00,0.0031
2980.00,0.0032
2979.00,0.0032
2978.00,0.0033
2977.00,0.0033
2976.00,0.0034
2975.00,0.0035
2974.00,0.0036
2973.00,0.0036
2972.00,0.0037
2971.00,0.0038
2970.00,0.0039
2969.00,0.0040
2968.00,0.0041
2967.00,0.0043
2966.00,0.0044
2965.00,0.0045
2964.00,0.0047
2963.00,0.0048
2962.00,0.0049
2961.00,0.0051
2960.00,0.0052
2959.00,0.0053
2958.00,0.0055
2957.00,0.0057
2956.00,0.0058
2955.00,0.0060
2954.00,0.0061
2953.00,0.0062
2952.00,0.0064
2951.00,0.0066
2950.00,0.0067
2949.00,0.0070
2948.00,0.0072
2947.00,0.0074
2946.00,0.0077
2945.00,0.0080
2944.00,0.0084
2943.00,0.0088
2942.00,0.0092
2941.00,0.0096
2940.00,0.0100
2939.00,0.0105
2938.00,0.0110
2937.00,0.0115
2936.00,0.0121
2935.00,0.0126
2934.00,0.0132
2933.00,0.0138
2932.00,0.0144
2931.00,0.0150
2930.00,0.0156
2929.00,0.0161
2928.00,0.0166
2927.00,0.0170
2926.00,0.0174
2925.00,0.0177
2924.00,0.0180
2923.00,0.0182
2922.00,0.0183
2921.00,0.0183
2920.00,0.0183
2919.00,0.0181
2918.00,0.0179
2917.00,0.0176
2916.00,0.0172
2915.00,0.0168
2914.00,0.0163
2913.00,0.0158
2912.00,0.0153
2911.00,0.0148
2910.00,0.0143
2909.00,0.0138
2908.00,0.0134
2907.00,0.0129
2906.00,0.0125
2905.00,0.0121
2904.00,0.0117
2903.00,0.0113
2902.00,0.0109
2901.00,0.0105
2900.00,0.0101
2899.00,0.0097
2898.00,0.0093
2897.00,0.0090
2896.00,0.0087
2895.00,0.0084
2894.00,0.0081
2893.00,0.0079
2892.00,0.0076
2891.00,0.0074
2890.00,0.0072
2889.00,0.0070
2888.00,0.0069
2887.00,0.0067
2886.00,0.0066
2885.00,0.0065
2884.00,0.0063
2883.00,0.0062
2882.00,0.0061
2881.00,0.0060
2880.00,0.0059
2879.00,0.0058
2878.00,0.0057
2877.00,0.0057
2876.00,0.0056
2875.00,0.0055
2874.00,0.0055
2873.00,0.0055
2872.00,0.0055
2871.00,0.0055
2870.00,0.0054
2869.00,0.0054
2868.00,0.0055
2867.00,0.0055
2866.00,0.0056
2865.00,0.0057
2864.00,0.0059
2863.00,0.0061
2862.00,0.0063
2861.00,0.0065
2860.00,0.0068
2859.00,0.0071
2858.00,0.0075
2857.00,0.0078
2856.00,0.0081
2855.00,0.0085
2854.00,0.0088
2853.00,0.0090
2852.00,0.0092
2851.00,0.0093
2850.00,0.0093
2849.00,0.0092
2848.00,0.0089
2847.00,0.0086
2846.00,0.0082
2845.00,0.0077
2844.00,0.0072
2843.00,0.0067
2842.00,0.0062
2841.00,0.0058
2840.00,0.0053
2839.00,0.0049
2838.00,0.0045
2837.00,0.0041
2836.00,0.0038
2835.00,0.0035
2834.00,0.0033
2833.00,0.0031
2832.00,0.0030
2831.00,0.0028
2830.00,0.0027
2829.00,0.0026
2828.00,0.0025
2827.00,0.0025
2826.00,0.0024
2825.00,0.0023
2824.00,0.0023
2823.00,0.0023
2822.00,0.0022
2821.00,0.0022
2820.00,0.0022
2819.00,0.0022
2818.00,0.0022
2817.00,0.0021
2816.00,0.0021
2815.00,0.0021
2814.00,0.0021
2813.00,0.0021
2812.00,0.0020
2811.00,0.0020
2810.00,0.0020
2809.00,0.0020
2808.00,0.0020
2807.00,0.0020
2806.00,0.0020
2805.00,0.0020
2804.00,0.0019
2803.00,0.0019
2802.00,0.0019
2801.00,0.0019
2800.00,0.0019
2799.00,0.0018
2798.00,0.0018
2797.00,0.0018
2796.00,0.0018
2795.00,0.0018
2794.00,0.0018
2793.00,0.0018
2792.00,0.0017
2791.00,0.0017
2790.00,0.0017
2789.00,0.0017
2788.00,0.0017
2787.00,0.0017
2786.00,0.0016
2785.00,0.0016
2784.00,0.0016
2783.00,0.0016
2782.00,0.0016
2781.00,0.0016
2780.00,0.0017
2779.00,0.0017
2778.00,0.0016
2777.00,0.0016
2776.00,0.0016
2775.00,0.0016
2774.00,0.0016
2773.00,0.0016
2772.00,0.0015
2771.00,0.0015
2770.00,0.0015
2769.00,0.0015
2768.00,0.0015
2767.00,0.0015
2766.00,0.0015
2765.00,0.0015
2764.00,0.0015
2763.00,0.0015
2762.00,0.0015
2761.00,0.0015
2760.00,0.0015
2759.00,0.0015
2758.00,0.0014
2757.00,0.0014
