Created as New Dataset,Sample 608 By YargerLab Date Thursday, June 05 2025
cm-1,A
4000.00,0.0041
3999.00,0.0041
3998.00,0.0041
3997.00,0.0041
3996.00,0.0041
3995.00,0.0041
3994.00,0.0041
3993.00,0.0041
3992.00,0.0041
3991.00,0.0041
3990.00,0.0040
3989.00,0.0040
3988.00,0.0040
3987.00,0.0040
3986.00,0.0040
3985.00,0.0041
3984.00,0.0041
3983.00,0.0041
3982.00,0.0041
3981.00,0.0040
3980.00,0.0040
3979.00,0.0040
3978.00,0.0040
3977.00,0.0040
3976.00,0.0040
3975.00,0.0040
3974.00,0.0040
3973.00,0.0040
3972.00,0.0040
3971.00,0.0040
3970.00,0.0040
3969.00,0.0040
3968.00,0.0040
3967.00,0.0040
3966.00,0.0040
3965.00,0.0040
3964.00,0.0040
3963.00,0.0040
3962.00,0.0040
3961.00,0.0040
3960.00,0.0040
3959.00,0.0040
3958.00,0.0040
3957.00,0.0040
3956.00,0.0040
3955.00,0.0040
3954.00,0.0040
3953.00,0.0040
3952.00,0.0040
3951.00,0.0040
3950.00,0.0040
3949.00,0.0040
3948.00,0.0039
3947.00,0.0039
3946.00,0.0039
3945.00,0.0039
3944.00,0.0039
3943.00,0.0039
3942.00,0.0040
3941.00,0.0040
3940.00,0.0040
3939.00,0.0040
3938.00,0.0040
3937.00,0.0040
3936.00,0.0040
3935.00,0.0040
3934.00,0.0040
3933.00,0.0040
3932.00,0.0039
3931.00,0.0039
3930.00,0.0039
3929.00,0.0039
3928.00,0.0039
3927.00,0.0039
3926.00,0.0039
3925.00,0.0040
3924.00,0.0040
3923.00,0.0040
3922.00,0.0039
3921.00,0.0039
3920.00,0.0039
3919.00,0.0039
3918.00,0.0039
3917.00,0.0039
3916.00,0.0039
3915.00,0.0039
3914.00,0.0039
3913.00,0.0039
3912.00,0.0039
3911.00,0.0039
3910.00,0.0039
3909.00,0.0039
3908.00,0.0039
3907.00,0.0039
3906.00,0.0039
3905.00,0.0039
3904.00,0.0038
3903.00,0.0038
3902.00,0.0037
3901.00,0.0037
3900.00,0.0037
3899.00,0.0037
3898.00,0.0038
3897.00,0.0038
3896.00,0.0038
3895.00,0.0038
3894.00,0.0039
3893.00,0.0039
3892.00,0.0039
3891.00,0.0039
3890.00,0.0039
3889.00,0.0038
3888.00,0.0038
3887.00,0.0037
3886.00,0.0037
3885.00,0.0037
3884.00,0.0038
3883.00,0.0037
3882.00,0.0037
3881.00,0.0037
3880.00,0.0038
3879.00,0.0038
3878.00,0.0038
3877.00,0.0038
3876.00,0.0037
3875.00,0.0037
3874.00,0.0038
3873.00,0.0038
3872.00,0.0037
3871.00,0.0037
3870.00,0.0036
3869.00,0.0037
3868.00,0.0037
3867.00,0.0037
3866.00,0.0036
3865.00,0.0036
3864.00,0.0037
3863.00,0.0037
3862.00,0.0037
3861.00,0.0037
3860.00,0.0037
3859.00,0.0038
3858.00,0.0038
3857.00,0.0039
3856.00,0.0039
3855.00,0.0038
3854.00,0.0037
3853.00,0.0036
3852.00,0.0036
3851.00,0.0036
3850.00,0.0036
3849.00,0.0036
3848.00,0.0036
3847.00,0.0036
3846.00,0.0036
3845.00,0.0036
3844.00,0.0036
3843.00,0.0036
3842.00,0.0036
3841.00,0.0036
3840.00,0.0035
3839.00,0.0035
3838.00,0.0035
3837.00,0.0035
3836.00,0.0035
3835.00,0.0036
3834.00,0.0036
3833.00,0.0036
3832.00,0.0036
3831.00,0.0037
3830.00,0.0037
3829.00,0.0037
3828.00,0.0037
3827.00,0.0037
3826.00,0.0037
3825.00,0.0037
3824.00,0.0036
3823.00,0.0035
3822.00,0.0035
3821.00,0.0035
3820.00,0.0036
3819.00,0.0036
3818.00,0.0035
3817.00,0.0035
3816.00,0.0035
3815.00,0.0036
3814.00,0.0037
3813.00,0.0037
3812.00,0.0037
3811.00,0.0037
3810.00,0.0037
3809.00,0.0037
3808.00,0.0036
3807.00,0.0036
3806.00,0.0036
3805.00,0.0036
3804.00,0.0036
3803.00,0.0035
3802.00,0.0035
3801.00,0.0035
3800.00,0.0036
3799.00,0.0036
3798.00,0.0036
3797.00,0.0036
3796.00,0.0036
3795.00,0.0037
3794.00,0.0038
3793.00,0.0038
3792.00,0.0038
3791.00,0.0038
3790.00,0.0038
3789.00,0.0038
3788.00,0.0038
3787.00,0.0038
3786.00,0.0038
3785.00,0.0038
3784.00,0.0038
3783.00,0.0038
3782.00,0.0037
3781.00,0.0037
3780.00,0.0037
3779.00,0.0037
3778.00,0.0037
3777.00,0.0038
3776.00,0.0038
3775.00,0.0038
3774.00,0.0038
3773.00,0.0038
3772.00,0.0038
3771.00,0.0038
3770.00,0.0037
3769.00,0.0037
3768.00,0.0037
3767.00,0.0037
3766.00,0.0036
3765.00,0.0037
3764.00,0.0037
3763.00,0.0037
3762.00,0.0036
3761.00,0.0036
3760.00,0.0036
3759.00,0.0036
3758.00,0.0037
3757.00,0.0037
3756.00,0.0036
3755.00,0.0036
3754.00,0.0036
3753.00,0.0035
3752.00,0.0034
3751.00,0.0034
3750.00,0.0033
3749.00,0.0033
3748.00,0.0033
3747.00,0.0033
3746.00,0.0032
3745.00,0.0032
3744.00,0.0033
3743.00,0.0034
3742.00,0.0034
3741.00,0.0033
3740.00,0.0033
3739.00,0.0032
3738.00,0.0032
3737.00,0.0032
3736.00,0.0032
3735.00,0.0032
3734.00,0.0032
3733.00,0.0032
3732.00,0.0033
3731.00,0.0033
3730.00,0.0034
3729.00,0.0034
3728.00,0.0034
3727.00,0.0035
3726.00,0.0035
3725.00,0.0035
3724.00,0.0035
3723.00,0.0035
3722.00,0.0035
3721.00,0.0035
3720.00,0.0035
3719.00,0.0035
3718.00,0.0036
3717.00,0.0036
3716.00,0.0036
3715.00,0.0035
3714.00,0.0034
3713.00,0.0033
3712.00,0.0033
3711.00,0.0033
3710.00,0.0033
3709.00,0.0033
3708.00,0.0033
3707.00,0.0034
3706.00,0.0034
3705.00,0.0034
3704.00,0.0035
3703.00,0.0035
3702.00,0.0036
3701.00,0.0036
3700.00,0.0036
3699.00,0.0036
3698.00,0.0036
3697.00,0.0036
3696.00,0.0036
3695.00,0.0036
3694.00,0.0035
3693.00,0.0035
3692.00,0.0034
3691.00,0.0034
3690.00,0.0034
3689.00,0.0034
3688.00,0.0033
3687.00,0.0033
3686.00,0.0034
3685.00,0.0034
3684.00,0.0034
3683.00,0.0035
3682.00,0.0035
3681.00,0.0035
3680.00,0.0034
3679.00,0.0034
3678.00,0.0033
3677.00,0.0032
3676.00,0.0031
3675.00,0.0031
3674.00,0.0032
3673.00,0.0032
3672.00,0.0031
3671.00,0.0031
3670.00,0.0032
3669.00,0.0033
3668.00,0.0034
3667.00,0.0034
3666.00,0.0034
3665.00,0.0034
3664.00,0.0035
3663.00,0.0035
3662.00,0.0036
3661.00,0.0036
3660.00,0.0036
3659.00,0.0036
3658.00,0.0036
3657.00,0.0036
3656.00,0.0035
3655.00,0.0035
3654.00,0.0035
3653.00,0.0034
3652.00,0.0034
3651.00,0.0033
3650.00,0.0034
3649.00,0.0034
3648.00,0.0034
3647.00,0.0034
3646.00,0.0034
3645.00,0.0035
3644.00,0.0036
3643.00,0.0037
3642.00,0.0038
3641.00,0.0038
3640.00,0.0039
3639.00,0.0039
3638.00,0.0039
3637.00,0.0039
3636.00,0.0039
3635.00,0.0039
3634.00,0.0040
3633.00,0.0040
3632.00,0.0040
3631.00,0.0040
3630.00,0.0039
3629.00,0.0039
3628.00,0.0040
3627.00,0.0040
3626.00,0.0040
3625.00,0.0041
3624.00,0.0041
3623.00,0.0042
3622.00,0.0043
3621.00,0.0043
3620.00,0.0043
3619.00,0.0043
3618.00,0.0043
3617.00,0.0043
3616.00,0.0043
3615.00,0.0043
3614.00,0.0043
3613.00,0.0043
3612.00,0.0044
3611.00,0.0044
3610.00,0.0044
3609.00,0.0044
3608.00,0.0045
3607.00,0.0045
3606.00,0.0046
3605.00,0.0046
3604.00,0.0047
3603.00,0.0047
3602.00,0.0047
3601.00,0.0047
3600.00,0.0047
3599.00,0.0047
3598.00,0.0048
3597.00,0.0048
3596.00,0.0048
3595.00,0.0048
3594.00,0.0049
3593.00,0.0049
3592.00,0.0049
3591.00,0.0050
3590.00,0.0050
3589.00,0.0050
3588.00,0.0050
3587.00,0.0050
3586.00,0.0050
3585.00,0.0050
3584.00,0.0051
3583.00,0.0051
3582.00,0.0052
3581.00,0.0052
3580.00,0.0053
3579.00,0.0053
3578.00,0.0053
3577.00,0.0053
3576.00,0.0053
3575.00,0.0054
3574.00,0.0054
3573.00,0.0055
3572.00,0.0055
3571.00,0.0055
3570.00,0.0055
3569.00,0.0055
3568.00,0.0054
3567.00,0.0055
3566.00,0.0055
3565.00,0.0055
3564.00,0.0055
3563.00,0.0055
3562.00,0.0056
3561.00,0.0057
3560.00,0.0058
3559.00,0.0058
3558.00,0.0059
3557.00,0.0059
3556.00,0.0060
3555.00,0.0060
3554.00,0.0060
3553.00,0.0060
3552.00,0.0060
3551.00,0.0060
3550.00,0.0060
3549.00,0.0060
3548.00,0.0060
3547.00,0.0061
3546.00,0.0061
3545.00,0.0061
3544.00,0.0062
3543.00,0.0062
3542.00,0.0062
3541.00,0.0063
3540.00,0.0063
3539.00,0.0064
3538.00,0.0064
3537.00,0.0064
3536.00,0.0065
3535.00,0.0065
3534.00,0.0065
3533.00,0.0065
3532.00,0.0064
3531.00,0.0065
3530.00,0.0065
3529.00,0.0066
3528.00,0.0066
3527.00,0.0066
3526.00,0.0067
3525.00,0.0067
3524.00,0.0067
3523.00,0.0068
3522.00,0.0068
3521.00,0.0068
3520.00,0.0068
3519.00,0.0068
3518.00,0.0068
3517.00,0.0068
3516.00,0.0068
3515.00,0.0069
3514.00,0.0069
3513.00,0.0069
3512.00,0.0069
3511.00,0.0069
3510.00,0.0070
3509.00,0.0070
3508.00,0.0070
3507.00,0.0070
3506.00,0.0070
3505.00,0.0070
3504.00,0.0070
3503.00,0.0070
3502.00,0.0070
3501.00,0.0071
3500.00,0.0071
3499.00,0.0071
3498.00,0.0072
3497.00,0.0072
3496.00,0.0072
3495.00,0.0072
3494.00,0.0072
3493.00,0.0073
3492.00,0.0073
3491.00,0.0073
3490.00,0.0073
3489.00,0.0073
3488.00,0.0073
3487.00,0.0074
3486.00,0.0074
3485.00,0.0074
3484.00,0.0074
3483.00,0.0074
3482.00,0.0074
3481.00,0.0074
3480.00,0.0074
3479.00,0.0074
3478.00,0.0074
3477.00,0.0074
3476.00,0.0074
3475.00,0.0074
3474.00,0.0074
3473.00,0.0074
3472.00,0.0074
3471.00,0.0074
3470.00,0.0074
3469.00,0.0074
3468.00,0.0074
3467.00,0.0074
3466.00,0.0073
3465.00,0.0072
3464.00,0.0071
3463.00,0.0070
3462.00,0.0069
3461.00,0.0068
3460.00,0.0067
3459.00,0.0066
3458.00,0.0064
3457.00,0.0063
3456.00,0.0061
3455.00,0.0060
3454.00,0.0059
3453.00,0.0058
3452.00,0.0058
3451.00,0.0058
3450.00,0.0059
3449.00,0.0060
3448.00,0.0063
3447.00,0.0066
3446.00,0.0069
3445.00,0.0072
3444.00,0.0075
3443.00,0.0078
3442.00,0.0081
3441.00,0.0084
3440.00,0.0086
3439.00,0.0087
3438.00,0.0089
3437.00,0.0090
3436.00,0.0091
3435.00,0.0091
3434.00,0.0092
3433.00,0.0092
3432.00,0.0092
3431.00,0.0093
3430.00,0.0093
3429.00,0.0093
3428.00,0.0094
3427.00,0.0094
3426.00,0.0094
3425.00,0.0094
3424.00,0.0094
3423.00,0.0095
3422.00,0.0095
3421.00,0.0096
3420.00,0.0096
3419.00,0.0096
3418.00,0.0097
3417.00,0.0097
3416.00,0.0098
3415.00,0.0099
3414.00,0.0099
3413.00,0.0099
3412.00,0.0099
3411.00,0.0100
3410.00,0.0100
3409.00,0.0101
3408.00,0.0101
3407.00,0.0101
3406.00,0.0102
3405.00,0.0102
3404.00,0.0102
3403.00,0.0103
3402.00,0.0103
3401.00,0.0103
3400.00,0.0104
3399.00,0.0104
3398.00,0.0105
3397.00,0.0105
3396.00,0.0106
3395.00,0.0106
3394.00,0.0106
3393.00,0.0106
3392.00,0.0107
3391.00,0.0107
3390.00,0.0108
3389.00,0.0108
3388.00,0.0109
3387.00,0.0109
3386.00,0.0109
3385.00,0.0110
3384.00,0.0110
3383.00,0.0111
3382.00,0.0111
3381.00,0.0112
3380.00,0.0112
3379.00,0.0112
3378.00,0.0112
3377.00,0.0113
3376.00,0.0113
3375.00,0.0114
3374.00,0.0114
3373.00,0.0115
3372.00,0.0115
3371.00,0.0116
3370.00,0.0117
3369.00,0.0117
3368.00,0.0118
3367.00,0.0118
3366.00,0.0119
3365.00,0.0119
3364.00,0.0120
3363.00,0.0120
3362.00,0.0121
3361.00,0.0122
3360.00,0.0122
3359.00,0.0123
3358.00,0.0123
3357.00,0.0124
3356.00,0.0124
3355.00,0.0125
3354.00,0.0125
3353.00,0.0126
3352.00,0.0126
3351.00,0.0127
3350.00,0.0128
3349.00,0.0129
3348.00,0.0129
3347.00,0.0130
3346.00,0.0131
3345.00,0.0131
3344.00,0.0132
3343.00,0.0132
3342.00,0.0133
3341.00,0.0134
3340.00,0.0135
3339.00,0.0136
3338.00,0.0136
3337.00,0.0137
3336.00,0.0138
3335.00,0.0138
3334.00,0.0139
3333.00,0.0139
3332.00,0.0140
3331.00,0.0141
3330.00,0.0141
3329.00,0.0142
3328.00,0.0143
3327.00,0.0144
3326.00,0.0145
3325.00,0.0146
3324.00,0.0147
3323.00,0.0148
3322.00,0.0148
3321.00,0.0149
3320.00,0.0150
3319.00,0.0150
3318.00,0.0151
3317.00,0.0152
3316.00,0.0153
3315.00,0.0154
3314.00,0.0155
3313.00,0.0156
3312.00,0.0157
3311.00,0.0157
3310.00,0.0158
3309.00,0.0159
3308.00,0.0160
3307.00,0.0161
3306.00,0.0162
3305.00,0.0163
3304.00,0.0164
3303.00,0.0165
3302.00,0.0165
3301.00,0.0166
3300.00,0.0167
3299.00,0.0168
3298.00,0.0168
3297.00,0.0169
3296.00,0.0170
3295.00,0.0171
3294.00,0.0171
3293.00,0.0172
3292.00,0.0173
3291.00,0.0173
3290.00,0.0174
3289.00,0.0175
3288.00,0.0175
3287.00,0.0176
3286.00,0.0176
3285.00,0.0177
3284.00,0.0177
3283.00,0.0178
3282.00,0.0178
3281.00,0.0178
3280.00,0.0178
3279.00,0.0178
3278.00,0.0179
3277.00,0.0179
3276.00,0.0178
3275.00,0.0178
3274.00,0.0178
3273.00,0.0177
3272.00,0.0177
3271.00,0.0176
3270.00,0.0176
3269.00,0.0176
3268.00,0.0176
3267.00,0.0175
3266.00,0.0174
3265.00,0.0174
3264.00,0.0173
3263.00,0.0172
3262.00,0.0171
3261.00,0.0171
3260.00,0.0170
3259.00,0.0169
3258.00,0.0168
3257.00,0.0167
3256.00,0.0166
3255.00,0.0165
3254.00,0.0164
3253.00,0.0163
3252.00,0.0162
3251.00,0.0162
3250.00,0.0161
3249.00,0.0160
3248.00,0.0159
3247.00,0.0158
3246.00,0.0157
3245.00,0.0156
3244.00,0.0156
3243.00,0.0155
3242.00,0.0154
3241.00,0.0153
3240.00,0.0152
3239.00,0.0151
3238.00,0.0151
3237.00,0.0150
3236.00,0.0149
3235.00,0.0148
3234.00,0.0148
3233.00,0.0147
3232.00,0.0147
3231.00,0.0146
3230.00,0.0146
3229.00,0.0145
3228.00,0.0144
3227.00,0.0143
3226.00,0.0143
3225.00,0.0142
3224.00,0.0142
3223.00,0.0142
3222.00,0.0141
3221.00,0.0141
3220.00,0.0140
3219.00,0.0140
3218.00,0.0139
3217.00,0.0138
3216.00,0.0138
3215.00,0.0137
3214.00,0.0137
3213.00,0.0136
3212.00,0.0136
3211.00,0.0136
3210.00,0.0135
3209.00,0.0135
3208.00,0.0134
3207.00,0.0134
3206.00,0.0134
3205.00,0.0133
3204.00,0.0133
3203.00,0.0132
3202.00,0.0132
3201.00,0.0131
3200.00,0.0131
3199.00,0.0130
3198.00,0.0130
3197.00,0.0129
3196.00,0.0128
3195.00,0.0128
3194.00,0.0127
3193.00,0.0127
3192.00,0.0127
3191.00,0.0126
3190.00,0.0126
3189.00,0.0126
3188.00,0.0125
3187.00,0.0125
3186.00,0.0124
3185.00,0.0124
3184.00,0.0123
3183.00,0.0123
3182.00,0.0122
3181.00,0.0122
3180.00,0.0121
3179.00,0.0120
3178.00,0.0120
3177.00,0.0119
3176.00,0.0119
3175.00,0.0118
3174.00,0.0118
3173.00,0.0118
3172.00,0.0118
3171.00,0.0118
3170.00,0.0117
3169.00,0.0116
3168.00,0.0115
3167.00,0.0115
3166.00,0.0114
3165.00,0.0114
3164.00,0.0114
3163.00,0.0113
3162.00,0.0113
3161.00,0.0112
3160.00,0.0112
3159.00,0.0111
3158.00,0.0111
3157.00,0.0110
3156.00,0.0110
3155.00,0.0109
3154.00,0.0109
3153.00,0.0108
3152.00,0.0108
3151.00,0.0107
3150.00,0.0107
3149.00,0.0107
3148.00,0.0107
3147.00,0.0106
3146.00,0.0106
3145.00,0.0105
3144.00,0.0105
3143.00,0.0104
3142.00,0.0103
3141.00,0.0103
3140.00,0.0102
3139.00,0.0102
3138.00,0.0101
3137.00,0.0101
3136.00,0.0101
3135.00,0.0101
3134.00,0.0101
3133.00,0.0100
3132.00,0.0100
3131.00,0.0099
3130.00,0.0098
3129.00,0.0098
3128.00,0.0097
3127.00,0.0097
3126.00,0.0097
3125.00,0.0097
3124.00,0.0096
3123.00,0.0096
3122.00,0.0096
3121.00,0.0095
3120.00,0.0095
3119.00,0.0095
3118.00,0.0095
3117.00,0.0095
3116.00,0.0095
3115.00,0.0095
3114.00,0.0095
3113.00,0.0095
3112.00,0.0095
3111.00,0.0095
3110.00,0.0094
3109.00,0.0094
3108.00,0.0094
3107.00,0.0093
3106.00,0.0094
3105.00,0.0094
3104.00,0.0094
3103.00,0.0094
3102.00,0.0094
3101.00,0.0094
3100.00,0.0094
3099.00,0.0094
3098.00,0.0094
3097.00,0.0094
3096.00,0.0095
3095.00,0.0095
3094.00,0.0095
3093.00,0.0095
3092.00,0.0095
3091.00,0.0095
3090.00,0.0095
3089.00,0.0095
3088.00,0.0096
3087.00,0.0096
3086.00,0.0096
3085.00,0.0097
3084.00,0.0097
3083.00,0.0097
3082.00,0.0097
3081.00,0.0097
3080.00,0.0097
3079.00,0.0097
3078.00,0.0097
3077.00,0.0097
3076.00,0.0098
3075.00,0.0098
3074.00,0.0098
3073.00,0.0098
3072.00,0.0097
3071.00,0.0097
3070.00,0.0096
3069.00,0.0096
3068.00,0.0096
3067.00,0.0097
3066.00,0.0097
3065.00,0.0097
3064.00,0.0097
3063.00,0.0097
3062.00,0.0097
3061.00,0.0098
3060.00,0.0098
3059.00,0.0098
3058.00,0.0098
3057.00,0.0098
3056.00,0.0097
3055.00,0.0097
3054.00,0.0097
3053.00,0.0097
3052.00,0.0097
3051.00,0.0097
3050.00,0.0097
3049.00,0.0097
3048.00,0.0097
3047.00,0.0096
3046.00,0.0096
3045.00,0.0096
3044.00,0.0096
3043.00,0.0095
3042.00,0.0095
3041.00,0.0095
3040.00,0.0095
3039.00,0.0094
3038.00,0.0094
3037.00,0.0093
3036.00,0.0093
3035.00,0.0092
3034.00,0.0092
3033.00,0.0092
3032.00,0.0092
3031.00,0.0091
3030.00,0.0091
3029.00,0.0091
3028.00,0.0091
3027.00,0.0091
3026.00,0.0090
3025.00,0.0090
3024.00,0.0090
3023.00,0.0089
3022.00,0.0089
3021.00,0.0088
3020.00,0.0088
3019.00,0.0087
3018.00,0.0087
3017.00,0.0086
3016.00,0.0085
3015.00,0.0085
3014.00,0.0084
3013.00,0.0084
3012.00,0.0083
3011.00,0.0083
3010.00,0.0082
3009.00,0.0081
3008.00,0.0080
3007.00,0.0079
3006.00,0.0078
3005.00,0.0077
3004.00,0.0076
3003.00,0.0075
3002.00,0.0074
3001.00,0.0073
3000.00,0.0073
2999.00,0.0072
2998.00,0.0072
2997.00,0.0071
2996.00,0.0071
2995.00,0.0070
2994.00,0.0070
2993.00,0.0070
2992.00,0.0070
2991.00,0.0069
2990.00,0.0069
2989.00,0.0069
2988.00,0.0069
2987.00,0.0069
2986.00,0.0068
2985.00,0.0067
2984.00,0.0065
2983.00,0.0064
2982.00,0.0063
2981.00,0.0063
2980.00,0.0064
2979.00,0.0066
2978.00,0.0068
2977.00,0.0069
2976.00,0.0071
2975.00,0.0072
2974.00,0.0073
2973.00,0.0074
2972.00,0.0075
2971.00,0.0076
2970.00,0.0077
2969.00,0.0079
2968.00,0.0081
2967.00,0.0083
2966.00,0.0084
2965.00,0.0086
2964.00,0.0087
2963.00,0.0088
2962.00,0.0089
2961.00,0.0089
2960.00,0.0089
2959.00,0.0089
2958.00,0.0088
2957.00,0.0088
2956.00,0.0087
2955.00,0.0086
2954.00,0.0085
2953.00,0.0085
2952.00,0.0084
2951.00,0.0084
2950.00,0.0084
2949.00,0.0084
2948.00,0.0085
2947.00,0.0086
2946.00,0.0088
2945.00,0.0089
2944.00,0.0091
2943.00,0.0092
2942.00,0.0092
2941.00,0.0093
2940.00,0.0093
2939.00,0.0093
2938.00,0.0094
2937.00,0.0094
2936.00,0.0094
2935.00,0.0094
2934.00,0.0094
2933.00,0.0094
2932.00,0.0093
2931.00,0.0093
2930.00,0.0092
2929.00,0.0091
2928.00,0.0090
2927.00,0.0089
2926.00,0.0088
2925.00,0.0088
2924.00,0.0087
2923.00,0.0087
2922.00,0.0086
2921.00,0.0086
2920.00,0.0086
2919.00,0.0085
2918.00,0.0085
2917.00,0.0084
2916.00,0.0083
2915.00,0.0082
2914.00,0.0081
2913.00,0.0080
2912.00,0.0080
2911.00,0.0079
2910.00,0.0079
2909.00,0.0078
2908.00,0.0078
2907.00,0.0078
2906.00,0.0078
2905.00,0.0078
2904.00,0.0078
2903.00,0.0078
2902.00,0.0078
2901.00,0.0078
2900.00,0.0077
2899.00,0.0077
2898.00,0.0077
2897.00,0.0076
2896.00,0.0076
2895.00,0.0076
2894.00,0.0075
2893.00,0.0075
2892.00,0.0074
2891.00,0.0074
2890.00,0.0073
2889.00,0.0073
2888.00,0.0073
2887.00,0.0073
2886.00,0.0073
2885.00,0.0074
2884.00,0.0074
2883.00,0.0074
2882.00,0.0075
2881.00,0.0075
2880.00,0.0076
2879.00,0.0077
2878.00,0.0078
2877.00,0.0079
2876.00,0.0079
2875.00,0.0079
2874.00,0.0079
2873.00,0.0078
2872.00,0.0078
2871.00,0.0077
2870.00,0.0076
2869.00,0.0076
2868.00,0.0076
2867.00,0.0076
2866.00,0.0076
2865.00,0.0075
2864.00,0.0075
2863.00,0.0075
2862.00,0.0074
2861.00,0.0073
2860.00,0.0073
2859.00,0.0072
2858.00,0.0072
2857.00,0.0071
2856.00,0.0071
2855.00,0.0071
2854.00,0.0072
2853.00,0.0072
2852.00,0.0073
2851.00,0.0073
2850.00,0.0073
2849.00,0.0073
2848.00,0.0073
2847.00,0.0073
2846.00,0.0072
2845.00,0.0072
2844.00,0.0071
2843.00,0.0071
2842.00,0.0070
2841.00,0.0070
2840.00,0.0069
2839.00,0.0069
2838.00,0.0068
2837.00,0.0068
2836.00,0.0067
2835.00,0.0067
2834.00,0.0066
2833.00,0.0066
2832.00,0.0065
2831.00,0.0065
2830.00,0.0065
2829.00,0.0065
2828.00,0.0066
2827.00,0.0066
2826.00,0.0066
2825.00,0.0067
2824.00,0.0067
2823.00,0.0068
2822.00,0.0068
2821.00,0.0068
2820.00,0.0068
2819.00,0.0068
2818.00,0.0068
2817.00,0.0069
2816.00,0.0069
2815.00,0.0069
2814.00,0.0069
2813.00,0.0068
2812.00,0.0068
2811.00,0.0068
2810.00,0.0068
2809.00,0.0068
2808.00,0.0068
2807.00,0.0068
2806.00,0.0068
2805.00,0.0068
2804.00,0.0068
2803.00,0.0068
2802.00,0.0068
2801.00,0.0067
2800.00,0.0067
2799.00,0.0067
2798.00,0.0067
2797.00,0.0067
2796.00,0.0067
2795.00,0.0067
2794.00,0.0066
2793.00,0.0066
2792.00,0.0066
2791.00,0.0066
2790.00,0.0066
2789.00,0.0065
2788.00,0.0065
2787.00,0.0065
2786.00,0.0065
2785.00,0.0065
2784.00,0.0065
2783.00,0.0065
2782.00,0.0065
2781.00,0.0064
2780.00,0.0064
2779.00,0.0064
2778.00,0.0064
2777.00,0.0064
2776.00,0.0063
2775.00,0.0063
2774.00,0.0063
2773.00,0.0063
2772.00,0.0063
2771.00,0.0062
2770.00,0.0062
2769.00,0.0062
2768.00,0.0062
2767.00,0.0061
2766.00,0.0061
2765.00,0.0061
2764.00,0.0061
2763.00,0.0061
2762.00,0.0060
2761.00,0.0060
2760.00,0.0060
2759.00,0.0060
2758.00,0.0060
2757.00,0.0060
