Created as New Dataset,Sample 360 By YargerLab Date Friday, November 14 2025
cm-1,A
4000.00,0.0189
3999.00,0.0190
3998.00,0.0190
3997.00,0.0190
3996.00,0.0190
3995.00,0.0190
3994.00,0.0190
3993.00,0.0190
3992.00,0.0190
3991.00,0.0190
3990.00,0.0190
3989.00,0.0190
3988.00,0.0190
3987.00,0.0190
3986.00,0.0190
3985.00,0.0190
3984.00,0.0190
3983.00,0.0190
3982.00,0.0190
3981.00,0.0189
3980.00,0.0189
3979.00,0.0189
3978.00,0.0189
3977.00,0.0189
3976.00,0.0189
3975.00,0.0189
3974.00,0.0189
3973.00,0.0188
3972.00,0.0188
3971.00,0.0188
3970.00,0.0188
3969.00,0.0188
3968.00,0.0188
3967.00,0.0188
3966.00,0.0188
3965.00,0.0188
3964.00,0.0188
3963.00,0.0189
3962.00,0.0189
3961.00,0.0189
3960.00,0.0189
3959.00,0.0189
3958.00,0.0188
3957.00,0.0188
3956.00,0.0188
3955.00,0.0188
3954.00,0.0188
3953.00,0.0188
3952.00,0.0188
3951.00,0.0188
3950.00,0.0188
3949.00,0.0188
3948.00,0.0188
3947.00,0.0188
3946.00,0.0188
3945.00,0.0188
3944.00,0.0188
3943.00,0.0187
3942.00,0.0187
3941.00,0.0187
3940.00,0.0187
3939.00,0.0187
3938.00,0.0188
3937.00,0.0188
3936.00,0.0188
3935.00,0.0188
3934.00,0.0188
3933.00,0.0188
3932.00,0.0188
3931.00,0.0188
3930.00,0.0188
3929.00,0.0188
3928.00,0.0188
3927.00,0.0188
3926.00,0.0188
3925.00,0.0188
3924.00,0.0188
3923.00,0.0188
3922.00,0.0188
3921.00,0.0189
3920.00,0.0189
3919.00,0.0189
3918.00,0.0189
3917.00,0.0188
3916.00,0.0188
3915.00,0.0188
3914.00,0.0188
3913.00,0.0187
3912.00,0.0187
3911.00,0.0187
3910.00,0.0187
3909.00,0.0187
3908.00,0.0187
3907.00,0.0187
3906.00,0.0188
3905.00,0.0188
3904.00,0.0189
3903.00,0.0190
3902.00,0.0190
3901.00,0.0190
3900.00,0.0190
3899.00,0.0189
3898.00,0.0188
3897.00,0.0187
3896.00,0.0187
3895.00,0.0186
3894.00,0.0186
3893.00,0.0186
3892.00,0.0185
3891.00,0.0185
3890.00,0.0185
3889.00,0.0185
3888.00,0.0186
3887.00,0.0186
3886.00,0.0186
3885.00,0.0186
3884.00,0.0186
3883.00,0.0186
3882.00,0.0186
3881.00,0.0186
3880.00,0.0185
3879.00,0.0184
3878.00,0.0184
3877.00,0.0184
3876.00,0.0184
3875.00,0.0184
3874.00,0.0183
3873.00,0.0183
3872.00,0.0183
3871.00,0.0183
3870.00,0.0183
3869.00,0.0183
3868.00,0.0183
3867.00,0.0183
3866.00,0.0183
3865.00,0.0183
3864.00,0.0183
3863.00,0.0182
3862.00,0.0182
3861.00,0.0182
3860.00,0.0182
3859.00,0.0181
3858.00,0.0180
3857.00,0.0179
3856.00,0.0179
3855.00,0.0179
3854.00,0.0180
3853.00,0.0181
3852.00,0.0182
3851.00,0.0182
3850.00,0.0182
3849.00,0.0182
3848.00,0.0181
3847.00,0.0181
3846.00,0.0180
3845.00,0.0180
3844.00,0.0180
3843.00,0.0180
3842.00,0.0181
3841.00,0.0181
3840.00,0.0182
3839.00,0.0182
3838.00,0.0182
3837.00,0.0182
3836.00,0.0182
3835.00,0.0181
3834.00,0.0181
3833.00,0.0180
3832.00,0.0180
3831.00,0.0180
3830.00,0.0180
3829.00,0.0180
3828.00,0.0180
3827.00,0.0180
3826.00,0.0179
3825.00,0.0179
3824.00,0.0180
3823.00,0.0181
3822.00,0.0181
3821.00,0.0181
3820.00,0.0181
3819.00,0.0181
3818.00,0.0181
3817.00,0.0181
3816.00,0.0181
3815.00,0.0180
3814.00,0.0179
3813.00,0.0179
3812.00,0.0179
3811.00,0.0178
3810.00,0.0178
3809.00,0.0178
3808.00,0.0178
3807.00,0.0178
3806.00,0.0178
3805.00,0.0178
3804.00,0.0179
3803.00,0.0180
3802.00,0.0180
3801.00,0.0180
3800.00,0.0179
3799.00,0.0179
3798.00,0.0179
3797.00,0.0179
3796.00,0.0178
3795.00,0.0178
3794.00,0.0178
3793.00,0.0177
3792.00,0.0177
3791.00,0.0177
3790.00,0.0176
3789.00,0.0176
3788.00,0.0176
3787.00,0.0177
3786.00,0.0177
3785.00,0.0177
3784.00,0.0177
3783.00,0.0177
3782.00,0.0177
3781.00,0.0177
3780.00,0.0177
3779.00,0.0177
3778.00,0.0176
3777.00,0.0176
3776.00,0.0176
3775.00,0.0176
3774.00,0.0176
3773.00,0.0177
3772.00,0.0177
3771.00,0.0177
3770.00,0.0178
3769.00,0.0178
3768.00,0.0178
3767.00,0.0178
3766.00,0.0178
3765.00,0.0178
3764.00,0.0178
3763.00,0.0178
3762.00,0.0179
3761.00,0.0179
3760.00,0.0179
3759.00,0.0179
3758.00,0.0179
3757.00,0.0179
3756.00,0.0179
3755.00,0.0180
3754.00,0.0180
3753.00,0.0181
3752.00,0.0181
3751.00,0.0182
3750.00,0.0182
3749.00,0.0182
3748.00,0.0183
3747.00,0.0183
3746.00,0.0183
3745.00,0.0182
3744.00,0.0181
3743.00,0.0180
3742.00,0.0180
3741.00,0.0181
3740.00,0.0181
3739.00,0.0181
3738.00,0.0181
3737.00,0.0181
3736.00,0.0181
3735.00,0.0180
3734.00,0.0180
3733.00,0.0180
3732.00,0.0180
3731.00,0.0180
3730.00,0.0179
3729.00,0.0179
3728.00,0.0179
3727.00,0.0179
3726.00,0.0179
3725.00,0.0179
3724.00,0.0179
3723.00,0.0179
3722.00,0.0179
3721.00,0.0179
3720.00,0.0179
3719.00,0.0179
3718.00,0.0179
3717.00,0.0179
3716.00,0.0179
3715.00,0.0179
3714.00,0.0180
3713.00,0.0180
3712.00,0.0180
3711.00,0.0181
3710.00,0.0181
3709.00,0.0181
3708.00,0.0181
3707.00,0.0181
3706.00,0.0181
3705.00,0.0181
3704.00,0.0180
3703.00,0.0181
3702.00,0.0181
3701.00,0.0181
3700.00,0.0181
3699.00,0.0182
3698.00,0.0183
3697.00,0.0183
3696.00,0.0184
3695.00,0.0184
3694.00,0.0185
3693.00,0.0186
3692.00,0.0186
3691.00,0.0187
3690.00,0.0188
3689.00,0.0189
3688.00,0.0191
3687.00,0.0192
3686.00,0.0193
3685.00,0.0194
3684.00,0.0194
3683.00,0.0195
3682.00,0.0196
3681.00,0.0197
3680.00,0.0198
3679.00,0.0200
3678.00,0.0202
3677.00,0.0204
3676.00,0.0206
3675.00,0.0208
3674.00,0.0209
3673.00,0.0211
3672.00,0.0213
3671.00,0.0214
3670.00,0.0215
3669.00,0.0215
3668.00,0.0216
3667.00,0.0217
3666.00,0.0219
3665.00,0.0220
3664.00,0.0221
3663.00,0.0223
3662.00,0.0225
3661.00,0.0226
3660.00,0.0228
3659.00,0.0229
3658.00,0.0231
3657.00,0.0233
3656.00,0.0234
3655.00,0.0236
3654.00,0.0238
3653.00,0.0240
3652.00,0.0242
3651.00,0.0245
3650.00,0.0247
3649.00,0.0248
3648.00,0.0249
3647.00,0.0250
3646.00,0.0250
3645.00,0.0251
3644.00,0.0251
3643.00,0.0251
3642.00,0.0252
3641.00,0.0252
3640.00,0.0252
3639.00,0.0253
3638.00,0.0254
3637.00,0.0255
3636.00,0.0256
3635.00,0.0256
3634.00,0.0257
3633.00,0.0257
3632.00,0.0258
3631.00,0.0259
3630.00,0.0259
3629.00,0.0259
3628.00,0.0259
3627.00,0.0260
3626.00,0.0261
3625.00,0.0261
3624.00,0.0261
3623.00,0.0261
3622.00,0.0260
3621.00,0.0260
3620.00,0.0260
3619.00,0.0260
3618.00,0.0261
3617.00,0.0261
3616.00,0.0262
3615.00,0.0262
3614.00,0.0262
3613.00,0.0261
3612.00,0.0260
3611.00,0.0260
3610.00,0.0261
3609.00,0.0261
3608.00,0.0260
3607.00,0.0260
3606.00,0.0260
3605.00,0.0259
3604.00,0.0259
3603.00,0.0258
3602.00,0.0258
3601.00,0.0258
3600.00,0.0258
3599.00,0.0258
3598.00,0.0258
3597.00,0.0258
3596.00,0.0258
3595.00,0.0258
3594.00,0.0258
3593.00,0.0259
3592.00,0.0259
3591.00,0.0260
3590.00,0.0261
3589.00,0.0262
3588.00,0.0262
3587.00,0.0261
3586.00,0.0261
3585.00,0.0262
3584.00,0.0262
3583.00,0.0262
3582.00,0.0263
3581.00,0.0263
3580.00,0.0264
3579.00,0.0264
3578.00,0.0265
3577.00,0.0265
3576.00,0.0266
3575.00,0.0266
3574.00,0.0267
3573.00,0.0268
3572.00,0.0269
3571.00,0.0271
3570.00,0.0272
3569.00,0.0274
3568.00,0.0275
3567.00,0.0276
3566.00,0.0276
3565.00,0.0276
3564.00,0.0277
3563.00,0.0277
3562.00,0.0277
3561.00,0.0277
3560.00,0.0277
3559.00,0.0278
3558.00,0.0279
3557.00,0.0279
3556.00,0.0279
3555.00,0.0279
3554.00,0.0280
3553.00,0.0280
3552.00,0.0280
3551.00,0.0280
3550.00,0.0281
3549.00,0.0281
3548.00,0.0281
3547.00,0.0281
3546.00,0.0281
3545.00,0.0280
3544.00,0.0280
3543.00,0.0280
3542.00,0.0280
3541.00,0.0280
3540.00,0.0280
3539.00,0.0281
3538.00,0.0281
3537.00,0.0281
3536.00,0.0282
3535.00,0.0282
3534.00,0.0282
3533.00,0.0283
3532.00,0.0284
3531.00,0.0285
3530.00,0.0286
3529.00,0.0286
3528.00,0.0287
3527.00,0.0287
3526.00,0.0287
3525.00,0.0288
3524.00,0.0288
3523.00,0.0288
3522.00,0.0289
3521.00,0.0289
3520.00,0.0290
3519.00,0.0291
3518.00,0.0291
3517.00,0.0292
3516.00,0.0293
3515.00,0.0293
3514.00,0.0294
3513.00,0.0296
3512.00,0.0297
3511.00,0.0298
3510.00,0.0299
3509.00,0.0301
3508.00,0.0302
3507.00,0.0303
3506.00,0.0305
3505.00,0.0306
3504.00,0.0308
3503.00,0.0309
3502.00,0.0311
3501.00,0.0312
3500.00,0.0314
3499.00,0.0316
3498.00,0.0317
3497.00,0.0319
3496.00,0.0321
3495.00,0.0323
3494.00,0.0324
3493.00,0.0326
3492.00,0.0327
3491.00,0.0328
3490.00,0.0329
3489.00,0.0330
3488.00,0.0330
3487.00,0.0330
3486.00,0.0331
3485.00,0.0331
3484.00,0.0331
3483.00,0.0331
3482.00,0.0330
3481.00,0.0329
3480.00,0.0329
3479.00,0.0328
3478.00,0.0328
3477.00,0.0328
3476.00,0.0327
3475.00,0.0327
3474.00,0.0326
3473.00,0.0325
3472.00,0.0323
3471.00,0.0322
3470.00,0.0321
3469.00,0.0320
3468.00,0.0320
3467.00,0.0320
3466.00,0.0321
3465.00,0.0321
3464.00,0.0321
3463.00,0.0321
3462.00,0.0321
3461.00,0.0320
3460.00,0.0320
3459.00,0.0321
3458.00,0.0321
3457.00,0.0321
3456.00,0.0322
3455.00,0.0322
3454.00,0.0322
3453.00,0.0322
3452.00,0.0322
3451.00,0.0322
3450.00,0.0322
3449.00,0.0323
3448.00,0.0323
3447.00,0.0323
3446.00,0.0323
3445.00,0.0324
3444.00,0.0324
3443.00,0.0324
3442.00,0.0324
3441.00,0.0324
3440.00,0.0324
3439.00,0.0323
3438.00,0.0322
3437.00,0.0321
3436.00,0.0321
3435.00,0.0321
3434.00,0.0322
3433.00,0.0323
3432.00,0.0323
3431.00,0.0323
3430.00,0.0324
3429.00,0.0325
3428.00,0.0325
3427.00,0.0326
3426.00,0.0327
3425.00,0.0327
3424.00,0.0328
3423.00,0.0328
3422.00,0.0328
3421.00,0.0328
3420.00,0.0328
3419.00,0.0328
3418.00,0.0329
3417.00,0.0329
3416.00,0.0328
3415.00,0.0327
3414.00,0.0327
3413.00,0.0326
3412.00,0.0326
3411.00,0.0326
3410.00,0.0327
3409.00,0.0328
3408.00,0.0328
3407.00,0.0329
3406.00,0.0329
3405.00,0.0329
3404.00,0.0328
3403.00,0.0326
3402.00,0.0325
3401.00,0.0324
3400.00,0.0325
3399.00,0.0326
3398.00,0.0327
3397.00,0.0328
3396.00,0.0328
3395.00,0.0328
3394.00,0.0327
3393.00,0.0327
3392.00,0.0327
3391.00,0.0328
3390.00,0.0330
3389.00,0.0331
3388.00,0.0332
3387.00,0.0332
3386.00,0.0332
3385.00,0.0332
3384.00,0.0332
3383.00,0.0332
3382.00,0.0332
3381.00,0.0332
3380.00,0.0332
3379.00,0.0332
3378.00,0.0332
3377.00,0.0332
3376.00,0.0332
3375.00,0.0332
3374.00,0.0332
3373.00,0.0332
3372.00,0.0331
3371.00,0.0331
3370.00,0.0330
3369.00,0.0330
3368.00,0.0330
3367.00,0.0331
3366.00,0.0332
3365.00,0.0332
3364.00,0.0333
3363.00,0.0333
3362.00,0.0333
3361.00,0.0333
3360.00,0.0333
3359.00,0.0333
3358.00,0.0333
3357.00,0.0333
3356.00,0.0333
3355.00,0.0333
3354.00,0.0332
3353.00,0.0332
3352.00,0.0331
3351.00,0.0331
3350.00,0.0331
3349.00,0.0332
3348.00,0.0332
3347.00,0.0332
3346.00,0.0332
3345.00,0.0332
3344.00,0.0332
3343.00,0.0332
3342.00,0.0332
3341.00,0.0332
3340.00,0.0331
3339.00,0.0331
3338.00,0.0331
3337.00,0.0332
3336.00,0.0332
3335.00,0.0332
3334.00,0.0332
3333.00,0.0332
3332.00,0.0332
3331.00,0.0332
3330.00,0.0331
3329.00,0.0331
3328.00,0.0331
3327.00,0.0331
3326.00,0.0331
3325.00,0.0331
3324.00,0.0331
3323.00,0.0332
3322.00,0.0332
3321.00,0.0332
3320.00,0.0332
3319.00,0.0332
3318.00,0.0332
3317.00,0.0332
3316.00,0.0332
3315.00,0.0332
3314.00,0.0332
3313.00,0.0331
3312.00,0.0331
3311.00,0.0331
3310.00,0.0330
3309.00,0.0330
3308.00,0.0329
3307.00,0.0329
3306.00,0.0330
3305.00,0.0330
3304.00,0.0331
3303.00,0.0331
3302.00,0.0332
3301.00,0.0332
3300.00,0.0332
3299.00,0.0331
3298.00,0.0331
3297.00,0.0330
3296.00,0.0330
3295.00,0.0330
3294.00,0.0330
3293.00,0.0330
3292.00,0.0330
3291.00,0.0330
3290.00,0.0331
3289.00,0.0331
3288.00,0.0331
3287.00,0.0331
3286.00,0.0331
3285.00,0.0330
3284.00,0.0330
3283.00,0.0330
3282.00,0.0330
3281.00,0.0330
3280.00,0.0329
3279.00,0.0329
3278.00,0.0329
3277.00,0.0328
3276.00,0.0328
3275.00,0.0328
3274.00,0.0327
3273.00,0.0326
3272.00,0.0326
3271.00,0.0325
3270.00,0.0325
3269.00,0.0325
3268.00,0.0325
3267.00,0.0325
3266.00,0.0325
3265.00,0.0325
3264.00,0.0325
3263.00,0.0324
3262.00,0.0324
3261.00,0.0324
3260.00,0.0324
3259.00,0.0323
3258.00,0.0323
3257.00,0.0322
3256.00,0.0321
3255.00,0.0321
3254.00,0.0321
3253.00,0.0321
3252.00,0.0321
3251.00,0.0320
3250.00,0.0320
3249.00,0.0319
3248.00,0.0318
3247.00,0.0318
3246.00,0.0318
3245.00,0.0318
3244.00,0.0318
3243.00,0.0317
3242.00,0.0317
3241.00,0.0316
3240.00,0.0316
3239.00,0.0316
3238.00,0.0315
3237.00,0.0314
3236.00,0.0314
3235.00,0.0313
3234.00,0.0312
3233.00,0.0312
3232.00,0.0312
3231.00,0.0311
3230.00,0.0311
3229.00,0.0311
3228.00,0.0311
3227.00,0.0311
3226.00,0.0311
3225.00,0.0311
3224.00,0.0310
3223.00,0.0310
3222.00,0.0309
3221.00,0.0309
3220.00,0.0308
3219.00,0.0308
3218.00,0.0308
3217.00,0.0307
3216.00,0.0307
3215.00,0.0307
3214.00,0.0307
3213.00,0.0307
3212.00,0.0307
3211.00,0.0307
3210.00,0.0306
3209.00,0.0306
3208.00,0.0306
3207.00,0.0306
3206.00,0.0305
3205.00,0.0305
3204.00,0.0305
3203.00,0.0304
3202.00,0.0304
3201.00,0.0304
3200.00,0.0303
3199.00,0.0303
3198.00,0.0302
3197.00,0.0302
3196.00,0.0302
3195.00,0.0302
3194.00,0.0301
3193.00,0.0301
3192.00,0.0300
3191.00,0.0300
3190.00,0.0299
3189.00,0.0298
3188.00,0.0298
3187.00,0.0297
3186.00,0.0297
3185.00,0.0297
3184.00,0.0296
3183.00,0.0296
3182.00,0.0295
3181.00,0.0295
3180.00,0.0295
3179.00,0.0294
3178.00,0.0294
3177.00,0.0293
3176.00,0.0292
3175.00,0.0292
3174.00,0.0291
3173.00,0.0291
3172.00,0.0290
3171.00,0.0290
3170.00,0.0289
3169.00,0.0288
3168.00,0.0287
3167.00,0.0287
3166.00,0.0286
3165.00,0.0286
3164.00,0.0286
3163.00,0.0285
3162.00,0.0285
3161.00,0.0285
3160.00,0.0284
3159.00,0.0284
3158.00,0.0283
3157.00,0.0283
3156.00,0.0283
3155.00,0.0283
3154.00,0.0282
3153.00,0.0282
3152.00,0.0282
3151.00,0.0282
3150.00,0.0282
3149.00,0.0282
3148.00,0.0282
3147.00,0.0282
3146.00,0.0283
3145.00,0.0282
3144.00,0.0282
3143.00,0.0282
3142.00,0.0282
3141.00,0.0283
3140.00,0.0283
3139.00,0.0283
3138.00,0.0284
3137.00,0.0285
3136.00,0.0286
3135.00,0.0287
3134.00,0.0287
3133.00,0.0288
3132.00,0.0288
3131.00,0.0288
3130.00,0.0289
3129.00,0.0290
3128.00,0.0291
3127.00,0.0292
3126.00,0.0293
3125.00,0.0294
3124.00,0.0295
3123.00,0.0296
3122.00,0.0297
3121.00,0.0297
3120.00,0.0299
3119.00,0.0300
3118.00,0.0301
3117.00,0.0303
3116.00,0.0304
3115.00,0.0306
3114.00,0.0307
3113.00,0.0309
3112.00,0.0310
3111.00,0.0311
3110.00,0.0312
3109.00,0.0313
3108.00,0.0315
3107.00,0.0316
3106.00,0.0318
3105.00,0.0319
3104.00,0.0320
3103.00,0.0322
3102.00,0.0323
3101.00,0.0324
3100.00,0.0325
3099.00,0.0327
3098.00,0.0327
3097.00,0.0328
3096.00,0.0328
3095.00,0.0328
3094.00,0.0328
3093.00,0.0327
3092.00,0.0327
3091.00,0.0326
3090.00,0.0326
3089.00,0.0326
3088.00,0.0325
3087.00,0.0325
3086.00,0.0325
3085.00,0.0325
3084.00,0.0325
3083.00,0.0326
3082.00,0.0326
3081.00,0.0327
3080.00,0.0327
3079.00,0.0328
3078.00,0.0328
3077.00,0.0329
3076.00,0.0330
3075.00,0.0330
3074.00,0.0330
3073.00,0.0330
3072.00,0.0330
3071.00,0.0329
3070.00,0.0328
3069.00,0.0327
3068.00,0.0327
3067.00,0.0326
3066.00,0.0325
3065.00,0.0324
3064.00,0.0323
3063.00,0.0323
3062.00,0.0322
3061.00,0.0320
3060.00,0.0319
3059.00,0.0318
3058.00,0.0318
3057.00,0.0318
3056.00,0.0318
3055.00,0.0318
3054.00,0.0318
3053.00,0.0318
3052.00,0.0318
3051.00,0.0318
3050.00,0.0317
3049.00,0.0317
3048.00,0.0316
3047.00,0.0316
3046.00,0.0314
3045.00,0.0313
3044.00,0.0311
3043.00,0.0310
3042.00,0.0308
3041.00,0.0307
3040.00,0.0306
3039.00,0.0305
3038.00,0.0303
3037.00,0.0302
3036.00,0.0300
3035.00,0.0298
3034.00,0.0297
3033.00,0.0295
3032.00,0.0294
3031.00,0.0292
3030.00,0.0291
3029.00,0.0289
3028.00,0.0287
3027.00,0.0285
3026.00,0.0283
3025.00,0.0281
3024.00,0.0280
3023.00,0.0278
3022.00,0.0277
3021.00,0.0275
3020.00,0.0273
3019.00,0.0271
3018.00,0.0270
3017.00,0.0269
3016.00,0.0267
3015.00,0.0266
3014.00,0.0265
3013.00,0.0265
3012.00,0.0266
3011.00,0.0267
3010.00,0.0268
3009.00,0.0269
3008.00,0.0270
3007.00,0.0271
3006.00,0.0271
3005.00,0.0271
3004.00,0.0271
3003.00,0.0271
3002.00,0.0271
3001.00,0.0270
3000.00,0.0269
2999.00,0.0268
2998.00,0.0268
2997.00,0.0268
2996.00,0.0268
2995.00,0.0267
2994.00,0.0267
2993.00,0.0266
2992.00,0.0266
2991.00,0.0266
2990.00,0.0267
2989.00,0.0268
2988.00,0.0268
2987.00,0.0268
2986.00,0.0267
2985.00,0.0266
2984.00,0.0266
2983.00,0.0265
2982.00,0.0264
2981.00,0.0263
2980.00,0.0263
2979.00,0.0263
2978.00,0.0263
2977.00,0.0263
2976.00,0.0263
2975.00,0.0263
2974.00,0.0263
2973.00,0.0264
2972.00,0.0264
2971.00,0.0265
2970.00,0.0265
2969.00,0.0265
2968.00,0.0266
2967.00,0.0266
2966.00,0.0266
2965.00,0.0267
2964.00,0.0267
2963.00,0.0267
2962.00,0.0267
2961.00,0.0267
2960.00,0.0267
2959.00,0.0268
2958.00,0.0268
2957.00,0.0268
2956.00,0.0267
2955.00,0.0267
2954.00,0.0266
2953.00,0.0266
2952.00,0.0266
2951.00,0.0266
2950.00,0.0266
2949.00,0.0265
2948.00,0.0265
2947.00,0.0264
2946.00,0.0264
2945.00,0.0265
2944.00,0.0265
2943.00,0.0266
2942.00,0.0267
2941.00,0.0268
2940.00,0.0269
2939.00,0.0270
2938.00,0.0271
2937.00,0.0272
2936.00,0.0273
2935.00,0.0274
2934.00,0.0275
2933.00,0.0276
2932.00,0.0276
2931.00,0.0277
2930.00,0.0278
2929.00,0.0279
2928.00,0.0280
2927.00,0.0280
2926.00,0.0280
2925.00,0.0280
2924.00,0.0280
2923.00,0.0280
2922.00,0.0279
2921.00,0.0278
2920.00,0.0277
2919.00,0.0275
2918.00,0.0274
2917.00,0.0272
2916.00,0.0270
2915.00,0.0268
2914.00,0.0266
2913.00,0.0265
2912.00,0.0263
2911.00,0.0262
2910.00,0.0261
2909.00,0.0260
2908.00,0.0259
2907.00,0.0258
2906.00,0.0257
2905.00,0.0256
2904.00,0.0255
2903.00,0.0254
2902.00,0.0253
2901.00,0.0252
2900.00,0.0252
2899.00,0.0251
2898.00,0.0251
2897.00,0.0250
2896.00,0.0249
2895.00,0.0249
2894.00,0.0249
2893.00,0.0248
2892.00,0.0248
2891.00,0.0247
2890.00,0.0247
2889.00,0.0246
2888.00,0.0246
2887.00,0.0245
2886.00,0.0245
2885.00,0.0245
2884.00,0.0246
2883.00,0.0246
2882.00,0.0246
2881.00,0.0246
2880.00,0.0246
2879.00,0.0246
2878.00,0.0246
2877.00,0.0245
2876.00,0.0245
2875.00,0.0244
2874.00,0.0244
2873.00,0.0244
2872.00,0.0244
2871.00,0.0244
2870.00,0.0244
2869.00,0.0244
2868.00,0.0244
2867.00,0.0243
2866.00,0.0243
2865.00,0.0243
2864.00,0.0243
2863.00,0.0243
2862.00,0.0243
2861.00,0.0243
2860.00,0.0244
2859.00,0.0244
2858.00,0.0245
2857.00,0.0246
2856.00,0.0246
2855.00,0.0247
2854.00,0.0247
2853.00,0.0247
2852.00,0.0246
2851.00,0.0245
2850.00,0.0244
2849.00,0.0243
2848.00,0.0241
2847.00,0.0239
2846.00,0.0237
2845.00,0.0236
2844.00,0.0234
2843.00,0.0233
2842.00,0.0231
2841.00,0.0229
2840.00,0.0228
2839.00,0.0227
2838.00,0.0226
2837.00,0.0226
2836.00,0.0226
2835.00,0.0226
2834.00,0.0225
2833.00,0.0225
2832.00,0.0225
2831.00,0.0225
2830.00,0.0224
2829.00,0.0224
2828.00,0.0223
2827.00,0.0223
2826.00,0.0222
2825.00,0.0221
2824.00,0.0221
2823.00,0.0220
2822.00,0.0220
2821.00,0.0219
2820.00,0.0219
2819.00,0.0219
2818.00,0.0218
2817.00,0.0218
2816.00,0.0217
2815.00,0.0217
2814.00,0.0216
2813.00,0.0216
2812.00,0.0215
2811.00,0.0215
2810.00,0.0215
2809.00,0.0214
2808.00,0.0214
2807.00,0.0214
2806.00,0.0214
2805.00,0.0213
2804.00,0.0213
2803.00,0.0213
2802.00,0.0213
2801.00,0.0213
2800.00,0.0212
2799.00,0.0212
2798.00,0.0212
2797.00,0.0213
2796.00,0.0213
2795.00,0.0214
2794.00,0.0214
2793.00,0.0215
2792.00,0.0216
2791.00,0.0216
2790.00,0.0217
2789.00,0.0219
2788.00,0.0220
2787.00,0.0222
2786.00,0.0223
2785.00,0.0224
2784.00,0.0225
2783.00,0.0225
2782.00,0.0226
2781.00,0.0226
2780.00,0.0226
2779.00,0.0226
2778.00,0.0225
2777.00,0.0224
2776.00,0.0223
2775.00,0.0222
2774.00,0.0221
2773.00,0.0220
2772.00,0.0219
2771.00,0.0218
2770.00,0.0217
2769.00,0.0216
2768.00,0.0215
2767.00,0.0214
2766.00,0.0213
2765.00,0.0212
2764.00,0.0212
2763.00,0.0212
2762.00,0.0211
2761.00,0.0211
2760.00,0.0210
2759.00,0.0210
2758.00,0.0209
2757.00,0.0209
