Created as New Dataset,Sample 597 By YargerLab Date Thursday, June 05 2025
cm-1,A
4000.00,0.0086
3999.00,0.0086
3998.00,0.0086
3997.00,0.0086
3996.00,0.0085
3995.00,0.0085
3994.00,0.0086
3993.00,0.0086
3992.00,0.0086
3991.00,0.0086
3990.00,0.0085
3989.00,0.0085
3988.00,0.0085
3987.00,0.0086
3986.00,0.0086
3985.00,0.0086
3984.00,0.0086
3983.00,0.0086
3982.00,0.0085
3981.00,0.0085
3980.00,0.0085
3979.00,0.0085
3978.00,0.0085
3977.00,0.0085
3976.00,0.0085
3975.00,0.0085
3974.00,0.0086
3973.00,0.0086
3972.00,0.0086
3971.00,0.0086
3970.00,0.0086
3969.00,0.0086
3968.00,0.0085
3967.00,0.0085
3966.00,0.0085
3965.00,0.0085
3964.00,0.0085
3963.00,0.0085
3962.00,0.0085
3961.00,0.0085
3960.00,0.0085
3959.00,0.0085
3958.00,0.0085
3957.00,0.0085
3956.00,0.0085
3955.00,0.0085
3954.00,0.0085
3953.00,0.0085
3952.00,0.0085
3951.00,0.0085
3950.00,0.0085
3949.00,0.0085
3948.00,0.0085
3947.00,0.0084
3946.00,0.0084
3945.00,0.0084
3944.00,0.0084
3943.00,0.0085
3942.00,0.0085
3941.00,0.0085
3940.00,0.0085
3939.00,0.0085
3938.00,0.0085
3937.00,0.0085
3936.00,0.0085
3935.00,0.0085
3934.00,0.0085
3933.00,0.0085
3932.00,0.0085
3931.00,0.0084
3930.00,0.0084
3929.00,0.0084
3928.00,0.0084
3927.00,0.0084
3926.00,0.0084
3925.00,0.0084
3924.00,0.0084
3923.00,0.0084
3922.00,0.0084
3921.00,0.0084
3920.00,0.0084
3919.00,0.0084
3918.00,0.0084
3917.00,0.0084
3916.00,0.0084
3915.00,0.0083
3914.00,0.0084
3913.00,0.0084
3912.00,0.0084
3911.00,0.0084
3910.00,0.0084
3909.00,0.0084
3908.00,0.0084
3907.00,0.0084
3906.00,0.0084
3905.00,0.0084
3904.00,0.0084
3903.00,0.0083
3902.00,0.0083
3901.00,0.0083
3900.00,0.0084
3899.00,0.0084
3898.00,0.0083
3897.00,0.0083
3896.00,0.0083
3895.00,0.0083
3894.00,0.0084
3893.00,0.0083
3892.00,0.0083
3891.00,0.0083
3890.00,0.0083
3889.00,0.0083
3888.00,0.0083
3887.00,0.0082
3886.00,0.0082
3885.00,0.0082
3884.00,0.0082
3883.00,0.0082
3882.00,0.0082
3881.00,0.0082
3880.00,0.0083
3879.00,0.0083
3878.00,0.0083
3877.00,0.0083
3876.00,0.0082
3875.00,0.0082
3874.00,0.0082
3873.00,0.0082
3872.00,0.0082
3871.00,0.0081
3870.00,0.0081
3869.00,0.0082
3868.00,0.0082
3867.00,0.0082
3866.00,0.0082
3865.00,0.0082
3864.00,0.0081
3863.00,0.0081
3862.00,0.0081
3861.00,0.0081
3860.00,0.0082
3859.00,0.0082
3858.00,0.0082
3857.00,0.0082
3856.00,0.0082
3855.00,0.0082
3854.00,0.0081
3853.00,0.0080
3852.00,0.0080
3851.00,0.0080
3850.00,0.0080
3849.00,0.0080
3848.00,0.0080
3847.00,0.0081
3846.00,0.0081
3845.00,0.0081
3844.00,0.0081
3843.00,0.0081
3842.00,0.0081
3841.00,0.0081
3840.00,0.0081
3839.00,0.0080
3838.00,0.0080
3837.00,0.0080
3836.00,0.0080
3835.00,0.0080
3834.00,0.0080
3833.00,0.0080
3832.00,0.0080
3831.00,0.0081
3830.00,0.0081
3829.00,0.0081
3828.00,0.0081
3827.00,0.0081
3826.00,0.0080
3825.00,0.0080
3824.00,0.0080
3823.00,0.0080
3822.00,0.0079
3821.00,0.0079
3820.00,0.0080
3819.00,0.0079
3818.00,0.0079
3817.00,0.0079
3816.00,0.0079
3815.00,0.0080
3814.00,0.0080
3813.00,0.0080
3812.00,0.0081
3811.00,0.0081
3810.00,0.0081
3809.00,0.0080
3808.00,0.0080
3807.00,0.0080
3806.00,0.0080
3805.00,0.0080
3804.00,0.0079
3803.00,0.0079
3802.00,0.0079
3801.00,0.0079
3800.00,0.0080
3799.00,0.0080
3798.00,0.0080
3797.00,0.0080
3796.00,0.0080
3795.00,0.0080
3794.00,0.0080
3793.00,0.0080
3792.00,0.0080
3791.00,0.0080
3790.00,0.0080
3789.00,0.0080
3788.00,0.0080
3787.00,0.0080
3786.00,0.0080
3785.00,0.0080
3784.00,0.0080
3783.00,0.0080
3782.00,0.0080
3781.00,0.0080
3780.00,0.0080
3779.00,0.0080
3778.00,0.0080
3777.00,0.0080
3776.00,0.0080
3775.00,0.0080
3774.00,0.0080
3773.00,0.0080
3772.00,0.0080
3771.00,0.0080
3770.00,0.0080
3769.00,0.0080
3768.00,0.0079
3767.00,0.0079
3766.00,0.0079
3765.00,0.0079
3764.00,0.0079
3763.00,0.0079
3762.00,0.0079
3761.00,0.0079
3760.00,0.0079
3759.00,0.0079
3758.00,0.0079
3757.00,0.0079
3756.00,0.0079
3755.00,0.0079
3754.00,0.0079
3753.00,0.0079
3752.00,0.0078
3751.00,0.0078
3750.00,0.0078
3749.00,0.0077
3748.00,0.0077
3747.00,0.0077
3746.00,0.0077
3745.00,0.0077
3744.00,0.0078
3743.00,0.0077
3742.00,0.0077
3741.00,0.0077
3740.00,0.0076
3739.00,0.0076
3738.00,0.0076
3737.00,0.0076
3736.00,0.0076
3735.00,0.0077
3734.00,0.0077
3733.00,0.0077
3732.00,0.0077
3731.00,0.0077
3730.00,0.0077
3729.00,0.0077
3728.00,0.0077
3727.00,0.0077
3726.00,0.0077
3725.00,0.0077
3724.00,0.0077
3723.00,0.0077
3722.00,0.0077
3721.00,0.0077
3720.00,0.0077
3719.00,0.0077
3718.00,0.0077
3717.00,0.0077
3716.00,0.0077
3715.00,0.0077
3714.00,0.0077
3713.00,0.0077
3712.00,0.0076
3711.00,0.0076
3710.00,0.0076
3709.00,0.0076
3708.00,0.0076
3707.00,0.0076
3706.00,0.0076
3705.00,0.0077
3704.00,0.0077
3703.00,0.0077
3702.00,0.0077
3701.00,0.0077
3700.00,0.0077
3699.00,0.0077
3698.00,0.0077
3697.00,0.0077
3696.00,0.0077
3695.00,0.0077
3694.00,0.0077
3693.00,0.0077
3692.00,0.0077
3691.00,0.0076
3690.00,0.0076
3689.00,0.0076
3688.00,0.0076
3687.00,0.0076
3686.00,0.0076
3685.00,0.0076
3684.00,0.0076
3683.00,0.0077
3682.00,0.0077
3681.00,0.0077
3680.00,0.0078
3679.00,0.0078
3678.00,0.0078
3677.00,0.0077
3676.00,0.0077
3675.00,0.0077
3674.00,0.0077
3673.00,0.0077
3672.00,0.0077
3671.00,0.0077
3670.00,0.0078
3669.00,0.0079
3668.00,0.0080
3667.00,0.0080
3666.00,0.0080
3665.00,0.0080
3664.00,0.0081
3663.00,0.0081
3662.00,0.0081
3661.00,0.0082
3660.00,0.0082
3659.00,0.0082
3658.00,0.0082
3657.00,0.0082
3656.00,0.0083
3655.00,0.0083
3654.00,0.0083
3653.00,0.0083
3652.00,0.0083
3651.00,0.0084
3650.00,0.0084
3649.00,0.0084
3648.00,0.0085
3647.00,0.0085
3646.00,0.0086
3645.00,0.0086
3644.00,0.0087
3643.00,0.0087
3642.00,0.0088
3641.00,0.0089
3640.00,0.0089
3639.00,0.0090
3638.00,0.0090
3637.00,0.0090
3636.00,0.0091
3635.00,0.0091
3634.00,0.0092
3633.00,0.0092
3632.00,0.0093
3631.00,0.0093
3630.00,0.0093
3629.00,0.0094
3628.00,0.0095
3627.00,0.0096
3626.00,0.0096
3625.00,0.0097
3624.00,0.0098
3623.00,0.0098
3622.00,0.0099
3621.00,0.0099
3620.00,0.0100
3619.00,0.0101
3618.00,0.0101
3617.00,0.0102
3616.00,0.0102
3615.00,0.0102
3614.00,0.0103
3613.00,0.0104
3612.00,0.0104
3611.00,0.0105
3610.00,0.0105
3609.00,0.0106
3608.00,0.0107
3607.00,0.0107
3606.00,0.0108
3605.00,0.0109
3604.00,0.0109
3603.00,0.0110
3602.00,0.0110
3601.00,0.0111
3600.00,0.0112
3599.00,0.0112
3598.00,0.0113
3597.00,0.0113
3596.00,0.0114
3595.00,0.0115
3594.00,0.0116
3593.00,0.0116
3592.00,0.0117
3591.00,0.0117
3590.00,0.0118
3589.00,0.0118
3588.00,0.0119
3587.00,0.0121
3586.00,0.0122
3585.00,0.0123
3584.00,0.0123
3583.00,0.0124
3582.00,0.0124
3581.00,0.0125
3580.00,0.0126
3579.00,0.0126
3578.00,0.0127
3577.00,0.0128
3576.00,0.0129
3575.00,0.0129
3574.00,0.0130
3573.00,0.0131
3572.00,0.0132
3571.00,0.0132
3570.00,0.0132
3569.00,0.0133
3568.00,0.0134
3567.00,0.0135
3566.00,0.0137
3565.00,0.0138
3564.00,0.0138
3563.00,0.0139
3562.00,0.0140
3561.00,0.0141
3560.00,0.0142
3559.00,0.0143
3558.00,0.0144
3557.00,0.0145
3556.00,0.0146
3555.00,0.0146
3554.00,0.0147
3553.00,0.0148
3552.00,0.0148
3551.00,0.0149
3550.00,0.0150
3549.00,0.0150
3548.00,0.0151
3547.00,0.0152
3546.00,0.0154
3545.00,0.0155
3544.00,0.0156
3543.00,0.0157
3542.00,0.0157
3541.00,0.0158
3540.00,0.0158
3539.00,0.0159
3538.00,0.0160
3537.00,0.0161
3536.00,0.0162
3535.00,0.0163
3534.00,0.0164
3533.00,0.0164
3532.00,0.0165
3531.00,0.0165
3530.00,0.0166
3529.00,0.0167
3528.00,0.0168
3527.00,0.0169
3526.00,0.0170
3525.00,0.0171
3524.00,0.0172
3523.00,0.0173
3522.00,0.0174
3521.00,0.0175
3520.00,0.0176
3519.00,0.0176
3518.00,0.0177
3517.00,0.0178
3516.00,0.0179
3515.00,0.0180
3514.00,0.0181
3513.00,0.0182
3512.00,0.0182
3511.00,0.0183
3510.00,0.0184
3509.00,0.0185
3508.00,0.0186
3507.00,0.0187
3506.00,0.0187
3505.00,0.0188
3504.00,0.0189
3503.00,0.0190
3502.00,0.0191
3501.00,0.0193
3500.00,0.0194
3499.00,0.0195
3498.00,0.0196
3497.00,0.0197
3496.00,0.0198
3495.00,0.0199
3494.00,0.0200
3493.00,0.0201
3492.00,0.0202
3491.00,0.0203
3490.00,0.0204
3489.00,0.0205
3488.00,0.0206
3487.00,0.0208
3486.00,0.0209
3485.00,0.0210
3484.00,0.0211
3483.00,0.0212
3482.00,0.0213
3481.00,0.0214
3480.00,0.0216
3479.00,0.0217
3478.00,0.0217
3477.00,0.0218
3476.00,0.0220
3475.00,0.0221
3474.00,0.0222
3473.00,0.0223
3472.00,0.0225
3471.00,0.0226
3470.00,0.0228
3469.00,0.0229
3468.00,0.0231
3467.00,0.0232
3466.00,0.0234
3465.00,0.0235
3464.00,0.0237
3463.00,0.0239
3462.00,0.0241
3461.00,0.0244
3460.00,0.0246
3459.00,0.0249
3458.00,0.0252
3457.00,0.0255
3456.00,0.0258
3455.00,0.0261
3454.00,0.0264
3453.00,0.0267
3452.00,0.0269
3451.00,0.0271
3450.00,0.0273
3449.00,0.0274
3448.00,0.0275
3447.00,0.0276
3446.00,0.0277
3445.00,0.0277
3444.00,0.0276
3443.00,0.0276
3442.00,0.0276
3441.00,0.0275
3440.00,0.0275
3439.00,0.0275
3438.00,0.0274
3437.00,0.0274
3436.00,0.0274
3435.00,0.0274
3434.00,0.0274
3433.00,0.0275
3432.00,0.0276
3431.00,0.0276
3430.00,0.0277
3429.00,0.0278
3428.00,0.0279
3427.00,0.0280
3426.00,0.0281
3425.00,0.0282
3424.00,0.0283
3423.00,0.0284
3422.00,0.0285
3421.00,0.0287
3420.00,0.0288
3419.00,0.0290
3418.00,0.0291
3417.00,0.0292
3416.00,0.0294
3415.00,0.0295
3414.00,0.0296
3413.00,0.0298
3412.00,0.0299
3411.00,0.0300
3410.00,0.0301
3409.00,0.0303
3408.00,0.0304
3407.00,0.0305
3406.00,0.0306
3405.00,0.0308
3404.00,0.0309
3403.00,0.0310
3402.00,0.0312
3401.00,0.0313
3400.00,0.0315
3399.00,0.0316
3398.00,0.0317
3397.00,0.0319
3396.00,0.0320
3395.00,0.0321
3394.00,0.0322
3393.00,0.0323
3392.00,0.0324
3391.00,0.0326
3390.00,0.0327
3389.00,0.0329
3388.00,0.0330
3387.00,0.0331
3386.00,0.0333
3385.00,0.0334
3384.00,0.0335
3383.00,0.0337
3382.00,0.0338
3381.00,0.0340
3380.00,0.0341
3379.00,0.0343
3378.00,0.0344
3377.00,0.0346
3376.00,0.0347
3375.00,0.0349
3374.00,0.0350
3373.00,0.0352
3372.00,0.0354
3371.00,0.0355
3370.00,0.0357
3369.00,0.0358
3368.00,0.0360
3367.00,0.0362
3366.00,0.0364
3365.00,0.0366
3364.00,0.0368
3363.00,0.0370
3362.00,0.0373
3361.00,0.0375
3360.00,0.0377
3359.00,0.0379
3358.00,0.0381
3357.00,0.0383
3356.00,0.0385
3355.00,0.0387
3354.00,0.0389
3353.00,0.0391
3352.00,0.0393
3351.00,0.0395
3350.00,0.0397
3349.00,0.0400
3348.00,0.0402
3347.00,0.0404
3346.00,0.0407
3345.00,0.0409
3344.00,0.0411
3343.00,0.0413
3342.00,0.0415
3341.00,0.0417
3340.00,0.0419
3339.00,0.0421
3338.00,0.0424
3337.00,0.0426
3336.00,0.0429
3335.00,0.0431
3334.00,0.0434
3333.00,0.0436
3332.00,0.0438
3331.00,0.0441
3330.00,0.0443
3329.00,0.0445
3328.00,0.0447
3327.00,0.0449
3326.00,0.0452
3325.00,0.0455
3324.00,0.0458
3323.00,0.0461
3322.00,0.0463
3321.00,0.0466
3320.00,0.0468
3319.00,0.0470
3318.00,0.0472
3317.00,0.0474
3316.00,0.0477
3315.00,0.0479
3314.00,0.0481
3313.00,0.0483
3312.00,0.0485
3311.00,0.0487
3310.00,0.0488
3309.00,0.0490
3308.00,0.0492
3307.00,0.0494
3306.00,0.0496
3305.00,0.0499
3304.00,0.0501
3303.00,0.0504
3302.00,0.0506
3301.00,0.0508
3300.00,0.0510
3299.00,0.0511
3298.00,0.0512
3297.00,0.0513
3296.00,0.0514
3295.00,0.0516
3294.00,0.0517
3293.00,0.0518
3292.00,0.0520
3291.00,0.0522
3290.00,0.0523
3289.00,0.0524
3288.00,0.0525
3287.00,0.0526
3286.00,0.0526
3285.00,0.0527
3284.00,0.0527
3283.00,0.0527
3282.00,0.0528
3281.00,0.0528
3280.00,0.0527
3279.00,0.0527
3278.00,0.0526
3277.00,0.0525
3276.00,0.0523
3275.00,0.0522
3274.00,0.0521
3273.00,0.0519
3272.00,0.0518
3271.00,0.0517
3270.00,0.0516
3269.00,0.0515
3268.00,0.0514
3267.00,0.0513
3266.00,0.0511
3265.00,0.0509
3264.00,0.0507
3263.00,0.0505
3262.00,0.0503
3261.00,0.0501
3260.00,0.0499
3259.00,0.0496
3258.00,0.0493
3257.00,0.0491
3256.00,0.0488
3255.00,0.0486
3254.00,0.0485
3253.00,0.0483
3252.00,0.0481
3251.00,0.0479
3250.00,0.0476
3249.00,0.0474
3248.00,0.0471
3247.00,0.0469
3246.00,0.0467
3245.00,0.0465
3244.00,0.0464
3243.00,0.0462
3242.00,0.0460
3241.00,0.0458
3240.00,0.0456
3239.00,0.0454
3238.00,0.0453
3237.00,0.0451
3236.00,0.0448
3235.00,0.0446
3234.00,0.0445
3233.00,0.0444
3232.00,0.0443
3231.00,0.0443
3230.00,0.0441
3229.00,0.0440
3228.00,0.0439
3227.00,0.0437
3226.00,0.0436
3225.00,0.0434
3224.00,0.0433
3223.00,0.0432
3222.00,0.0431
3221.00,0.0430
3220.00,0.0429
3219.00,0.0428
3218.00,0.0427
3217.00,0.0426
3216.00,0.0425
3215.00,0.0424
3214.00,0.0423
3213.00,0.0422
3212.00,0.0421
3211.00,0.0419
3210.00,0.0418
3209.00,0.0417
3208.00,0.0417
3207.00,0.0415
3206.00,0.0414
3205.00,0.0413
3204.00,0.0412
3203.00,0.0411
3202.00,0.0409
3201.00,0.0408
3200.00,0.0406
3199.00,0.0405
3198.00,0.0404
3197.00,0.0403
3196.00,0.0401
3195.00,0.0400
3194.00,0.0398
3193.00,0.0396
3192.00,0.0395
3191.00,0.0393
3190.00,0.0392
3189.00,0.0391
3188.00,0.0389
3187.00,0.0388
3186.00,0.0387
3185.00,0.0385
3184.00,0.0384
3183.00,0.0382
3182.00,0.0380
3181.00,0.0378
3180.00,0.0377
3179.00,0.0375
3178.00,0.0373
3177.00,0.0372
3176.00,0.0370
3175.00,0.0368
3174.00,0.0367
3173.00,0.0365
3172.00,0.0364
3171.00,0.0362
3170.00,0.0360
3169.00,0.0359
3168.00,0.0357
3167.00,0.0355
3166.00,0.0354
3165.00,0.0352
3164.00,0.0350
3163.00,0.0349
3162.00,0.0347
3161.00,0.0345
3160.00,0.0344
3159.00,0.0342
3158.00,0.0341
3157.00,0.0339
3156.00,0.0337
3155.00,0.0336
3154.00,0.0334
3153.00,0.0333
3152.00,0.0332
3151.00,0.0331
3150.00,0.0330
3149.00,0.0329
3148.00,0.0328
3147.00,0.0327
3146.00,0.0326
3145.00,0.0325
3144.00,0.0323
3143.00,0.0322
3142.00,0.0320
3141.00,0.0319
3140.00,0.0318
3139.00,0.0317
3138.00,0.0317
3137.00,0.0316
3136.00,0.0316
3135.00,0.0315
3134.00,0.0314
3133.00,0.0313
3132.00,0.0312
3131.00,0.0311
3130.00,0.0310
3129.00,0.0309
3128.00,0.0309
3127.00,0.0308
3126.00,0.0308
3125.00,0.0307
3124.00,0.0306
3123.00,0.0306
3122.00,0.0305
3121.00,0.0304
3120.00,0.0303
3119.00,0.0303
3118.00,0.0303
3117.00,0.0303
3116.00,0.0303
3115.00,0.0304
3114.00,0.0304
3113.00,0.0304
3112.00,0.0305
3111.00,0.0304
3110.00,0.0304
3109.00,0.0304
3108.00,0.0304
3107.00,0.0305
3106.00,0.0305
3105.00,0.0306
3104.00,0.0306
3103.00,0.0306
3102.00,0.0306
3101.00,0.0306
3100.00,0.0306
3099.00,0.0307
3098.00,0.0308
3097.00,0.0309
3096.00,0.0309
3095.00,0.0310
3094.00,0.0310
3093.00,0.0310
3092.00,0.0310
3091.00,0.0310
3090.00,0.0311
3089.00,0.0311
3088.00,0.0312
3087.00,0.0312
3086.00,0.0312
3085.00,0.0312
3084.00,0.0313
3083.00,0.0313
3082.00,0.0313
3081.00,0.0313
3080.00,0.0314
3079.00,0.0314
3078.00,0.0315
3077.00,0.0316
3076.00,0.0317
3075.00,0.0318
3074.00,0.0319
3073.00,0.0319
3072.00,0.0319
3071.00,0.0319
3070.00,0.0319
3069.00,0.0318
3068.00,0.0318
3067.00,0.0318
3066.00,0.0318
3065.00,0.0318
3064.00,0.0318
3063.00,0.0317
3062.00,0.0317
3061.00,0.0316
3060.00,0.0315
3059.00,0.0314
3058.00,0.0312
3057.00,0.0311
3056.00,0.0310
3055.00,0.0309
3054.00,0.0308
3053.00,0.0306
3052.00,0.0305
3051.00,0.0304
3050.00,0.0303
3049.00,0.0302
3048.00,0.0301
3047.00,0.0300
3046.00,0.0298
3045.00,0.0297
3044.00,0.0295
3043.00,0.0294
3042.00,0.0294
3041.00,0.0293
3040.00,0.0292
3039.00,0.0291
3038.00,0.0290
3037.00,0.0289
3036.00,0.0287
3035.00,0.0286
3034.00,0.0285
3033.00,0.0284
3032.00,0.0283
3031.00,0.0283
3030.00,0.0282
3029.00,0.0281
3028.00,0.0280
3027.00,0.0278
3026.00,0.0277
3025.00,0.0276
3024.00,0.0274
3023.00,0.0273
3022.00,0.0272
3021.00,0.0271
3020.00,0.0269
3019.00,0.0268
3018.00,0.0266
3017.00,0.0265
3016.00,0.0263
3015.00,0.0262
3014.00,0.0261
3013.00,0.0260
3012.00,0.0259
3011.00,0.0259
3010.00,0.0259
3009.00,0.0259
3008.00,0.0258
3007.00,0.0257
3006.00,0.0256
3005.00,0.0255
3004.00,0.0255
3003.00,0.0254
3002.00,0.0254
3001.00,0.0253
3000.00,0.0253
2999.00,0.0253
2998.00,0.0253
2997.00,0.0254
2996.00,0.0255
2995.00,0.0256
2994.00,0.0257
2993.00,0.0259
2992.00,0.0261
2991.00,0.0263
2990.00,0.0265
2989.00,0.0267
2988.00,0.0270
2987.00,0.0272
2986.00,0.0274
2985.00,0.0276
2984.00,0.0277
2983.00,0.0278
2982.00,0.0280
2981.00,0.0283
2980.00,0.0287
2979.00,0.0292
2978.00,0.0297
2977.00,0.0302
2976.00,0.0306
2975.00,0.0310
2974.00,0.0313
2973.00,0.0317
2972.00,0.0320
2971.00,0.0323
2970.00,0.0326
2969.00,0.0330
2968.00,0.0333
2967.00,0.0336
2966.00,0.0338
2965.00,0.0341
2964.00,0.0343
2963.00,0.0345
2962.00,0.0346
2961.00,0.0348
2960.00,0.0348
2959.00,0.0348
2958.00,0.0348
2957.00,0.0347
2956.00,0.0345
2955.00,0.0344
2954.00,0.0342
2953.00,0.0340
2952.00,0.0339
2951.00,0.0337
2950.00,0.0335
2949.00,0.0334
2948.00,0.0333
2947.00,0.0332
2946.00,0.0332
2945.00,0.0333
2944.00,0.0335
2943.00,0.0336
2942.00,0.0338
2941.00,0.0341
2940.00,0.0343
2939.00,0.0346
2938.00,0.0348
2937.00,0.0351
2936.00,0.0353
2935.00,0.0355
2934.00,0.0357
2933.00,0.0359
2932.00,0.0360
2931.00,0.0362
2930.00,0.0363
2929.00,0.0363
2928.00,0.0364
2927.00,0.0364
2926.00,0.0364
2925.00,0.0363
2924.00,0.0362
2923.00,0.0360
2922.00,0.0358
2921.00,0.0356
2920.00,0.0354
2919.00,0.0351
2918.00,0.0348
2917.00,0.0344
2916.00,0.0339
2915.00,0.0334
2914.00,0.0329
2913.00,0.0324
2912.00,0.0320
2911.00,0.0315
2910.00,0.0311
2909.00,0.0306
2908.00,0.0303
2907.00,0.0299
2906.00,0.0296
2905.00,0.0293
2904.00,0.0290
2903.00,0.0287
2902.00,0.0285
2901.00,0.0283
2900.00,0.0281
2899.00,0.0279
2898.00,0.0277
2897.00,0.0275
2896.00,0.0274
2895.00,0.0272
2894.00,0.0271
2893.00,0.0270
2892.00,0.0269
2891.00,0.0268
2890.00,0.0267
2889.00,0.0266
2888.00,0.0266
2887.00,0.0266
2886.00,0.0267
2885.00,0.0267
2884.00,0.0268
2883.00,0.0269
2882.00,0.0270
2881.00,0.0272
2880.00,0.0273
2879.00,0.0275
2878.00,0.0276
2877.00,0.0277
2876.00,0.0278
2875.00,0.0278
2874.00,0.0278
2873.00,0.0278
2872.00,0.0277
2871.00,0.0276
2870.00,0.0274
2869.00,0.0272
2868.00,0.0269
2867.00,0.0266
2866.00,0.0263
2865.00,0.0261
2864.00,0.0259
2863.00,0.0257
2862.00,0.0255
2861.00,0.0254
2860.00,0.0253
2859.00,0.0252
2858.00,0.0251
2857.00,0.0250
2856.00,0.0249
2855.00,0.0248
2854.00,0.0247
2853.00,0.0245
2852.00,0.0244
2851.00,0.0243
2850.00,0.0240
2849.00,0.0238
2848.00,0.0235
2847.00,0.0233
2846.00,0.0230
2845.00,0.0227
2844.00,0.0225
2843.00,0.0223
2842.00,0.0221
2841.00,0.0219
2840.00,0.0218
2839.00,0.0216
2838.00,0.0215
2837.00,0.0214
2836.00,0.0213
2835.00,0.0212
2834.00,0.0212
2833.00,0.0211
2832.00,0.0210
2831.00,0.0210
2830.00,0.0208
2829.00,0.0207
2828.00,0.0206
2827.00,0.0205
2826.00,0.0203
2825.00,0.0202
2824.00,0.0202
2823.00,0.0201
2822.00,0.0200
2821.00,0.0200
2820.00,0.0199
2819.00,0.0198
2818.00,0.0198
2817.00,0.0197
2816.00,0.0197
2815.00,0.0196
2814.00,0.0196
2813.00,0.0195
2812.00,0.0194
2811.00,0.0193
2810.00,0.0193
2809.00,0.0192
2808.00,0.0192
2807.00,0.0192
2806.00,0.0191
2805.00,0.0190
2804.00,0.0190
2803.00,0.0190
2802.00,0.0189
2801.00,0.0189
2800.00,0.0188
2799.00,0.0188
2798.00,0.0187
2797.00,0.0186
2796.00,0.0186
2795.00,0.0185
2794.00,0.0185
2793.00,0.0185
2792.00,0.0184
2791.00,0.0184
2790.00,0.0183
2789.00,0.0183
2788.00,0.0182
2787.00,0.0182
2786.00,0.0182
2785.00,0.0181
2784.00,0.0181
2783.00,0.0180
2782.00,0.0180
2781.00,0.0180
2780.00,0.0179
2779.00,0.0179
2778.00,0.0179
2777.00,0.0178
2776.00,0.0178
2775.00,0.0177
2774.00,0.0177
2773.00,0.0177
2772.00,0.0176
2771.00,0.0176
2770.00,0.0176
2769.00,0.0175
2768.00,0.0175
2767.00,0.0174
2766.00,0.0174
2765.00,0.0174
2764.00,0.0173
2763.00,0.0173
2762.00,0.0173
2761.00,0.0172
2760.00,0.0172
2759.00,0.0172
2758.00,0.0171
2757.00,0.0171
