Created as New Dataset,Sample 651 By YargerLab Date Tuesday, June 10 2025
cm-1,A
4000.00,0.0069
3999.00,0.0068
3998.00,0.0068
3997.00,0.0068
3996.00,0.0068
3995.00,0.0068
3994.00,0.0069
3993.00,0.0069
3992.00,0.0069
3991.00,0.0069
3990.00,0.0069
3989.00,0.0068
3988.00,0.0068
3987.00,0.0068
3986.00,0.0069
3985.00,0.0069
3984.00,0.0069
3983.00,0.0069
3982.00,0.0069
3981.00,0.0069
3980.00,0.0068
3979.00,0.0068
3978.00,0.0068
3977.00,0.0068
3976.00,0.0068
3975.00,0.0068
3974.00,0.0068
3973.00,0.0068
3972.00,0.0068
3971.00,0.0068
3970.00,0.0068
3969.00,0.0069
3968.00,0.0068
3967.00,0.0068
3966.00,0.0068
3965.00,0.0068
3964.00,0.0068
3963.00,0.0068
3962.00,0.0069
3961.00,0.0069
3960.00,0.0069
3959.00,0.0069
3958.00,0.0069
3957.00,0.0069
3956.00,0.0069
3955.00,0.0069
3954.00,0.0069
3953.00,0.0068
3952.00,0.0068
3951.00,0.0068
3950.00,0.0068
3949.00,0.0068
3948.00,0.0069
3947.00,0.0069
3946.00,0.0069
3945.00,0.0069
3944.00,0.0068
3943.00,0.0068
3942.00,0.0068
3941.00,0.0068
3940.00,0.0068
3939.00,0.0068
3938.00,0.0068
3937.00,0.0068
3936.00,0.0068
3935.00,0.0069
3934.00,0.0069
3933.00,0.0068
3932.00,0.0068
3931.00,0.0068
3930.00,0.0068
3929.00,0.0068
3928.00,0.0068
3927.00,0.0068
3926.00,0.0068
3925.00,0.0068
3924.00,0.0068
3923.00,0.0068
3922.00,0.0068
3921.00,0.0068
3920.00,0.0068
3919.00,0.0068
3918.00,0.0067
3917.00,0.0067
3916.00,0.0067
3915.00,0.0067
3914.00,0.0067
3913.00,0.0067
3912.00,0.0068
3911.00,0.0068
3910.00,0.0067
3909.00,0.0067
3908.00,0.0067
3907.00,0.0067
3906.00,0.0067
3905.00,0.0067
3904.00,0.0068
3903.00,0.0068
3902.00,0.0068
3901.00,0.0068
3900.00,0.0068
3899.00,0.0068
3898.00,0.0069
3897.00,0.0069
3896.00,0.0069
3895.00,0.0069
3894.00,0.0068
3893.00,0.0068
3892.00,0.0067
3891.00,0.0068
3890.00,0.0068
3889.00,0.0068
3888.00,0.0068
3887.00,0.0067
3886.00,0.0067
3885.00,0.0067
3884.00,0.0067
3883.00,0.0067
3882.00,0.0066
3881.00,0.0066
3880.00,0.0066
3879.00,0.0066
3878.00,0.0066
3877.00,0.0066
3876.00,0.0066
3875.00,0.0066
3874.00,0.0067
3873.00,0.0067
3872.00,0.0067
3871.00,0.0067
3870.00,0.0067
3869.00,0.0067
3868.00,0.0067
3867.00,0.0066
3866.00,0.0066
3865.00,0.0067
3864.00,0.0067
3863.00,0.0067
3862.00,0.0067
3861.00,0.0066
3860.00,0.0066
3859.00,0.0066
3858.00,0.0066
3857.00,0.0066
3856.00,0.0066
3855.00,0.0065
3854.00,0.0065
3853.00,0.0065
3852.00,0.0065
3851.00,0.0065
3850.00,0.0065
3849.00,0.0066
3848.00,0.0066
3847.00,0.0066
3846.00,0.0067
3845.00,0.0067
3844.00,0.0067
3843.00,0.0067
3842.00,0.0067
3841.00,0.0066
3840.00,0.0066
3839.00,0.0066
3838.00,0.0066
3837.00,0.0065
3836.00,0.0065
3835.00,0.0065
3834.00,0.0065
3833.00,0.0065
3832.00,0.0066
3831.00,0.0066
3830.00,0.0066
3829.00,0.0066
3828.00,0.0065
3827.00,0.0065
3826.00,0.0066
3825.00,0.0066
3824.00,0.0066
3823.00,0.0065
3822.00,0.0065
3821.00,0.0065
3820.00,0.0065
3819.00,0.0065
3818.00,0.0064
3817.00,0.0064
3816.00,0.0064
3815.00,0.0065
3814.00,0.0065
3813.00,0.0065
3812.00,0.0065
3811.00,0.0065
3810.00,0.0066
3809.00,0.0066
3808.00,0.0066
3807.00,0.0066
3806.00,0.0066
3805.00,0.0066
3804.00,0.0065
3803.00,0.0065
3802.00,0.0065
3801.00,0.0065
3800.00,0.0065
3799.00,0.0065
3798.00,0.0065
3797.00,0.0065
3796.00,0.0065
3795.00,0.0066
3794.00,0.0066
3793.00,0.0066
3792.00,0.0066
3791.00,0.0066
3790.00,0.0066
3789.00,0.0066
3788.00,0.0065
3787.00,0.0065
3786.00,0.0065
3785.00,0.0065
3784.00,0.0065
3783.00,0.0065
3782.00,0.0065
3781.00,0.0065
3780.00,0.0065
3779.00,0.0066
3778.00,0.0066
3777.00,0.0066
3776.00,0.0066
3775.00,0.0066
3774.00,0.0066
3773.00,0.0066
3772.00,0.0066
3771.00,0.0066
3770.00,0.0066
3769.00,0.0066
3768.00,0.0065
3767.00,0.0065
3766.00,0.0065
3765.00,0.0066
3764.00,0.0066
3763.00,0.0066
3762.00,0.0065
3761.00,0.0065
3760.00,0.0065
3759.00,0.0065
3758.00,0.0065
3757.00,0.0065
3756.00,0.0065
3755.00,0.0065
3754.00,0.0064
3753.00,0.0065
3752.00,0.0065
3751.00,0.0065
3750.00,0.0065
3749.00,0.0065
3748.00,0.0065
3747.00,0.0064
3746.00,0.0064
3745.00,0.0064
3744.00,0.0065
3743.00,0.0065
3742.00,0.0065
3741.00,0.0065
3740.00,0.0064
3739.00,0.0064
3738.00,0.0064
3737.00,0.0064
3736.00,0.0064
3735.00,0.0065
3734.00,0.0065
3733.00,0.0065
3732.00,0.0065
3731.00,0.0065
3730.00,0.0065
3729.00,0.0065
3728.00,0.0065
3727.00,0.0065
3726.00,0.0065
3725.00,0.0065
3724.00,0.0065
3723.00,0.0065
3722.00,0.0065
3721.00,0.0065
3720.00,0.0064
3719.00,0.0064
3718.00,0.0064
3717.00,0.0064
3716.00,0.0064
3715.00,0.0064
3714.00,0.0064
3713.00,0.0064
3712.00,0.0064
3711.00,0.0064
3710.00,0.0064
3709.00,0.0064
3708.00,0.0064
3707.00,0.0064
3706.00,0.0064
3705.00,0.0064
3704.00,0.0063
3703.00,0.0063
3702.00,0.0063
3701.00,0.0064
3700.00,0.0064
3699.00,0.0064
3698.00,0.0064
3697.00,0.0064
3696.00,0.0064
3695.00,0.0064
3694.00,0.0064
3693.00,0.0064
3692.00,0.0063
3691.00,0.0063
3690.00,0.0063
3689.00,0.0062
3688.00,0.0062
3687.00,0.0062
3686.00,0.0062
3685.00,0.0063
3684.00,0.0063
3683.00,0.0063
3682.00,0.0064
3681.00,0.0064
3680.00,0.0065
3679.00,0.0065
3678.00,0.0066
3677.00,0.0066
3676.00,0.0065
3675.00,0.0065
3674.00,0.0065
3673.00,0.0064
3672.00,0.0064
3671.00,0.0064
3670.00,0.0064
3669.00,0.0065
3668.00,0.0065
3667.00,0.0066
3666.00,0.0066
3665.00,0.0066
3664.00,0.0067
3663.00,0.0067
3662.00,0.0067
3661.00,0.0067
3660.00,0.0067
3659.00,0.0067
3658.00,0.0067
3657.00,0.0067
3656.00,0.0067
3655.00,0.0068
3654.00,0.0068
3653.00,0.0068
3652.00,0.0068
3651.00,0.0068
3650.00,0.0068
3649.00,0.0068
3648.00,0.0068
3647.00,0.0068
3646.00,0.0068
3645.00,0.0068
3644.00,0.0067
3643.00,0.0068
3642.00,0.0068
3641.00,0.0069
3640.00,0.0070
3639.00,0.0070
3638.00,0.0070
3637.00,0.0070
3636.00,0.0071
3635.00,0.0071
3634.00,0.0071
3633.00,0.0072
3632.00,0.0072
3631.00,0.0072
3630.00,0.0073
3629.00,0.0073
3628.00,0.0073
3627.00,0.0073
3626.00,0.0073
3625.00,0.0074
3624.00,0.0074
3623.00,0.0074
3622.00,0.0074
3621.00,0.0074
3620.00,0.0074
3619.00,0.0074
3618.00,0.0074
3617.00,0.0074
3616.00,0.0075
3615.00,0.0075
3614.00,0.0076
3613.00,0.0076
3612.00,0.0077
3611.00,0.0078
3610.00,0.0078
3609.00,0.0079
3608.00,0.0079
3607.00,0.0079
3606.00,0.0079
3605.00,0.0079
3604.00,0.0080
3603.00,0.0081
3602.00,0.0081
3601.00,0.0082
3600.00,0.0082
3599.00,0.0082
3598.00,0.0083
3597.00,0.0083
3596.00,0.0083
3595.00,0.0084
3594.00,0.0084
3593.00,0.0084
3592.00,0.0085
3591.00,0.0085
3590.00,0.0085
3589.00,0.0086
3588.00,0.0086
3587.00,0.0086
3586.00,0.0086
3585.00,0.0087
3584.00,0.0087
3583.00,0.0088
3582.00,0.0089
3581.00,0.0089
3580.00,0.0089
3579.00,0.0089
3578.00,0.0089
3577.00,0.0090
3576.00,0.0090
3575.00,0.0091
3574.00,0.0091
3573.00,0.0092
3572.00,0.0093
3571.00,0.0093
3570.00,0.0095
3569.00,0.0095
3568.00,0.0096
3567.00,0.0096
3566.00,0.0096
3565.00,0.0096
3564.00,0.0096
3563.00,0.0096
3562.00,0.0097
3561.00,0.0098
3560.00,0.0098
3559.00,0.0098
3558.00,0.0098
3557.00,0.0099
3556.00,0.0099
3555.00,0.0099
3554.00,0.0099
3553.00,0.0100
3552.00,0.0100
3551.00,0.0100
3550.00,0.0101
3549.00,0.0102
3548.00,0.0103
3547.00,0.0104
3546.00,0.0105
3545.00,0.0105
3544.00,0.0105
3543.00,0.0106
3542.00,0.0106
3541.00,0.0106
3540.00,0.0107
3539.00,0.0107
3538.00,0.0108
3537.00,0.0108
3536.00,0.0109
3535.00,0.0109
3534.00,0.0109
3533.00,0.0109
3532.00,0.0110
3531.00,0.0110
3530.00,0.0111
3529.00,0.0112
3528.00,0.0112
3527.00,0.0113
3526.00,0.0114
3525.00,0.0114
3524.00,0.0115
3523.00,0.0116
3522.00,0.0116
3521.00,0.0117
3520.00,0.0118
3519.00,0.0118
3518.00,0.0119
3517.00,0.0119
3516.00,0.0119
3515.00,0.0119
3514.00,0.0120
3513.00,0.0120
3512.00,0.0120
3511.00,0.0121
3510.00,0.0121
3509.00,0.0121
3508.00,0.0122
3507.00,0.0122
3506.00,0.0123
3505.00,0.0123
3504.00,0.0124
3503.00,0.0125
3502.00,0.0125
3501.00,0.0125
3500.00,0.0126
3499.00,0.0126
3498.00,0.0127
3497.00,0.0128
3496.00,0.0129
3495.00,0.0129
3494.00,0.0129
3493.00,0.0130
3492.00,0.0130
3491.00,0.0130
3490.00,0.0131
3489.00,0.0131
3488.00,0.0132
3487.00,0.0133
3486.00,0.0134
3485.00,0.0134
3484.00,0.0135
3483.00,0.0135
3482.00,0.0136
3481.00,0.0136
3480.00,0.0137
3479.00,0.0138
3478.00,0.0139
3477.00,0.0140
3476.00,0.0140
3475.00,0.0141
3474.00,0.0141
3473.00,0.0141
3472.00,0.0142
3471.00,0.0142
3470.00,0.0143
3469.00,0.0143
3468.00,0.0144
3467.00,0.0144
3466.00,0.0145
3465.00,0.0145
3464.00,0.0146
3463.00,0.0146
3462.00,0.0147
3461.00,0.0148
3460.00,0.0149
3459.00,0.0150
3458.00,0.0152
3457.00,0.0153
3456.00,0.0154
3455.00,0.0154
3454.00,0.0153
3453.00,0.0153
3452.00,0.0153
3451.00,0.0153
3450.00,0.0154
3449.00,0.0155
3448.00,0.0155
3447.00,0.0156
3446.00,0.0156
3445.00,0.0156
3444.00,0.0157
3443.00,0.0157
3442.00,0.0158
3441.00,0.0159
3440.00,0.0160
3439.00,0.0161
3438.00,0.0161
3437.00,0.0162
3436.00,0.0162
3435.00,0.0162
3434.00,0.0163
3433.00,0.0163
3432.00,0.0164
3431.00,0.0165
3430.00,0.0166
3429.00,0.0166
3428.00,0.0167
3427.00,0.0168
3426.00,0.0168
3425.00,0.0169
3424.00,0.0169
3423.00,0.0170
3422.00,0.0171
3421.00,0.0172
3420.00,0.0173
3419.00,0.0173
3418.00,0.0174
3417.00,0.0174
3416.00,0.0175
3415.00,0.0176
3414.00,0.0177
3413.00,0.0178
3412.00,0.0178
3411.00,0.0179
3410.00,0.0179
3409.00,0.0180
3408.00,0.0180
3407.00,0.0181
3406.00,0.0181
3405.00,0.0182
3404.00,0.0182
3403.00,0.0183
3402.00,0.0184
3401.00,0.0185
3400.00,0.0186
3399.00,0.0186
3398.00,0.0187
3397.00,0.0188
3396.00,0.0188
3395.00,0.0189
3394.00,0.0190
3393.00,0.0191
3392.00,0.0191
3391.00,0.0192
3390.00,0.0193
3389.00,0.0194
3388.00,0.0194
3387.00,0.0195
3386.00,0.0196
3385.00,0.0197
3384.00,0.0197
3383.00,0.0198
3382.00,0.0199
3381.00,0.0199
3380.00,0.0200
3379.00,0.0201
3378.00,0.0202
3377.00,0.0203
3376.00,0.0203
3375.00,0.0204
3374.00,0.0205
3373.00,0.0206
3372.00,0.0207
3371.00,0.0208
3370.00,0.0209
3369.00,0.0210
3368.00,0.0211
3367.00,0.0212
3366.00,0.0213
3365.00,0.0214
3364.00,0.0216
3363.00,0.0217
3362.00,0.0218
3361.00,0.0219
3360.00,0.0220
3359.00,0.0221
3358.00,0.0222
3357.00,0.0223
3356.00,0.0224
3355.00,0.0225
3354.00,0.0227
3353.00,0.0228
3352.00,0.0230
3351.00,0.0231
3350.00,0.0232
3349.00,0.0233
3348.00,0.0235
3347.00,0.0236
3346.00,0.0238
3345.00,0.0239
3344.00,0.0240
3343.00,0.0242
3342.00,0.0243
3341.00,0.0244
3340.00,0.0246
3339.00,0.0248
3338.00,0.0250
3337.00,0.0252
3336.00,0.0253
3335.00,0.0254
3334.00,0.0256
3333.00,0.0257
3332.00,0.0258
3331.00,0.0260
3330.00,0.0262
3329.00,0.0264
3328.00,0.0266
3327.00,0.0267
3326.00,0.0269
3325.00,0.0270
3324.00,0.0272
3323.00,0.0273
3322.00,0.0275
3321.00,0.0277
3320.00,0.0279
3319.00,0.0281
3318.00,0.0282
3317.00,0.0284
3316.00,0.0286
3315.00,0.0287
3314.00,0.0289
3313.00,0.0291
3312.00,0.0293
3311.00,0.0295
3310.00,0.0296
3309.00,0.0298
3308.00,0.0300
3307.00,0.0301
3306.00,0.0303
3305.00,0.0305
3304.00,0.0307
3303.00,0.0309
3302.00,0.0311
3301.00,0.0313
3300.00,0.0315
3299.00,0.0317
3298.00,0.0319
3297.00,0.0320
3296.00,0.0322
3295.00,0.0323
3294.00,0.0325
3293.00,0.0326
3292.00,0.0327
3291.00,0.0329
3290.00,0.0330
3289.00,0.0331
3288.00,0.0332
3287.00,0.0334
3286.00,0.0335
3285.00,0.0336
3284.00,0.0337
3283.00,0.0338
3282.00,0.0338
3281.00,0.0339
3280.00,0.0339
3279.00,0.0339
3278.00,0.0339
3277.00,0.0339
3276.00,0.0339
3275.00,0.0338
3274.00,0.0338
3273.00,0.0337
3272.00,0.0336
3271.00,0.0335
3270.00,0.0334
3269.00,0.0333
3268.00,0.0333
3267.00,0.0331
3266.00,0.0330
3265.00,0.0329
3264.00,0.0327
3263.00,0.0325
3262.00,0.0323
3261.00,0.0321
3260.00,0.0319
3259.00,0.0318
3258.00,0.0316
3257.00,0.0314
3256.00,0.0312
3255.00,0.0310
3254.00,0.0309
3253.00,0.0307
3252.00,0.0305
3251.00,0.0303
3250.00,0.0302
3249.00,0.0300
3248.00,0.0299
3247.00,0.0297
3246.00,0.0295
3245.00,0.0294
3244.00,0.0292
3243.00,0.0290
3242.00,0.0288
3241.00,0.0287
3240.00,0.0285
3239.00,0.0283
3238.00,0.0282
3237.00,0.0281
3236.00,0.0279
3235.00,0.0278
3234.00,0.0277
3233.00,0.0276
3232.00,0.0274
3231.00,0.0273
3230.00,0.0271
3229.00,0.0270
3228.00,0.0269
3227.00,0.0268
3226.00,0.0267
3225.00,0.0266
3224.00,0.0265
3223.00,0.0263
3222.00,0.0262
3221.00,0.0261
3220.00,0.0260
3219.00,0.0259
3218.00,0.0258
3217.00,0.0258
3216.00,0.0257
3215.00,0.0256
3214.00,0.0255
3213.00,0.0254
3212.00,0.0253
3211.00,0.0252
3210.00,0.0251
3209.00,0.0250
3208.00,0.0249
3207.00,0.0248
3206.00,0.0247
3205.00,0.0246
3204.00,0.0245
3203.00,0.0244
3202.00,0.0244
3201.00,0.0243
3200.00,0.0242
3199.00,0.0241
3198.00,0.0241
3197.00,0.0240
3196.00,0.0239
3195.00,0.0237
3194.00,0.0236
3193.00,0.0235
3192.00,0.0234
3191.00,0.0233
3190.00,0.0232
3189.00,0.0231
3188.00,0.0230
3187.00,0.0229
3186.00,0.0228
3185.00,0.0227
3184.00,0.0226
3183.00,0.0225
3182.00,0.0224
3181.00,0.0223
3180.00,0.0222
3179.00,0.0220
3178.00,0.0219
3177.00,0.0219
3176.00,0.0218
3175.00,0.0217
3174.00,0.0216
3173.00,0.0214
3172.00,0.0212
3171.00,0.0211
3170.00,0.0210
3169.00,0.0209
3168.00,0.0208
3167.00,0.0207
3166.00,0.0206
3165.00,0.0204
3164.00,0.0203
3163.00,0.0202
3162.00,0.0200
3161.00,0.0199
3160.00,0.0198
3159.00,0.0197
3158.00,0.0196
3157.00,0.0196
3156.00,0.0195
3155.00,0.0194
3154.00,0.0193
3153.00,0.0192
3152.00,0.0191
3151.00,0.0190
3150.00,0.0190
3149.00,0.0189
3148.00,0.0188
3147.00,0.0187
3146.00,0.0187
3145.00,0.0186
3144.00,0.0185
3143.00,0.0185
3142.00,0.0184
3141.00,0.0183
3140.00,0.0182
3139.00,0.0181
3138.00,0.0180
3137.00,0.0179
3136.00,0.0179
3135.00,0.0178
3134.00,0.0177
3133.00,0.0177
3132.00,0.0176
3131.00,0.0176
3130.00,0.0175
3129.00,0.0175
3128.00,0.0174
3127.00,0.0174
3126.00,0.0173
3125.00,0.0173
3124.00,0.0172
3123.00,0.0172
3122.00,0.0171
3121.00,0.0171
3120.00,0.0170
3119.00,0.0170
3118.00,0.0170
3117.00,0.0169
3116.00,0.0169
3115.00,0.0169
3114.00,0.0169
3113.00,0.0168
3112.00,0.0168
3111.00,0.0168
3110.00,0.0168
3109.00,0.0169
3108.00,0.0169
3107.00,0.0169
3106.00,0.0169
3105.00,0.0169
3104.00,0.0169
3103.00,0.0170
3102.00,0.0170
3101.00,0.0170
3100.00,0.0170
3099.00,0.0170
3098.00,0.0170
3097.00,0.0170
3096.00,0.0170
3095.00,0.0170
3094.00,0.0171
3093.00,0.0171
3092.00,0.0171
3091.00,0.0171
3090.00,0.0171
3089.00,0.0172
3088.00,0.0172
3087.00,0.0172
3086.00,0.0172
3085.00,0.0172
3084.00,0.0172
3083.00,0.0172
3082.00,0.0172
3081.00,0.0172
3080.00,0.0172
3079.00,0.0172
3078.00,0.0173
3077.00,0.0173
3076.00,0.0173
3075.00,0.0174
3074.00,0.0174
3073.00,0.0174
3072.00,0.0174
3071.00,0.0174
3070.00,0.0174
3069.00,0.0174
3068.00,0.0174
3067.00,0.0174
3066.00,0.0174
3065.00,0.0174
3064.00,0.0174
3063.00,0.0174
3062.00,0.0174
3061.00,0.0174
3060.00,0.0174
3059.00,0.0173
3058.00,0.0173
3057.00,0.0172
3056.00,0.0171
3055.00,0.0171
3054.00,0.0170
3053.00,0.0169
3052.00,0.0169
3051.00,0.0168
3050.00,0.0168
3049.00,0.0168
3048.00,0.0167
3047.00,0.0167
3046.00,0.0166
3045.00,0.0165
3044.00,0.0165
3043.00,0.0164
3042.00,0.0164
3041.00,0.0163
3040.00,0.0163
3039.00,0.0162
3038.00,0.0161
3037.00,0.0161
3036.00,0.0160
3035.00,0.0159
3034.00,0.0158
3033.00,0.0157
3032.00,0.0157
3031.00,0.0156
3030.00,0.0156
3029.00,0.0156
3028.00,0.0156
3027.00,0.0155
3026.00,0.0154
3025.00,0.0154
3024.00,0.0153
3023.00,0.0152
3022.00,0.0151
3021.00,0.0150
3020.00,0.0149
3019.00,0.0147
3018.00,0.0146
3017.00,0.0146
3016.00,0.0146
3015.00,0.0145
3014.00,0.0145
3013.00,0.0145
3012.00,0.0145
3011.00,0.0145
3010.00,0.0145
3009.00,0.0145
3008.00,0.0145
3007.00,0.0145
3006.00,0.0145
3005.00,0.0144
3004.00,0.0144
3003.00,0.0144
3002.00,0.0144
3001.00,0.0144
3000.00,0.0144
2999.00,0.0144
2998.00,0.0145
2997.00,0.0145
2996.00,0.0146
2995.00,0.0146
2994.00,0.0147
2993.00,0.0147
2992.00,0.0148
2991.00,0.0149
2990.00,0.0150
2989.00,0.0150
2988.00,0.0151
2987.00,0.0152
2986.00,0.0153
2985.00,0.0154
2984.00,0.0155
2983.00,0.0156
2982.00,0.0157
2981.00,0.0158
2980.00,0.0159
2979.00,0.0160
2978.00,0.0161
2977.00,0.0161
2976.00,0.0162
2975.00,0.0163
2974.00,0.0164
2973.00,0.0165
2972.00,0.0166
2971.00,0.0167
2970.00,0.0168
2969.00,0.0168
2968.00,0.0169
2967.00,0.0170
2966.00,0.0170
2965.00,0.0170
2964.00,0.0170
2963.00,0.0171
2962.00,0.0171
2961.00,0.0171
2960.00,0.0171
2959.00,0.0171
2958.00,0.0171
2957.00,0.0170
2956.00,0.0169
2955.00,0.0169
2954.00,0.0168
2953.00,0.0168
2952.00,0.0167
2951.00,0.0167
2950.00,0.0166
2949.00,0.0166
2948.00,0.0166
2947.00,0.0166
2946.00,0.0167
2945.00,0.0167
2944.00,0.0168
2943.00,0.0169
2942.00,0.0171
2941.00,0.0172
2940.00,0.0173
2939.00,0.0174
2938.00,0.0176
2937.00,0.0177
2936.00,0.0179
2935.00,0.0180
2934.00,0.0181
2933.00,0.0182
2932.00,0.0183
2931.00,0.0184
2930.00,0.0185
2929.00,0.0186
2928.00,0.0187
2927.00,0.0188
2926.00,0.0190
2925.00,0.0192
2924.00,0.0193
2923.00,0.0195
2922.00,0.0198
2921.00,0.0200
2920.00,0.0202
2919.00,0.0203
2918.00,0.0204
2917.00,0.0204
2916.00,0.0202
2915.00,0.0199
2914.00,0.0195
2913.00,0.0191
2912.00,0.0186
2911.00,0.0181
2910.00,0.0177
2909.00,0.0174
2908.00,0.0171
2907.00,0.0169
2906.00,0.0167
2905.00,0.0165
2904.00,0.0164
2903.00,0.0163
2902.00,0.0162
2901.00,0.0161
2900.00,0.0160
2899.00,0.0159
2898.00,0.0158
2897.00,0.0158
2896.00,0.0157
2895.00,0.0156
2894.00,0.0156
2893.00,0.0155
2892.00,0.0155
2891.00,0.0154
2890.00,0.0154
2889.00,0.0154
2888.00,0.0153
2887.00,0.0153
2886.00,0.0153
2885.00,0.0153
2884.00,0.0153
2883.00,0.0153
2882.00,0.0153
2881.00,0.0154
2880.00,0.0154
2879.00,0.0154
2878.00,0.0154
2877.00,0.0154
2876.00,0.0154
2875.00,0.0154
2874.00,0.0154
2873.00,0.0154
2872.00,0.0153
2871.00,0.0153
2870.00,0.0152
2869.00,0.0151
2868.00,0.0150
2867.00,0.0149
2866.00,0.0147
2865.00,0.0146
2864.00,0.0145
2863.00,0.0145
2862.00,0.0144
2861.00,0.0144
2860.00,0.0144
2859.00,0.0144
2858.00,0.0145
2857.00,0.0147
2856.00,0.0148
2855.00,0.0150
2854.00,0.0152
2853.00,0.0155
2852.00,0.0158
2851.00,0.0160
2850.00,0.0161
2849.00,0.0161
2848.00,0.0160
2847.00,0.0156
2846.00,0.0152
2845.00,0.0148
2844.00,0.0144
2843.00,0.0141
2842.00,0.0138
2841.00,0.0136
2840.00,0.0135
2839.00,0.0133
2838.00,0.0132
2837.00,0.0130
2836.00,0.0129
2835.00,0.0128
2834.00,0.0128
2833.00,0.0127
2832.00,0.0127
2831.00,0.0126
2830.00,0.0126
2829.00,0.0126
2828.00,0.0126
2827.00,0.0125
2826.00,0.0125
2825.00,0.0124
2824.00,0.0124
2823.00,0.0124
2822.00,0.0124
2821.00,0.0123
2820.00,0.0123
2819.00,0.0123
2818.00,0.0122
2817.00,0.0122
2816.00,0.0122
2815.00,0.0121
2814.00,0.0121
2813.00,0.0121
2812.00,0.0121
2811.00,0.0121
2810.00,0.0120
2809.00,0.0120
2808.00,0.0120
2807.00,0.0119
2806.00,0.0119
2805.00,0.0119
2804.00,0.0119
2803.00,0.0119
2802.00,0.0118
2801.00,0.0118
2800.00,0.0118
2799.00,0.0118
2798.00,0.0117
2797.00,0.0117
2796.00,0.0116
2795.00,0.0116
2794.00,0.0116
2793.00,0.0116
2792.00,0.0116
2791.00,0.0116
2790.00,0.0116
2789.00,0.0116
2788.00,0.0116
2787.00,0.0115
2786.00,0.0115
2785.00,0.0115
2784.00,0.0115
2783.00,0.0114
2782.00,0.0114
2781.00,0.0114
2780.00,0.0114
2779.00,0.0114
2778.00,0.0113
2777.00,0.0113
2776.00,0.0113
2775.00,0.0112
2774.00,0.0112
2773.00,0.0112
2772.00,0.0112
2771.00,0.0111
2770.00,0.0111
2769.00,0.0111
2768.00,0.0111
2767.00,0.0111
2766.00,0.0110
2765.00,0.0110
2764.00,0.0110
2763.00,0.0110
2762.00,0.0110
2761.00,0.0110
2760.00,0.0110
2759.00,0.0110
2758.00,0.0110
2757.00,0.0110
