Created as New Dataset,Sample 491 By YargerLab Date Sunday, April 13 2025
cm-1,A
4000.00,0.0058
3999.00,0.0058
3998.00,0.0058
3997.00,0.0058
3996.00,0.0058
3995.00,0.0058
3994.00,0.0058
3993.00,0.0058
3992.00,0.0058
3991.00,0.0058
3990.00,0.0058
3989.00,0.0058
3988.00,0.0058
3987.00,0.0059
3986.00,0.0059
3985.00,0.0059
3984.00,0.0059
3983.00,0.0059
3982.00,0.0059
3981.00,0.0059
3980.00,0.0059
3979.00,0.0059
3978.00,0.0059
3977.00,0.0059
3976.00,0.0058
3975.00,0.0058
3974.00,0.0058
3973.00,0.0058
3972.00,0.0059
3971.00,0.0059
3970.00,0.0059
3969.00,0.0058
3968.00,0.0058
3967.00,0.0058
3966.00,0.0058
3965.00,0.0058
3964.00,0.0058
3963.00,0.0058
3962.00,0.0058
3961.00,0.0058
3960.00,0.0058
3959.00,0.0058
3958.00,0.0058
3957.00,0.0058
3956.00,0.0058
3955.00,0.0058
3954.00,0.0058
3953.00,0.0057
3952.00,0.0057
3951.00,0.0057
3950.00,0.0058
3949.00,0.0058
3948.00,0.0058
3947.00,0.0058
3946.00,0.0058
3945.00,0.0058
3944.00,0.0058
3943.00,0.0058
3942.00,0.0058
3941.00,0.0058
3940.00,0.0059
3939.00,0.0059
3938.00,0.0058
3937.00,0.0058
3936.00,0.0058
3935.00,0.0059
3934.00,0.0058
3933.00,0.0058
3932.00,0.0058
3931.00,0.0058
3930.00,0.0058
3929.00,0.0059
3928.00,0.0059
3927.00,0.0059
3926.00,0.0059
3925.00,0.0059
3924.00,0.0059
3923.00,0.0059
3922.00,0.0058
3921.00,0.0058
3920.00,0.0058
3919.00,0.0057
3918.00,0.0057
3917.00,0.0057
3916.00,0.0057
3915.00,0.0057
3914.00,0.0058
3913.00,0.0058
3912.00,0.0058
3911.00,0.0058
3910.00,0.0058
3909.00,0.0057
3908.00,0.0057
3907.00,0.0058
3906.00,0.0058
3905.00,0.0058
3904.00,0.0059
3903.00,0.0059
3902.00,0.0059
3901.00,0.0060
3900.00,0.0060
3899.00,0.0059
3898.00,0.0059
3897.00,0.0059
3896.00,0.0059
3895.00,0.0059
3894.00,0.0059
3893.00,0.0059
3892.00,0.0059
3891.00,0.0059
3890.00,0.0059
3889.00,0.0059
3888.00,0.0059
3887.00,0.0058
3886.00,0.0057
3885.00,0.0057
3884.00,0.0057
3883.00,0.0058
3882.00,0.0058
3881.00,0.0058
3880.00,0.0058
3879.00,0.0058
3878.00,0.0059
3877.00,0.0059
3876.00,0.0059
3875.00,0.0058
3874.00,0.0058
3873.00,0.0058
3872.00,0.0059
3871.00,0.0059
3870.00,0.0059
3869.00,0.0059
3868.00,0.0059
3867.00,0.0060
3866.00,0.0059
3865.00,0.0059
3864.00,0.0059
3863.00,0.0059
3862.00,0.0059
3861.00,0.0059
3860.00,0.0058
3859.00,0.0058
3858.00,0.0058
3857.00,0.0058
3856.00,0.0059
3855.00,0.0059
3854.00,0.0059
3853.00,0.0059
3852.00,0.0059
3851.00,0.0059
3850.00,0.0059
3849.00,0.0059
3848.00,0.0058
3847.00,0.0058
3846.00,0.0058
3845.00,0.0058
3844.00,0.0059
3843.00,0.0059
3842.00,0.0059
3841.00,0.0059
3840.00,0.0059
3839.00,0.0059
3838.00,0.0059
3837.00,0.0059
3836.00,0.0060
3835.00,0.0060
3834.00,0.0060
3833.00,0.0059
3832.00,0.0058
3831.00,0.0058
3830.00,0.0058
3829.00,0.0058
3828.00,0.0058
3827.00,0.0058
3826.00,0.0057
3825.00,0.0057
3824.00,0.0058
3823.00,0.0058
3822.00,0.0058
3821.00,0.0058
3820.00,0.0058
3819.00,0.0058
3818.00,0.0059
3817.00,0.0058
3816.00,0.0058
3815.00,0.0057
3814.00,0.0058
3813.00,0.0058
3812.00,0.0057
3811.00,0.0057
3810.00,0.0057
3809.00,0.0057
3808.00,0.0057
3807.00,0.0057
3806.00,0.0057
3805.00,0.0058
3804.00,0.0059
3803.00,0.0059
3802.00,0.0059
3801.00,0.0058
3800.00,0.0058
3799.00,0.0058
3798.00,0.0058
3797.00,0.0057
3796.00,0.0056
3795.00,0.0056
3794.00,0.0056
3793.00,0.0057
3792.00,0.0057
3791.00,0.0057
3790.00,0.0056
3789.00,0.0056
3788.00,0.0057
3787.00,0.0057
3786.00,0.0057
3785.00,0.0057
3784.00,0.0057
3783.00,0.0057
3782.00,0.0057
3781.00,0.0057
3780.00,0.0057
3779.00,0.0056
3778.00,0.0056
3777.00,0.0056
3776.00,0.0056
3775.00,0.0056
3774.00,0.0056
3773.00,0.0056
3772.00,0.0056
3771.00,0.0056
3770.00,0.0056
3769.00,0.0056
3768.00,0.0056
3767.00,0.0057
3766.00,0.0057
3765.00,0.0057
3764.00,0.0057
3763.00,0.0057
3762.00,0.0057
3761.00,0.0057
3760.00,0.0057
3759.00,0.0056
3758.00,0.0056
3757.00,0.0056
3756.00,0.0056
3755.00,0.0056
3754.00,0.0057
3753.00,0.0058
3752.00,0.0058
3751.00,0.0058
3750.00,0.0058
3749.00,0.0057
3748.00,0.0057
3747.00,0.0058
3746.00,0.0057
3745.00,0.0056
3744.00,0.0056
3743.00,0.0056
3742.00,0.0056
3741.00,0.0057
3740.00,0.0057
3739.00,0.0057
3738.00,0.0057
3737.00,0.0057
3736.00,0.0057
3735.00,0.0057
3734.00,0.0057
3733.00,0.0057
3732.00,0.0056
3731.00,0.0056
3730.00,0.0056
3729.00,0.0056
3728.00,0.0056
3727.00,0.0056
3726.00,0.0056
3725.00,0.0055
3724.00,0.0055
3723.00,0.0055
3722.00,0.0055
3721.00,0.0055
3720.00,0.0055
3719.00,0.0055
3718.00,0.0055
3717.00,0.0055
3716.00,0.0055
3715.00,0.0055
3714.00,0.0055
3713.00,0.0055
3712.00,0.0055
3711.00,0.0055
3710.00,0.0056
3709.00,0.0056
3708.00,0.0056
3707.00,0.0055
3706.00,0.0055
3705.00,0.0055
3704.00,0.0055
3703.00,0.0055
3702.00,0.0055
3701.00,0.0055
3700.00,0.0055
3699.00,0.0055
3698.00,0.0055
3697.00,0.0055
3696.00,0.0054
3695.00,0.0054
3694.00,0.0054
3693.00,0.0054
3692.00,0.0054
3691.00,0.0054
3690.00,0.0054
3689.00,0.0054
3688.00,0.0054
3687.00,0.0054
3686.00,0.0054
3685.00,0.0054
3684.00,0.0054
3683.00,0.0054
3682.00,0.0054
3681.00,0.0055
3680.00,0.0055
3679.00,0.0055
3678.00,0.0056
3677.00,0.0057
3676.00,0.0057
3675.00,0.0056
3674.00,0.0056
3673.00,0.0057
3672.00,0.0057
3671.00,0.0056
3670.00,0.0055
3669.00,0.0055
3668.00,0.0055
3667.00,0.0055
3666.00,0.0055
3665.00,0.0055
3664.00,0.0055
3663.00,0.0055
3662.00,0.0054
3661.00,0.0054
3660.00,0.0054
3659.00,0.0055
3658.00,0.0055
3657.00,0.0055
3656.00,0.0055
3655.00,0.0054
3654.00,0.0055
3653.00,0.0055
3652.00,0.0056
3651.00,0.0057
3650.00,0.0057
3649.00,0.0057
3648.00,0.0057
3647.00,0.0057
3646.00,0.0056
3645.00,0.0055
3644.00,0.0055
3643.00,0.0054
3642.00,0.0054
3641.00,0.0054
3640.00,0.0054
3639.00,0.0054
3638.00,0.0054
3637.00,0.0054
3636.00,0.0055
3635.00,0.0055
3634.00,0.0055
3633.00,0.0055
3632.00,0.0056
3631.00,0.0056
3630.00,0.0056
3629.00,0.0055
3628.00,0.0054
3627.00,0.0054
3626.00,0.0055
3625.00,0.0055
3624.00,0.0055
3623.00,0.0055
3622.00,0.0055
3621.00,0.0055
3620.00,0.0055
3619.00,0.0055
3618.00,0.0055
3617.00,0.0056
3616.00,0.0056
3615.00,0.0056
3614.00,0.0056
3613.00,0.0056
3612.00,0.0056
3611.00,0.0056
3610.00,0.0056
3609.00,0.0056
3608.00,0.0056
3607.00,0.0057
3606.00,0.0056
3605.00,0.0056
3604.00,0.0056
3603.00,0.0056
3602.00,0.0055
3601.00,0.0055
3600.00,0.0055
3599.00,0.0055
3598.00,0.0055
3597.00,0.0055
3596.00,0.0056
3595.00,0.0056
3594.00,0.0056
3593.00,0.0056
3592.00,0.0056
3591.00,0.0056
3590.00,0.0056
3589.00,0.0056
3588.00,0.0057
3587.00,0.0057
3586.00,0.0057
3585.00,0.0058
3584.00,0.0058
3583.00,0.0058
3582.00,0.0058
3581.00,0.0058
3580.00,0.0059
3579.00,0.0058
3578.00,0.0058
3577.00,0.0058
3576.00,0.0058
3575.00,0.0058
3574.00,0.0058
3573.00,0.0057
3572.00,0.0057
3571.00,0.0057
3570.00,0.0057
3569.00,0.0056
3568.00,0.0056
3567.00,0.0057
3566.00,0.0057
3565.00,0.0058
3564.00,0.0058
3563.00,0.0059
3562.00,0.0059
3561.00,0.0059
3560.00,0.0059
3559.00,0.0059
3558.00,0.0059
3557.00,0.0059
3556.00,0.0059
3555.00,0.0059
3554.00,0.0060
3553.00,0.0060
3552.00,0.0060
3551.00,0.0060
3550.00,0.0060
3549.00,0.0060
3548.00,0.0060
3547.00,0.0061
3546.00,0.0061
3545.00,0.0061
3544.00,0.0061
3543.00,0.0061
3542.00,0.0061
3541.00,0.0061
3540.00,0.0062
3539.00,0.0062
3538.00,0.0062
3537.00,0.0062
3536.00,0.0062
3535.00,0.0062
3534.00,0.0062
3533.00,0.0063
3532.00,0.0063
3531.00,0.0063
3530.00,0.0063
3529.00,0.0064
3528.00,0.0064
3527.00,0.0065
3526.00,0.0065
3525.00,0.0065
3524.00,0.0065
3523.00,0.0066
3522.00,0.0066
3521.00,0.0067
3520.00,0.0067
3519.00,0.0068
3518.00,0.0068
3517.00,0.0067
3516.00,0.0067
3515.00,0.0067
3514.00,0.0067
3513.00,0.0067
3512.00,0.0067
3511.00,0.0067
3510.00,0.0067
3509.00,0.0067
3508.00,0.0067
3507.00,0.0067
3506.00,0.0066
3505.00,0.0066
3504.00,0.0066
3503.00,0.0066
3502.00,0.0066
3501.00,0.0067
3500.00,0.0067
3499.00,0.0067
3498.00,0.0067
3497.00,0.0067
3496.00,0.0067
3495.00,0.0067
3494.00,0.0067
3493.00,0.0068
3492.00,0.0068
3491.00,0.0068
3490.00,0.0068
3489.00,0.0068
3488.00,0.0068
3487.00,0.0068
3486.00,0.0068
3485.00,0.0068
3484.00,0.0068
3483.00,0.0068
3482.00,0.0068
3481.00,0.0068
3480.00,0.0069
3479.00,0.0070
3478.00,0.0070
3477.00,0.0070
3476.00,0.0070
3475.00,0.0071
3474.00,0.0071
3473.00,0.0071
3472.00,0.0071
3471.00,0.0072
3470.00,0.0072
3469.00,0.0072
3468.00,0.0072
3467.00,0.0072
3466.00,0.0072
3465.00,0.0072
3464.00,0.0072
3463.00,0.0072
3462.00,0.0072
3461.00,0.0072
3460.00,0.0072
3459.00,0.0073
3458.00,0.0073
3457.00,0.0073
3456.00,0.0073
3455.00,0.0074
3454.00,0.0074
3453.00,0.0074
3452.00,0.0074
3451.00,0.0074
3450.00,0.0074
3449.00,0.0073
3448.00,0.0074
3447.00,0.0074
3446.00,0.0075
3445.00,0.0075
3444.00,0.0075
3443.00,0.0075
3442.00,0.0075
3441.00,0.0074
3440.00,0.0074
3439.00,0.0074
3438.00,0.0075
3437.00,0.0075
3436.00,0.0075
3435.00,0.0075
3434.00,0.0075
3433.00,0.0075
3432.00,0.0076
3431.00,0.0076
3430.00,0.0076
3429.00,0.0077
3428.00,0.0077
3427.00,0.0077
3426.00,0.0077
3425.00,0.0078
3424.00,0.0078
3423.00,0.0079
3422.00,0.0079
3421.00,0.0078
3420.00,0.0078
3419.00,0.0079
3418.00,0.0079
3417.00,0.0079
3416.00,0.0080
3415.00,0.0080
3414.00,0.0080
3413.00,0.0081
3412.00,0.0081
3411.00,0.0081
3410.00,0.0082
3409.00,0.0082
3408.00,0.0082
3407.00,0.0082
3406.00,0.0082
3405.00,0.0082
3404.00,0.0083
3403.00,0.0083
3402.00,0.0083
3401.00,0.0083
3400.00,0.0083
3399.00,0.0083
3398.00,0.0083
3397.00,0.0083
3396.00,0.0083
3395.00,0.0082
3394.00,0.0082
3393.00,0.0082
3392.00,0.0083
3391.00,0.0083
3390.00,0.0083
3389.00,0.0083
3388.00,0.0083
3387.00,0.0083
3386.00,0.0083
3385.00,0.0083
3384.00,0.0083
3383.00,0.0083
3382.00,0.0083
3381.00,0.0082
3380.00,0.0082
3379.00,0.0082
3378.00,0.0082
3377.00,0.0083
3376.00,0.0083
3375.00,0.0083
3374.00,0.0083
3373.00,0.0084
3372.00,0.0084
3371.00,0.0084
3370.00,0.0084
3369.00,0.0084
3368.00,0.0084
3367.00,0.0084
3366.00,0.0084
3365.00,0.0085
3364.00,0.0085
3363.00,0.0086
3362.00,0.0086
3361.00,0.0086
3360.00,0.0086
3359.00,0.0086
3358.00,0.0086
3357.00,0.0087
3356.00,0.0087
3355.00,0.0087
3354.00,0.0088
3353.00,0.0088
3352.00,0.0088
3351.00,0.0089
3350.00,0.0089
3349.00,0.0089
3348.00,0.0090
3347.00,0.0090
3346.00,0.0090
3345.00,0.0090
3344.00,0.0091
3343.00,0.0091
3342.00,0.0091
3341.00,0.0092
3340.00,0.0092
3339.00,0.0093
3338.00,0.0093
3337.00,0.0093
3336.00,0.0094
3335.00,0.0094
3334.00,0.0095
3333.00,0.0096
3332.00,0.0096
3331.00,0.0097
3330.00,0.0097
3329.00,0.0097
3328.00,0.0097
3327.00,0.0097
3326.00,0.0097
3325.00,0.0098
3324.00,0.0099
3323.00,0.0100
3322.00,0.0100
3321.00,0.0101
3320.00,0.0101
3319.00,0.0102
3318.00,0.0102
3317.00,0.0103
3316.00,0.0104
3315.00,0.0104
3314.00,0.0105
3313.00,0.0105
3312.00,0.0106
3311.00,0.0106
3310.00,0.0107
3309.00,0.0108
3308.00,0.0109
3307.00,0.0109
3306.00,0.0110
3305.00,0.0110
3304.00,0.0111
3303.00,0.0112
3302.00,0.0113
3301.00,0.0114
3300.00,0.0116
3299.00,0.0117
3298.00,0.0118
3297.00,0.0118
3296.00,0.0119
3295.00,0.0119
3294.00,0.0120
3293.00,0.0120
3292.00,0.0120
3291.00,0.0121
3290.00,0.0122
3289.00,0.0123
3288.00,0.0123
3287.00,0.0124
3286.00,0.0125
3285.00,0.0125
3284.00,0.0126
3283.00,0.0127
3282.00,0.0127
3281.00,0.0127
3280.00,0.0128
3279.00,0.0128
3278.00,0.0128
3277.00,0.0129
3276.00,0.0130
3275.00,0.0130
3274.00,0.0130
3273.00,0.0130
3272.00,0.0130
3271.00,0.0130
3270.00,0.0130
3269.00,0.0130
3268.00,0.0130
3267.00,0.0130
3266.00,0.0130
3265.00,0.0129
3264.00,0.0129
3263.00,0.0129
3262.00,0.0128
3261.00,0.0128
3260.00,0.0128
3259.00,0.0128
3258.00,0.0127
3257.00,0.0127
3256.00,0.0126
3255.00,0.0126
3254.00,0.0125
3253.00,0.0125
3252.00,0.0124
3251.00,0.0124
3250.00,0.0123
3249.00,0.0122
3248.00,0.0122
3247.00,0.0122
3246.00,0.0121
3245.00,0.0121
3244.00,0.0121
3243.00,0.0120
3242.00,0.0120
3241.00,0.0120
3240.00,0.0119
3239.00,0.0119
3238.00,0.0118
3237.00,0.0118
3236.00,0.0117
3235.00,0.0117
3234.00,0.0116
3233.00,0.0116
3232.00,0.0116
3231.00,0.0116
3230.00,0.0116
3229.00,0.0116
3228.00,0.0115
3227.00,0.0115
3226.00,0.0115
3225.00,0.0114
3224.00,0.0113
3223.00,0.0113
3222.00,0.0113
3221.00,0.0113
3220.00,0.0113
3219.00,0.0112
3218.00,0.0112
3217.00,0.0112
3216.00,0.0111
3215.00,0.0111
3214.00,0.0111
3213.00,0.0111
3212.00,0.0110
3211.00,0.0110
3210.00,0.0110
3209.00,0.0110
3208.00,0.0110
3207.00,0.0110
3206.00,0.0109
3205.00,0.0109
3204.00,0.0108
3203.00,0.0108
3202.00,0.0108
3201.00,0.0108
3200.00,0.0108
3199.00,0.0107
3198.00,0.0107
3197.00,0.0107
3196.00,0.0107
3195.00,0.0106
3194.00,0.0106
3193.00,0.0105
3192.00,0.0105
3191.00,0.0105
3190.00,0.0105
3189.00,0.0105
3188.00,0.0105
3187.00,0.0105
3186.00,0.0105
3185.00,0.0104
3184.00,0.0104
3183.00,0.0104
3182.00,0.0104
3181.00,0.0104
3180.00,0.0103
3179.00,0.0102
3178.00,0.0102
3177.00,0.0102
3176.00,0.0102
3175.00,0.0101
3174.00,0.0101
3173.00,0.0101
3172.00,0.0100
3171.00,0.0100
3170.00,0.0100
3169.00,0.0100
3168.00,0.0099
3167.00,0.0099
3166.00,0.0098
3165.00,0.0098
3164.00,0.0098
3163.00,0.0098
3162.00,0.0098
3161.00,0.0098
3160.00,0.0098
3159.00,0.0098
3158.00,0.0098
3157.00,0.0097
3156.00,0.0096
3155.00,0.0096
3154.00,0.0095
3153.00,0.0095
3152.00,0.0095
3151.00,0.0095
3150.00,0.0095
3149.00,0.0095
3148.00,0.0095
3147.00,0.0095
3146.00,0.0094
3145.00,0.0094
3144.00,0.0094
3143.00,0.0094
3142.00,0.0093
3141.00,0.0093
3140.00,0.0093
3139.00,0.0093
3138.00,0.0093
3137.00,0.0093
3136.00,0.0093
3135.00,0.0093
3134.00,0.0093
3133.00,0.0092
3132.00,0.0092
3131.00,0.0092
3130.00,0.0092
3129.00,0.0091
3128.00,0.0091
3127.00,0.0091
3126.00,0.0091
3125.00,0.0091
3124.00,0.0090
3123.00,0.0090
3122.00,0.0090
3121.00,0.0090
3120.00,0.0090
3119.00,0.0090
3118.00,0.0090
3117.00,0.0090
3116.00,0.0090
3115.00,0.0090
3114.00,0.0090
3113.00,0.0090
3112.00,0.0089
3111.00,0.0089
3110.00,0.0089
3109.00,0.0090
3108.00,0.0090
3107.00,0.0090
3106.00,0.0090
3105.00,0.0090
3104.00,0.0091
3103.00,0.0091
3102.00,0.0091
3101.00,0.0090
3100.00,0.0090
3099.00,0.0090
3098.00,0.0090
3097.00,0.0090
3096.00,0.0090
3095.00,0.0091
3094.00,0.0091
3093.00,0.0091
3092.00,0.0092
3091.00,0.0092
3090.00,0.0092
3089.00,0.0092
3088.00,0.0092
3087.00,0.0092
3086.00,0.0092
3085.00,0.0092
3084.00,0.0092
3083.00,0.0092
3082.00,0.0092
3081.00,0.0092
3080.00,0.0092
3079.00,0.0092
3078.00,0.0092
3077.00,0.0093
3076.00,0.0093
3075.00,0.0093
3074.00,0.0093
3073.00,0.0094
3072.00,0.0094
3071.00,0.0094
3070.00,0.0094
3069.00,0.0094
3068.00,0.0093
3067.00,0.0093
3066.00,0.0093
3065.00,0.0093
3064.00,0.0093
3063.00,0.0093
3062.00,0.0093
3061.00,0.0093
3060.00,0.0093
3059.00,0.0093
3058.00,0.0093
3057.00,0.0093
3056.00,0.0093
3055.00,0.0092
3054.00,0.0092
3053.00,0.0092
3052.00,0.0091
3051.00,0.0091
3050.00,0.0091
3049.00,0.0091
3048.00,0.0091
3047.00,0.0091
3046.00,0.0090
3045.00,0.0090
3044.00,0.0090
3043.00,0.0090
3042.00,0.0090
3041.00,0.0090
3040.00,0.0090
3039.00,0.0090
3038.00,0.0090
3037.00,0.0090
3036.00,0.0090
3035.00,0.0090
3034.00,0.0090
3033.00,0.0090
3032.00,0.0090
3031.00,0.0089
3030.00,0.0089
3029.00,0.0089
3028.00,0.0089
3027.00,0.0088
3026.00,0.0088
3025.00,0.0088
3024.00,0.0087
3023.00,0.0087
3022.00,0.0087
3021.00,0.0086
3020.00,0.0086
3019.00,0.0086
3018.00,0.0086
3017.00,0.0086
3016.00,0.0085
3015.00,0.0085
3014.00,0.0085
3013.00,0.0085
3012.00,0.0085
3011.00,0.0085
3010.00,0.0085
3009.00,0.0085
3008.00,0.0085
3007.00,0.0085
3006.00,0.0084
3005.00,0.0084
3004.00,0.0084
3003.00,0.0084
3002.00,0.0084
3001.00,0.0084
3000.00,0.0084
2999.00,0.0084
2998.00,0.0084
2997.00,0.0084
2996.00,0.0084
2995.00,0.0083
2994.00,0.0083
2993.00,0.0084
2992.00,0.0084
2991.00,0.0085
2990.00,0.0085
2989.00,0.0086
2988.00,0.0086
2987.00,0.0087
2986.00,0.0087
2985.00,0.0087
2984.00,0.0088
2983.00,0.0088
2982.00,0.0089
2981.00,0.0089
2980.00,0.0090
2979.00,0.0090
2978.00,0.0091
2977.00,0.0091
2976.00,0.0091
2975.00,0.0092
2974.00,0.0093
2973.00,0.0094
2972.00,0.0095
2971.00,0.0096
2970.00,0.0096
2969.00,0.0097
2968.00,0.0098
2967.00,0.0099
2966.00,0.0099
2965.00,0.0100
2964.00,0.0100
2963.00,0.0101
2962.00,0.0101
2961.00,0.0101
2960.00,0.0102
2959.00,0.0101
2958.00,0.0101
2957.00,0.0101
2956.00,0.0101
2955.00,0.0101
2954.00,0.0101
2953.00,0.0101
2952.00,0.0101
2951.00,0.0101
2950.00,0.0101
2949.00,0.0101
2948.00,0.0101
2947.00,0.0101
2946.00,0.0101
2945.00,0.0102
2944.00,0.0102
2943.00,0.0103
2942.00,0.0104
2941.00,0.0105
2940.00,0.0106
2939.00,0.0107
2938.00,0.0108
2937.00,0.0109
2936.00,0.0110
2935.00,0.0110
2934.00,0.0111
2933.00,0.0113
2932.00,0.0114
2931.00,0.0115
2930.00,0.0116
2929.00,0.0117
2928.00,0.0117
2927.00,0.0117
2926.00,0.0117
2925.00,0.0117
2924.00,0.0118
2923.00,0.0118
2922.00,0.0118
2921.00,0.0117
2920.00,0.0117
2919.00,0.0116
2918.00,0.0115
2917.00,0.0114
2916.00,0.0113
2915.00,0.0112
2914.00,0.0111
2913.00,0.0109
2912.00,0.0108
2911.00,0.0107
2910.00,0.0106
2909.00,0.0105
2908.00,0.0105
2907.00,0.0104
2906.00,0.0103
2905.00,0.0102
2904.00,0.0102
2903.00,0.0102
2902.00,0.0101
2901.00,0.0101
2900.00,0.0100
2899.00,0.0100
2898.00,0.0099
2897.00,0.0099
2896.00,0.0098
2895.00,0.0098
2894.00,0.0098
2893.00,0.0097
2892.00,0.0097
2891.00,0.0097
2890.00,0.0097
2889.00,0.0096
2888.00,0.0096
2887.00,0.0096
2886.00,0.0096
2885.00,0.0096
2884.00,0.0097
2883.00,0.0097
2882.00,0.0097
2881.00,0.0097
2880.00,0.0097
2879.00,0.0097
2878.00,0.0098
2877.00,0.0098
2876.00,0.0099
2875.00,0.0099
2874.00,0.0100
2873.00,0.0100
2872.00,0.0100
2871.00,0.0100
2870.00,0.0100
2869.00,0.0099
2868.00,0.0099
2867.00,0.0098
2866.00,0.0098
2865.00,0.0098
2864.00,0.0098
2863.00,0.0098
2862.00,0.0099
2861.00,0.0100
2860.00,0.0100
2859.00,0.0101
2858.00,0.0101
2857.00,0.0102
2856.00,0.0102
2855.00,0.0102
2854.00,0.0102
2853.00,0.0102
2852.00,0.0101
2851.00,0.0101
2850.00,0.0100
2849.00,0.0099
2848.00,0.0097
2847.00,0.0096
2846.00,0.0095
2845.00,0.0094
2844.00,0.0093
2843.00,0.0092
2842.00,0.0092
2841.00,0.0091
2840.00,0.0090
2839.00,0.0090
2838.00,0.0090
2837.00,0.0090
2836.00,0.0090
2835.00,0.0090
2834.00,0.0089
2833.00,0.0089
2832.00,0.0089
2831.00,0.0089
2830.00,0.0089
2829.00,0.0088
2828.00,0.0088
2827.00,0.0088
2826.00,0.0087
2825.00,0.0087
2824.00,0.0087
2823.00,0.0086
2822.00,0.0086
2821.00,0.0086
2820.00,0.0086
2819.00,0.0085
2818.00,0.0085
2817.00,0.0085
2816.00,0.0085
2815.00,0.0085
2814.00,0.0085
2813.00,0.0085
2812.00,0.0084
2811.00,0.0084
2810.00,0.0084
2809.00,0.0084
2808.00,0.0084
2807.00,0.0084
2806.00,0.0084
2805.00,0.0084
2804.00,0.0084
2803.00,0.0084
2802.00,0.0084
2801.00,0.0084
2800.00,0.0084
2799.00,0.0084
2798.00,0.0084
2797.00,0.0084
2796.00,0.0084
2795.00,0.0083
2794.00,0.0083
2793.00,0.0083
2792.00,0.0083
2791.00,0.0083
2790.00,0.0083
2789.00,0.0083
2788.00,0.0082
2787.00,0.0082
2786.00,0.0082
2785.00,0.0082
2784.00,0.0082
2783.00,0.0082
2782.00,0.0082
2781.00,0.0082
2780.00,0.0082
2779.00,0.0082
2778.00,0.0082
2777.00,0.0082
2776.00,0.0082
2775.00,0.0082
2774.00,0.0081
2773.00,0.0081
2772.00,0.0081
2771.00,0.0081
2770.00,0.0081
2769.00,0.0081
2768.00,0.0081
2767.00,0.0080
2766.00,0.0080
2765.00,0.0080
2764.00,0.0080
2763.00,0.0081
2762.00,0.0081
2761.00,0.0081
2760.00,0.0081
2759.00,0.0081
2758.00,0.0081
2757.00,0.0081
