Created as New Dataset,Sample 520 By YargerLab Date Monday, May 19 2025
cm-1,A
4000.00,-0.0033
3999.00,-0.0033
3998.00,-0.0033
3997.00,-0.0033
3996.00,-0.0033
3995.00,-0.0033
3994.00,-0.0033
3993.00,-0.0034
3992.00,-0.0034
3991.00,-0.0034
3990.00,-0.0034
3989.00,-0.0034
3988.00,-0.0034
3987.00,-0.0034
3986.00,-0.0034
3985.00,-0.0034
3984.00,-0.0034
3983.00,-0.0035
3982.00,-0.0035
3981.00,-0.0035
3980.00,-0.0035
3979.00,-0.0035
3978.00,-0.0035
3977.00,-0.0035
3976.00,-0.0036
3975.00,-0.0036
3974.00,-0.0036
3973.00,-0.0036
3972.00,-0.0036
3971.00,-0.0036
3970.00,-0.0036
3969.00,-0.0036
3968.00,-0.0036
3967.00,-0.0036
3966.00,-0.0037
3965.00,-0.0037
3964.00,-0.0036
3963.00,-0.0036
3962.00,-0.0036
3961.00,-0.0036
3960.00,-0.0036
3959.00,-0.0036
3958.00,-0.0036
3957.00,-0.0036
3956.00,-0.0036
3955.00,-0.0037
3954.00,-0.0037
3953.00,-0.0036
3952.00,-0.0036
3951.00,-0.0037
3950.00,-0.0037
3949.00,-0.0037
3948.00,-0.0037
3947.00,-0.0037
3946.00,-0.0037
3945.00,-0.0038
3944.00,-0.0038
3943.00,-0.0038
3942.00,-0.0038
3941.00,-0.0038
3940.00,-0.0038
3939.00,-0.0038
3938.00,-0.0038
3937.00,-0.0038
3936.00,-0.0038
3935.00,-0.0038
3934.00,-0.0038
3933.00,-0.0038
3932.00,-0.0038
3931.00,-0.0038
3930.00,-0.0038
3929.00,-0.0038
3928.00,-0.0039
3927.00,-0.0039
3926.00,-0.0039
3925.00,-0.0039
3924.00,-0.0039
3923.00,-0.0039
3922.00,-0.0039
3921.00,-0.0039
3920.00,-0.0039
3919.00,-0.0039
3918.00,-0.0039
3917.00,-0.0039
3916.00,-0.0039
3915.00,-0.0039
3914.00,-0.0039
3913.00,-0.0039
3912.00,-0.0039
3911.00,-0.0039
3910.00,-0.0039
3909.00,-0.0039
3908.00,-0.0039
3907.00,-0.0039
3906.00,-0.0039
3905.00,-0.0039
3904.00,-0.0039
3903.00,-0.0039
3902.00,-0.0039
3901.00,-0.0039
3900.00,-0.0039
3899.00,-0.0040
3898.00,-0.0040
3897.00,-0.0040
3896.00,-0.0040
3895.00,-0.0040
3894.00,-0.0040
3893.00,-0.0040
3892.00,-0.0040
3891.00,-0.0040
3890.00,-0.0040
3889.00,-0.0039
3888.00,-0.0040
3887.00,-0.0040
3886.00,-0.0040
3885.00,-0.0040
3884.00,-0.0040
3883.00,-0.0040
3882.00,-0.0041
3881.00,-0.0041
3880.00,-0.0041
3879.00,-0.0041
3878.00,-0.0041
3877.00,-0.0041
3876.00,-0.0042
3875.00,-0.0042
3874.00,-0.0042
3873.00,-0.0042
3872.00,-0.0042
3871.00,-0.0042
3870.00,-0.0042
3869.00,-0.0042
3868.00,-0.0042
3867.00,-0.0042
3866.00,-0.0042
3865.00,-0.0043
3864.00,-0.0043
3863.00,-0.0043
3862.00,-0.0043
3861.00,-0.0043
3860.00,-0.0043
3859.00,-0.0043
3858.00,-0.0042
3857.00,-0.0041
3856.00,-0.0041
3855.00,-0.0041
3854.00,-0.0041
3853.00,-0.0042
3852.00,-0.0042
3851.00,-0.0042
3850.00,-0.0043
3849.00,-0.0044
3848.00,-0.0045
3847.00,-0.0045
3846.00,-0.0045
3845.00,-0.0045
3844.00,-0.0044
3843.00,-0.0044
3842.00,-0.0044
3841.00,-0.0044
3840.00,-0.0044
3839.00,-0.0044
3838.00,-0.0045
3837.00,-0.0045
3836.00,-0.0045
3835.00,-0.0045
3834.00,-0.0045
3833.00,-0.0045
3832.00,-0.0044
3831.00,-0.0044
3830.00,-0.0044
3829.00,-0.0044
3828.00,-0.0045
3827.00,-0.0045
3826.00,-0.0045
3825.00,-0.0045
3824.00,-0.0045
3823.00,-0.0045
3822.00,-0.0046
3821.00,-0.0046
3820.00,-0.0046
3819.00,-0.0045
3818.00,-0.0046
3817.00,-0.0046
3816.00,-0.0046
3815.00,-0.0046
3814.00,-0.0045
3813.00,-0.0045
3812.00,-0.0046
3811.00,-0.0046
3810.00,-0.0046
3809.00,-0.0046
3808.00,-0.0046
3807.00,-0.0046
3806.00,-0.0046
3805.00,-0.0046
3804.00,-0.0046
3803.00,-0.0046
3802.00,-0.0047
3801.00,-0.0048
3800.00,-0.0047
3799.00,-0.0047
3798.00,-0.0048
3797.00,-0.0048
3796.00,-0.0049
3795.00,-0.0049
3794.00,-0.0049
3793.00,-0.0049
3792.00,-0.0049
3791.00,-0.0049
3790.00,-0.0049
3789.00,-0.0049
3788.00,-0.0049
3787.00,-0.0050
3786.00,-0.0050
3785.00,-0.0050
3784.00,-0.0051
3783.00,-0.0051
3782.00,-0.0052
3781.00,-0.0052
3780.00,-0.0052
3779.00,-0.0052
3778.00,-0.0052
3777.00,-0.0052
3776.00,-0.0052
3775.00,-0.0052
3774.00,-0.0052
3773.00,-0.0052
3772.00,-0.0052
3771.00,-0.0053
3770.00,-0.0053
3769.00,-0.0054
3768.00,-0.0054
3767.00,-0.0054
3766.00,-0.0054
3765.00,-0.0054
3764.00,-0.0054
3763.00,-0.0054
3762.00,-0.0055
3761.00,-0.0055
3760.00,-0.0056
3759.00,-0.0056
3758.00,-0.0056
3757.00,-0.0055
3756.00,-0.0055
3755.00,-0.0055
3754.00,-0.0054
3753.00,-0.0053
3752.00,-0.0054
3751.00,-0.0054
3750.00,-0.0055
3749.00,-0.0055
3748.00,-0.0055
3747.00,-0.0055
3746.00,-0.0055
3745.00,-0.0056
3744.00,-0.0056
3743.00,-0.0056
3742.00,-0.0055
3741.00,-0.0056
3740.00,-0.0056
3739.00,-0.0056
3738.00,-0.0056
3737.00,-0.0056
3736.00,-0.0057
3735.00,-0.0057
3734.00,-0.0057
3733.00,-0.0057
3732.00,-0.0056
3731.00,-0.0056
3730.00,-0.0056
3729.00,-0.0056
3728.00,-0.0056
3727.00,-0.0056
3726.00,-0.0056
3725.00,-0.0057
3724.00,-0.0057
3723.00,-0.0057
3722.00,-0.0058
3721.00,-0.0058
3720.00,-0.0057
3719.00,-0.0057
3718.00,-0.0057
3717.00,-0.0057
3716.00,-0.0057
3715.00,-0.0056
3714.00,-0.0056
3713.00,-0.0056
3712.00,-0.0056
3711.00,-0.0057
3710.00,-0.0057
3709.00,-0.0057
3708.00,-0.0057
3707.00,-0.0057
3706.00,-0.0057
3705.00,-0.0057
3704.00,-0.0057
3703.00,-0.0056
3702.00,-0.0056
3701.00,-0.0055
3700.00,-0.0055
3699.00,-0.0055
3698.00,-0.0055
3697.00,-0.0054
3696.00,-0.0054
3695.00,-0.0053
3694.00,-0.0052
3693.00,-0.0052
3692.00,-0.0051
3691.00,-0.0049
3690.00,-0.0047
3689.00,-0.0045
3688.00,-0.0043
3687.00,-0.0040
3686.00,-0.0037
3685.00,-0.0034
3684.00,-0.0031
3683.00,-0.0027
3682.00,-0.0023
3681.00,-0.0018
3680.00,-0.0013
3679.00,-0.0008
3678.00,-0.0003
3677.00,0.0002
3676.00,0.0008
3675.00,0.0013
3674.00,0.0019
3673.00,0.0023
3672.00,0.0025
3671.00,0.0028
3670.00,0.0029
3669.00,0.0031
3668.00,0.0033
3667.00,0.0035
3666.00,0.0036
3665.00,0.0038
3664.00,0.0041
3663.00,0.0043
3662.00,0.0046
3661.00,0.0047
3660.00,0.0049
3659.00,0.0050
3658.00,0.0050
3657.00,0.0050
3656.00,0.0050
3655.00,0.0049
3654.00,0.0048
3653.00,0.0047
3652.00,0.0045
3651.00,0.0045
3650.00,0.0044
3649.00,0.0043
3648.00,0.0042
3647.00,0.0040
3646.00,0.0038
3645.00,0.0036
3644.00,0.0033
3643.00,0.0030
3642.00,0.0027
3641.00,0.0025
3640.00,0.0024
3639.00,0.0024
3638.00,0.0025
3637.00,0.0024
3636.00,0.0019
3635.00,0.0012
3634.00,0.0003
3633.00,-0.0004
3632.00,-0.0008
3631.00,-0.0011
3630.00,-0.0014
3629.00,-0.0016
3628.00,-0.0017
3627.00,-0.0018
3626.00,-0.0020
3625.00,-0.0021
3624.00,-0.0022
3623.00,-0.0022
3622.00,-0.0022
3621.00,-0.0022
3620.00,-0.0022
3619.00,-0.0023
3618.00,-0.0024
3617.00,-0.0024
3616.00,-0.0025
3615.00,-0.0025
3614.00,-0.0026
3613.00,-0.0026
3612.00,-0.0025
3611.00,-0.0025
3610.00,-0.0025
3609.00,-0.0025
3608.00,-0.0025
3607.00,-0.0025
3606.00,-0.0025
3605.00,-0.0025
3604.00,-0.0025
3603.00,-0.0025
3602.00,-0.0024
3601.00,-0.0024
3600.00,-0.0023
3599.00,-0.0022
3598.00,-0.0022
3597.00,-0.0021
3596.00,-0.0021
3595.00,-0.0021
3594.00,-0.0020
3593.00,-0.0019
3592.00,-0.0018
3591.00,-0.0018
3590.00,-0.0017
3589.00,-0.0017
3588.00,-0.0016
3587.00,-0.0016
3586.00,-0.0015
3585.00,-0.0014
3584.00,-0.0014
3583.00,-0.0013
3582.00,-0.0013
3581.00,-0.0012
3580.00,-0.0011
3579.00,-0.0010
3578.00,-0.0010
3577.00,-0.0009
3576.00,-0.0008
3575.00,-0.0007
3574.00,-0.0006
3573.00,-0.0005
3572.00,-0.0005
3571.00,-0.0005
3570.00,-0.0004
3569.00,-0.0004
3568.00,-0.0003
3567.00,-0.0003
3566.00,-0.0002
3565.00,-0.0001
3564.00,-0.0000
3563.00,0.0001
3562.00,0.0002
3561.00,0.0003
3560.00,0.0004
3559.00,0.0005
3558.00,0.0006
3557.00,0.0006
3556.00,0.0007
3555.00,0.0008
3554.00,0.0009
3553.00,0.0009
3552.00,0.0010
3551.00,0.0011
3550.00,0.0011
3549.00,0.0012
3548.00,0.0013
3547.00,0.0014
3546.00,0.0015
3545.00,0.0016
3544.00,0.0017
3543.00,0.0018
3542.00,0.0019
3541.00,0.0019
3540.00,0.0020
3539.00,0.0021
3538.00,0.0021
3537.00,0.0022
3536.00,0.0023
3535.00,0.0023
3534.00,0.0024
3533.00,0.0025
3532.00,0.0026
3531.00,0.0026
3530.00,0.0027
3529.00,0.0027
3528.00,0.0028
3527.00,0.0028
3526.00,0.0029
3525.00,0.0030
3524.00,0.0031
3523.00,0.0032
3522.00,0.0032
3521.00,0.0033
3520.00,0.0034
3519.00,0.0034
3518.00,0.0035
3517.00,0.0037
3516.00,0.0037
3515.00,0.0038
3514.00,0.0039
3513.00,0.0039
3512.00,0.0039
3511.00,0.0040
3510.00,0.0041
3509.00,0.0042
3508.00,0.0043
3507.00,0.0044
3506.00,0.0044
3505.00,0.0045
3504.00,0.0046
3503.00,0.0046
3502.00,0.0047
3501.00,0.0048
3500.00,0.0048
3499.00,0.0049
3498.00,0.0050
3497.00,0.0051
3496.00,0.0052
3495.00,0.0052
3494.00,0.0053
3493.00,0.0053
3492.00,0.0054
3491.00,0.0055
3490.00,0.0055
3489.00,0.0056
3488.00,0.0057
3487.00,0.0058
3486.00,0.0058
3485.00,0.0059
3484.00,0.0060
3483.00,0.0060
3482.00,0.0061
3481.00,0.0061
3480.00,0.0062
3479.00,0.0063
3478.00,0.0063
3477.00,0.0064
3476.00,0.0065
3475.00,0.0066
3474.00,0.0066
3473.00,0.0067
3472.00,0.0068
3471.00,0.0068
3470.00,0.0069
3469.00,0.0070
3468.00,0.0071
3467.00,0.0071
3466.00,0.0072
3465.00,0.0072
3464.00,0.0073
3463.00,0.0073
3462.00,0.0074
3461.00,0.0074
3460.00,0.0075
3459.00,0.0076
3458.00,0.0076
3457.00,0.0077
3456.00,0.0077
3455.00,0.0078
3454.00,0.0078
3453.00,0.0079
3452.00,0.0080
3451.00,0.0081
3450.00,0.0082
3449.00,0.0082
3448.00,0.0082
3447.00,0.0083
3446.00,0.0083
3445.00,0.0084
3444.00,0.0084
3443.00,0.0085
3442.00,0.0086
3441.00,0.0087
3440.00,0.0087
3439.00,0.0088
3438.00,0.0089
3437.00,0.0090
3436.00,0.0090
3435.00,0.0091
3434.00,0.0092
3433.00,0.0093
3432.00,0.0094
3431.00,0.0095
3430.00,0.0096
3429.00,0.0097
3428.00,0.0098
3427.00,0.0099
3426.00,0.0100
3425.00,0.0100
3424.00,0.0101
3423.00,0.0102
3422.00,0.0103
3421.00,0.0104
3420.00,0.0105
3419.00,0.0106
3418.00,0.0107
3417.00,0.0108
3416.00,0.0109
3415.00,0.0110
3414.00,0.0111
3413.00,0.0112
3412.00,0.0113
3411.00,0.0114
3410.00,0.0115
3409.00,0.0117
3408.00,0.0118
3407.00,0.0119
3406.00,0.0120
3405.00,0.0121
3404.00,0.0122
3403.00,0.0123
3402.00,0.0124
3401.00,0.0124
3400.00,0.0126
3399.00,0.0127
3398.00,0.0128
3397.00,0.0130
3396.00,0.0131
3395.00,0.0132
3394.00,0.0133
3393.00,0.0133
3392.00,0.0134
3391.00,0.0136
3390.00,0.0137
3389.00,0.0138
3388.00,0.0140
3387.00,0.0141
3386.00,0.0142
3385.00,0.0143
3384.00,0.0144
3383.00,0.0146
3382.00,0.0147
3381.00,0.0148
3380.00,0.0150
3379.00,0.0151
3378.00,0.0153
3377.00,0.0154
3376.00,0.0156
3375.00,0.0157
3374.00,0.0159
3373.00,0.0161
3372.00,0.0162
3371.00,0.0163
3370.00,0.0165
3369.00,0.0166
3368.00,0.0168
3367.00,0.0170
3366.00,0.0172
3365.00,0.0175
3364.00,0.0177
3363.00,0.0180
3362.00,0.0182
3361.00,0.0185
3360.00,0.0187
3359.00,0.0190
3358.00,0.0192
3357.00,0.0195
3356.00,0.0197
3355.00,0.0200
3354.00,0.0202
3353.00,0.0204
3352.00,0.0207
3351.00,0.0209
3350.00,0.0212
3349.00,0.0216
3348.00,0.0219
3347.00,0.0222
3346.00,0.0225
3345.00,0.0228
3344.00,0.0231
3343.00,0.0234
3342.00,0.0238
3341.00,0.0241
3340.00,0.0244
3339.00,0.0248
3338.00,0.0252
3337.00,0.0256
3336.00,0.0260
3335.00,0.0265
3334.00,0.0269
3333.00,0.0274
3332.00,0.0278
3331.00,0.0282
3330.00,0.0286
3329.00,0.0290
3328.00,0.0294
3327.00,0.0299
3326.00,0.0303
3325.00,0.0308
3324.00,0.0314
3323.00,0.0320
3322.00,0.0325
3321.00,0.0331
3320.00,0.0336
3319.00,0.0341
3318.00,0.0347
3317.00,0.0353
3316.00,0.0359
3315.00,0.0364
3314.00,0.0370
3313.00,0.0375
3312.00,0.0380
3311.00,0.0384
3310.00,0.0389
3309.00,0.0394
3308.00,0.0400
3307.00,0.0405
3306.00,0.0411
3305.00,0.0418
3304.00,0.0425
3303.00,0.0432
3302.00,0.0438
3301.00,0.0445
3300.00,0.0450
3299.00,0.0455
3298.00,0.0460
3297.00,0.0465
3296.00,0.0469
3295.00,0.0473
3294.00,0.0477
3293.00,0.0481
3292.00,0.0485
3291.00,0.0490
3290.00,0.0494
3289.00,0.0498
3288.00,0.0500
3287.00,0.0503
3286.00,0.0504
3285.00,0.0505
3284.00,0.0506
3283.00,0.0506
3282.00,0.0506
3281.00,0.0505
3280.00,0.0504
3279.00,0.0502
3278.00,0.0499
3277.00,0.0496
3276.00,0.0493
3275.00,0.0489
3274.00,0.0485
3273.00,0.0481
3272.00,0.0476
3271.00,0.0472
3270.00,0.0468
3269.00,0.0465
3268.00,0.0461
3267.00,0.0456
3266.00,0.0451
3265.00,0.0446
3264.00,0.0440
3263.00,0.0435
3262.00,0.0429
3261.00,0.0424
3260.00,0.0419
3259.00,0.0413
3258.00,0.0408
3257.00,0.0402
3256.00,0.0396
3255.00,0.0391
3254.00,0.0387
3253.00,0.0383
3252.00,0.0379
3251.00,0.0374
3250.00,0.0369
3249.00,0.0364
3248.00,0.0359
3247.00,0.0354
3246.00,0.0351
3245.00,0.0348
3244.00,0.0344
3243.00,0.0341
3242.00,0.0338
3241.00,0.0334
3240.00,0.0331
3239.00,0.0327
3238.00,0.0323
3237.00,0.0319
3236.00,0.0315
3235.00,0.0311
3234.00,0.0307
3233.00,0.0304
3232.00,0.0302
3231.00,0.0300
3230.00,0.0298
3229.00,0.0295
3228.00,0.0293
3227.00,0.0290
3226.00,0.0288
3225.00,0.0285
3224.00,0.0283
3223.00,0.0280
3222.00,0.0277
3221.00,0.0274
3220.00,0.0272
3219.00,0.0269
3218.00,0.0267
3217.00,0.0265
3216.00,0.0262
3215.00,0.0260
3214.00,0.0257
3213.00,0.0255
3212.00,0.0253
3211.00,0.0250
3210.00,0.0248
3209.00,0.0246
3208.00,0.0244
3207.00,0.0241
3206.00,0.0239
3205.00,0.0237
3204.00,0.0235
3203.00,0.0233
3202.00,0.0231
3201.00,0.0229
3200.00,0.0226
3199.00,0.0224
3198.00,0.0222
3197.00,0.0219
3196.00,0.0217
3195.00,0.0214
3194.00,0.0212
3193.00,0.0209
3192.00,0.0207
3191.00,0.0205
3190.00,0.0202
3189.00,0.0200
3188.00,0.0197
3187.00,0.0195
3186.00,0.0192
3185.00,0.0190
3184.00,0.0187
3183.00,0.0184
3182.00,0.0182
3181.00,0.0180
3180.00,0.0177
3179.00,0.0175
3178.00,0.0173
3177.00,0.0170
3176.00,0.0168
3175.00,0.0165
3174.00,0.0163
3173.00,0.0160
3172.00,0.0158
3171.00,0.0155
3170.00,0.0153
3169.00,0.0150
3168.00,0.0148
3167.00,0.0146
3166.00,0.0144
3165.00,0.0142
3164.00,0.0140
3163.00,0.0137
3162.00,0.0135
3161.00,0.0133
3160.00,0.0131
3159.00,0.0129
3158.00,0.0127
3157.00,0.0124
3156.00,0.0122
3155.00,0.0120
3154.00,0.0118
3153.00,0.0116
3152.00,0.0114
3151.00,0.0112
3150.00,0.0111
3149.00,0.0110
3148.00,0.0109
3147.00,0.0108
3146.00,0.0106
3145.00,0.0105
3144.00,0.0103
3143.00,0.0102
3142.00,0.0100
3141.00,0.0098
3140.00,0.0097
3139.00,0.0096
3138.00,0.0095
3137.00,0.0095
3136.00,0.0094
3135.00,0.0093
3134.00,0.0092
3133.00,0.0092
3132.00,0.0091
3131.00,0.0090
3130.00,0.0089
3129.00,0.0089
3128.00,0.0088
3127.00,0.0087
3126.00,0.0087
3125.00,0.0086
3124.00,0.0085
3123.00,0.0085
3122.00,0.0084
3121.00,0.0083
3120.00,0.0082
3119.00,0.0082
3118.00,0.0082
3117.00,0.0081
3116.00,0.0081
3115.00,0.0082
3114.00,0.0083
3113.00,0.0083
3112.00,0.0084
3111.00,0.0084
3110.00,0.0084
3109.00,0.0084
3108.00,0.0085
3107.00,0.0086
3106.00,0.0087
3105.00,0.0087
3104.00,0.0088
3103.00,0.0088
3102.00,0.0089
3101.00,0.0089
3100.00,0.0089
3099.00,0.0090
3098.00,0.0091
3097.00,0.0092
3096.00,0.0093
3095.00,0.0093
3094.00,0.0093
3093.00,0.0094
3092.00,0.0094
3091.00,0.0094
3090.00,0.0094
3089.00,0.0095
3088.00,0.0095
3087.00,0.0096
3086.00,0.0096
3085.00,0.0097
3084.00,0.0097
3083.00,0.0098
3082.00,0.0098
3081.00,0.0098
3080.00,0.0099
3079.00,0.0099
3078.00,0.0100
3077.00,0.0101
3076.00,0.0103
3075.00,0.0104
3074.00,0.0104
3073.00,0.0104
3072.00,0.0104
3071.00,0.0104
3070.00,0.0103
3069.00,0.0102
3068.00,0.0102
3067.00,0.0101
3066.00,0.0101
3065.00,0.0102
3064.00,0.0102
3063.00,0.0101
3062.00,0.0101
3061.00,0.0100
3060.00,0.0099
3059.00,0.0098
3058.00,0.0096
3057.00,0.0095
3056.00,0.0094
3055.00,0.0093
3054.00,0.0091
3053.00,0.0090
3052.00,0.0088
3051.00,0.0087
3050.00,0.0086
3049.00,0.0085
3048.00,0.0084
3047.00,0.0082
3046.00,0.0080
3045.00,0.0078
3044.00,0.0076
3043.00,0.0074
3042.00,0.0073
3041.00,0.0073
3040.00,0.0072
3039.00,0.0072
3038.00,0.0070
3037.00,0.0069
3036.00,0.0067
3035.00,0.0065
3034.00,0.0064
3033.00,0.0064
3032.00,0.0064
3031.00,0.0064
3030.00,0.0063
3029.00,0.0063
3028.00,0.0063
3027.00,0.0063
3026.00,0.0063
3025.00,0.0063
3024.00,0.0064
3023.00,0.0065
3022.00,0.0067
3021.00,0.0069
3020.00,0.0071
3019.00,0.0075
3018.00,0.0079
3017.00,0.0084
3016.00,0.0091
3015.00,0.0100
3014.00,0.0111
3013.00,0.0124
3012.00,0.0139
3011.00,0.0157
3010.00,0.0177
3009.00,0.0200
3008.00,0.0224
3007.00,0.0250
3006.00,0.0277
3005.00,0.0305
3004.00,0.0334
3003.00,0.0363
3002.00,0.0392
3001.00,0.0420
3000.00,0.0447
2999.00,0.0472
2998.00,0.0494
2997.00,0.0515
2996.00,0.0533
2995.00,0.0551
2994.00,0.0567
2993.00,0.0583
2992.00,0.0598
2991.00,0.0613
2990.00,0.0628
2989.00,0.0644
2988.00,0.0664
2987.00,0.0691
2986.00,0.0734
2985.00,0.0799
2984.00,0.0884
2983.00,0.0972
2982.00,0.1037
2981.00,0.1063
2980.00,0.1048
2979.00,0.1008
2978.00,0.0960
2977.00,0.0917
2976.00,0.0886
2975.00,0.0872
2974.00,0.0873
2973.00,0.0884
2972.00,0.0892
2971.00,0.0886
2970.00,0.0862
2969.00,0.0825
2968.00,0.0788
2967.00,0.0755
2966.00,0.0728
2965.00,0.0704
2964.00,0.0682
2963.00,0.0661
2962.00,0.0642
2961.00,0.0625
2960.00,0.0608
2959.00,0.0592
2958.00,0.0577
2957.00,0.0561
2956.00,0.0546
2955.00,0.0529
2954.00,0.0512
2953.00,0.0495
2952.00,0.0478
2951.00,0.0461
2950.00,0.0446
2949.00,0.0432
2948.00,0.0419
2947.00,0.0406
2946.00,0.0393
2945.00,0.0380
2944.00,0.0370
2943.00,0.0363
2942.00,0.0359
2941.00,0.0359
2940.00,0.0361
2939.00,0.0363
2938.00,0.0366
2937.00,0.0368
2936.00,0.0372
2935.00,0.0377
2934.00,0.0384
2933.00,0.0392
2932.00,0.0399
2931.00,0.0404
2930.00,0.0407
2929.00,0.0408
2928.00,0.0409
2927.00,0.0408
2926.00,0.0408
2925.00,0.0407
2924.00,0.0406
2923.00,0.0405
2922.00,0.0404
2921.00,0.0402
2920.00,0.0401
2919.00,0.0399
2918.00,0.0396
2917.00,0.0392
2916.00,0.0385
2915.00,0.0378
2914.00,0.0369
2913.00,0.0362
2912.00,0.0355
2911.00,0.0350
2910.00,0.0347
2909.00,0.0344
2908.00,0.0343
2907.00,0.0342
2906.00,0.0340
2905.00,0.0339
2904.00,0.0338
2903.00,0.0337
2902.00,0.0336
2901.00,0.0334
2900.00,0.0333
2899.00,0.0332
2898.00,0.0332
2897.00,0.0333
2896.00,0.0335
2895.00,0.0338
2894.00,0.0342
2893.00,0.0348
2892.00,0.0353
2891.00,0.0357
2890.00,0.0359
2889.00,0.0358
2888.00,0.0356
2887.00,0.0353
2886.00,0.0351
2885.00,0.0349
2884.00,0.0346
2883.00,0.0339
2882.00,0.0327
2881.00,0.0311
2880.00,0.0295
2879.00,0.0280
2878.00,0.0268
2877.00,0.0258
2876.00,0.0250
2875.00,0.0244
2874.00,0.0238
2873.00,0.0233
2872.00,0.0227
2871.00,0.0222
2870.00,0.0215
2869.00,0.0208
2868.00,0.0201
2867.00,0.0194
2866.00,0.0187
2865.00,0.0181
2864.00,0.0175
2863.00,0.0169
2862.00,0.0165
2861.00,0.0161
2860.00,0.0158
2859.00,0.0156
2858.00,0.0155
2857.00,0.0154
2856.00,0.0154
2855.00,0.0155
2854.00,0.0155
2853.00,0.0154
2852.00,0.0151
2851.00,0.0147
2850.00,0.0139
2849.00,0.0130
2848.00,0.0118
2847.00,0.0105
2846.00,0.0093
2845.00,0.0081
2844.00,0.0072
2843.00,0.0063
2842.00,0.0056
2841.00,0.0050
2840.00,0.0045
2839.00,0.0040
2838.00,0.0037
2837.00,0.0034
2836.00,0.0032
2835.00,0.0030
2834.00,0.0028
2833.00,0.0027
2832.00,0.0025
2831.00,0.0024
2830.00,0.0023
2829.00,0.0021
2828.00,0.0019
2827.00,0.0018
2826.00,0.0016
2825.00,0.0015
2824.00,0.0014
2823.00,0.0013
2822.00,0.0012
2821.00,0.0010
2820.00,0.0009
2819.00,0.0008
2818.00,0.0007
2817.00,0.0006
2816.00,0.0005
2815.00,0.0004
2814.00,0.0003
2813.00,0.0002
2812.00,0.0000
2811.00,-0.0001
2810.00,-0.0002
2809.00,-0.0003
2808.00,-0.0004
2807.00,-0.0005
2806.00,-0.0005
2805.00,-0.0006
2804.00,-0.0007
2803.00,-0.0007
2802.00,-0.0008
2801.00,-0.0009
2800.00,-0.0010
2799.00,-0.0010
2798.00,-0.0011
2797.00,-0.0011
2796.00,-0.0012
2795.00,-0.0012
2794.00,-0.0013
2793.00,-0.0014
2792.00,-0.0016
2791.00,-0.0017
2790.00,-0.0017
2789.00,-0.0018
2788.00,-0.0018
2787.00,-0.0018
2786.00,-0.0019
2785.00,-0.0020
2784.00,-0.0020
2783.00,-0.0021
