Created as New Dataset,Sample 607 By YargerLab Date Thursday, June 05 2025
cm-1,A
4000.00,0.0053
3999.00,0.0053
3998.00,0.0053
3997.00,0.0053
3996.00,0.0053
3995.00,0.0053
3994.00,0.0053
3993.00,0.0053
3992.00,0.0053
3991.00,0.0052
3990.00,0.0052
3989.00,0.0052
3988.00,0.0052
3987.00,0.0052
3986.00,0.0053
3985.00,0.0053
3984.00,0.0053
3983.00,0.0053
3982.00,0.0053
3981.00,0.0053
3980.00,0.0053
3979.00,0.0053
3978.00,0.0052
3977.00,0.0052
3976.00,0.0052
3975.00,0.0053
3974.00,0.0053
3973.00,0.0053
3972.00,0.0053
3971.00,0.0053
3970.00,0.0053
3969.00,0.0052
3968.00,0.0052
3967.00,0.0052
3966.00,0.0052
3965.00,0.0052
3964.00,0.0052
3963.00,0.0052
3962.00,0.0052
3961.00,0.0052
3960.00,0.0052
3959.00,0.0052
3958.00,0.0053
3957.00,0.0053
3956.00,0.0053
3955.00,0.0053
3954.00,0.0053
3953.00,0.0053
3952.00,0.0053
3951.00,0.0053
3950.00,0.0052
3949.00,0.0052
3948.00,0.0052
3947.00,0.0052
3946.00,0.0052
3945.00,0.0052
3944.00,0.0052
3943.00,0.0052
3942.00,0.0052
3941.00,0.0052
3940.00,0.0052
3939.00,0.0052
3938.00,0.0052
3937.00,0.0052
3936.00,0.0052
3935.00,0.0052
3934.00,0.0052
3933.00,0.0052
3932.00,0.0052
3931.00,0.0052
3930.00,0.0052
3929.00,0.0052
3928.00,0.0052
3927.00,0.0052
3926.00,0.0052
3925.00,0.0052
3924.00,0.0052
3923.00,0.0052
3922.00,0.0052
3921.00,0.0052
3920.00,0.0052
3919.00,0.0051
3918.00,0.0051
3917.00,0.0051
3916.00,0.0051
3915.00,0.0051
3914.00,0.0051
3913.00,0.0052
3912.00,0.0052
3911.00,0.0052
3910.00,0.0052
3909.00,0.0052
3908.00,0.0052
3907.00,0.0052
3906.00,0.0051
3905.00,0.0051
3904.00,0.0051
3903.00,0.0051
3902.00,0.0050
3901.00,0.0050
3900.00,0.0050
3899.00,0.0050
3898.00,0.0051
3897.00,0.0051
3896.00,0.0051
3895.00,0.0051
3894.00,0.0051
3893.00,0.0051
3892.00,0.0051
3891.00,0.0051
3890.00,0.0051
3889.00,0.0051
3888.00,0.0050
3887.00,0.0050
3886.00,0.0050
3885.00,0.0050
3884.00,0.0050
3883.00,0.0050
3882.00,0.0050
3881.00,0.0050
3880.00,0.0050
3879.00,0.0050
3878.00,0.0050
3877.00,0.0050
3876.00,0.0050
3875.00,0.0050
3874.00,0.0050
3873.00,0.0050
3872.00,0.0050
3871.00,0.0049
3870.00,0.0049
3869.00,0.0049
3868.00,0.0050
3867.00,0.0049
3866.00,0.0049
3865.00,0.0049
3864.00,0.0049
3863.00,0.0049
3862.00,0.0049
3861.00,0.0049
3860.00,0.0049
3859.00,0.0050
3858.00,0.0050
3857.00,0.0051
3856.00,0.0051
3855.00,0.0050
3854.00,0.0049
3853.00,0.0049
3852.00,0.0048
3851.00,0.0048
3850.00,0.0048
3849.00,0.0048
3848.00,0.0048
3847.00,0.0049
3846.00,0.0049
3845.00,0.0049
3844.00,0.0049
3843.00,0.0049
3842.00,0.0049
3841.00,0.0049
3840.00,0.0049
3839.00,0.0049
3838.00,0.0049
3837.00,0.0049
3836.00,0.0049
3835.00,0.0049
3834.00,0.0049
3833.00,0.0049
3832.00,0.0049
3831.00,0.0049
3830.00,0.0049
3829.00,0.0050
3828.00,0.0049
3827.00,0.0049
3826.00,0.0050
3825.00,0.0049
3824.00,0.0049
3823.00,0.0049
3822.00,0.0048
3821.00,0.0049
3820.00,0.0049
3819.00,0.0048
3818.00,0.0048
3817.00,0.0048
3816.00,0.0048
3815.00,0.0049
3814.00,0.0049
3813.00,0.0050
3812.00,0.0050
3811.00,0.0050
3810.00,0.0050
3809.00,0.0050
3808.00,0.0049
3807.00,0.0049
3806.00,0.0049
3805.00,0.0049
3804.00,0.0049
3803.00,0.0048
3802.00,0.0049
3801.00,0.0049
3800.00,0.0049
3799.00,0.0048
3798.00,0.0048
3797.00,0.0048
3796.00,0.0049
3795.00,0.0049
3794.00,0.0050
3793.00,0.0050
3792.00,0.0050
3791.00,0.0051
3790.00,0.0051
3789.00,0.0051
3788.00,0.0050
3787.00,0.0050
3786.00,0.0050
3785.00,0.0050
3784.00,0.0050
3783.00,0.0050
3782.00,0.0050
3781.00,0.0050
3780.00,0.0050
3779.00,0.0050
3778.00,0.0050
3777.00,0.0050
3776.00,0.0050
3775.00,0.0050
3774.00,0.0050
3773.00,0.0050
3772.00,0.0050
3771.00,0.0050
3770.00,0.0050
3769.00,0.0050
3768.00,0.0050
3767.00,0.0050
3766.00,0.0049
3765.00,0.0049
3764.00,0.0049
3763.00,0.0049
3762.00,0.0049
3761.00,0.0049
3760.00,0.0049
3759.00,0.0049
3758.00,0.0049
3757.00,0.0049
3756.00,0.0049
3755.00,0.0048
3754.00,0.0048
3753.00,0.0048
3752.00,0.0047
3751.00,0.0047
3750.00,0.0046
3749.00,0.0045
3748.00,0.0045
3747.00,0.0045
3746.00,0.0045
3745.00,0.0045
3744.00,0.0046
3743.00,0.0046
3742.00,0.0046
3741.00,0.0045
3740.00,0.0045
3739.00,0.0044
3738.00,0.0044
3737.00,0.0044
3736.00,0.0044
3735.00,0.0045
3734.00,0.0045
3733.00,0.0046
3732.00,0.0046
3731.00,0.0046
3730.00,0.0047
3729.00,0.0047
3728.00,0.0047
3727.00,0.0047
3726.00,0.0047
3725.00,0.0047
3724.00,0.0047
3723.00,0.0047
3722.00,0.0048
3721.00,0.0048
3720.00,0.0048
3719.00,0.0048
3718.00,0.0048
3717.00,0.0048
3716.00,0.0048
3715.00,0.0048
3714.00,0.0047
3713.00,0.0047
3712.00,0.0047
3711.00,0.0047
3710.00,0.0046
3709.00,0.0046
3708.00,0.0047
3707.00,0.0047
3706.00,0.0047
3705.00,0.0048
3704.00,0.0048
3703.00,0.0048
3702.00,0.0048
3701.00,0.0048
3700.00,0.0048
3699.00,0.0048
3698.00,0.0048
3697.00,0.0048
3696.00,0.0048
3695.00,0.0048
3694.00,0.0048
3693.00,0.0048
3692.00,0.0048
3691.00,0.0048
3690.00,0.0048
3689.00,0.0047
3688.00,0.0047
3687.00,0.0047
3686.00,0.0047
3685.00,0.0047
3684.00,0.0048
3683.00,0.0048
3682.00,0.0048
3681.00,0.0048
3680.00,0.0048
3679.00,0.0048
3678.00,0.0047
3677.00,0.0047
3676.00,0.0047
3675.00,0.0047
3674.00,0.0047
3673.00,0.0047
3672.00,0.0046
3671.00,0.0046
3670.00,0.0047
3669.00,0.0047
3668.00,0.0048
3667.00,0.0048
3666.00,0.0048
3665.00,0.0049
3664.00,0.0050
3663.00,0.0050
3662.00,0.0051
3661.00,0.0051
3660.00,0.0051
3659.00,0.0052
3658.00,0.0052
3657.00,0.0052
3656.00,0.0052
3655.00,0.0052
3654.00,0.0052
3653.00,0.0051
3652.00,0.0051
3651.00,0.0051
3650.00,0.0052
3649.00,0.0052
3648.00,0.0052
3647.00,0.0052
3646.00,0.0053
3645.00,0.0053
3644.00,0.0054
3643.00,0.0055
3642.00,0.0056
3641.00,0.0057
3640.00,0.0058
3639.00,0.0058
3638.00,0.0058
3637.00,0.0058
3636.00,0.0059
3635.00,0.0059
3634.00,0.0060
3633.00,0.0061
3632.00,0.0061
3631.00,0.0061
3630.00,0.0061
3629.00,0.0061
3628.00,0.0062
3627.00,0.0062
3626.00,0.0063
3625.00,0.0063
3624.00,0.0064
3623.00,0.0065
3622.00,0.0065
3621.00,0.0066
3620.00,0.0066
3619.00,0.0066
3618.00,0.0067
3617.00,0.0067
3616.00,0.0067
3615.00,0.0067
3614.00,0.0067
3613.00,0.0068
3612.00,0.0068
3611.00,0.0069
3610.00,0.0069
3609.00,0.0070
3608.00,0.0070
3607.00,0.0071
3606.00,0.0072
3605.00,0.0072
3604.00,0.0073
3603.00,0.0074
3602.00,0.0074
3601.00,0.0075
3600.00,0.0076
3599.00,0.0076
3598.00,0.0076
3597.00,0.0076
3596.00,0.0076
3595.00,0.0077
3594.00,0.0077
3593.00,0.0077
3592.00,0.0078
3591.00,0.0078
3590.00,0.0078
3589.00,0.0079
3588.00,0.0080
3587.00,0.0080
3586.00,0.0081
3585.00,0.0081
3584.00,0.0082
3583.00,0.0083
3582.00,0.0083
3581.00,0.0084
3580.00,0.0085
3579.00,0.0085
3578.00,0.0086
3577.00,0.0086
3576.00,0.0086
3575.00,0.0087
3574.00,0.0087
3573.00,0.0088
3572.00,0.0088
3571.00,0.0088
3570.00,0.0088
3569.00,0.0089
3568.00,0.0089
3567.00,0.0090
3566.00,0.0090
3565.00,0.0091
3564.00,0.0091
3563.00,0.0091
3562.00,0.0092
3561.00,0.0093
3560.00,0.0094
3559.00,0.0095
3558.00,0.0096
3557.00,0.0097
3556.00,0.0097
3555.00,0.0098
3554.00,0.0098
3553.00,0.0099
3552.00,0.0099
3551.00,0.0099
3550.00,0.0099
3549.00,0.0100
3548.00,0.0100
3547.00,0.0100
3546.00,0.0101
3545.00,0.0102
3544.00,0.0102
3543.00,0.0103
3542.00,0.0103
3541.00,0.0104
3540.00,0.0105
3539.00,0.0105
3538.00,0.0106
3537.00,0.0107
3536.00,0.0108
3535.00,0.0108
3534.00,0.0108
3533.00,0.0108
3532.00,0.0109
3531.00,0.0109
3530.00,0.0110
3529.00,0.0110
3528.00,0.0111
3527.00,0.0111
3526.00,0.0112
3525.00,0.0112
3524.00,0.0113
3523.00,0.0113
3522.00,0.0114
3521.00,0.0114
3520.00,0.0115
3519.00,0.0115
3518.00,0.0115
3517.00,0.0116
3516.00,0.0116
3515.00,0.0117
3514.00,0.0117
3513.00,0.0118
3512.00,0.0118
3511.00,0.0118
3510.00,0.0119
3509.00,0.0119
3508.00,0.0120
3507.00,0.0120
3506.00,0.0121
3505.00,0.0121
3504.00,0.0122
3503.00,0.0122
3502.00,0.0123
3501.00,0.0123
3500.00,0.0124
3499.00,0.0124
3498.00,0.0125
3497.00,0.0125
3496.00,0.0126
3495.00,0.0126
3494.00,0.0126
3493.00,0.0127
3492.00,0.0127
3491.00,0.0128
3490.00,0.0128
3489.00,0.0129
3488.00,0.0129
3487.00,0.0130
3486.00,0.0130
3485.00,0.0130
3484.00,0.0130
3483.00,0.0131
3482.00,0.0131
3481.00,0.0132
3480.00,0.0132
3479.00,0.0132
3478.00,0.0133
3477.00,0.0133
3476.00,0.0133
3475.00,0.0134
3474.00,0.0134
3473.00,0.0134
3472.00,0.0135
3471.00,0.0135
3470.00,0.0135
3469.00,0.0135
3468.00,0.0135
3467.00,0.0135
3466.00,0.0135
3465.00,0.0135
3464.00,0.0134
3463.00,0.0134
3462.00,0.0133
3461.00,0.0133
3460.00,0.0132
3459.00,0.0131
3458.00,0.0130
3457.00,0.0129
3456.00,0.0128
3455.00,0.0127
3454.00,0.0127
3453.00,0.0127
3452.00,0.0127
3451.00,0.0128
3450.00,0.0129
3449.00,0.0131
3448.00,0.0134
3447.00,0.0137
3446.00,0.0141
3445.00,0.0144
3444.00,0.0147
3443.00,0.0150
3442.00,0.0153
3441.00,0.0156
3440.00,0.0158
3439.00,0.0159
3438.00,0.0160
3437.00,0.0161
3436.00,0.0162
3435.00,0.0163
3434.00,0.0164
3433.00,0.0164
3432.00,0.0165
3431.00,0.0165
3430.00,0.0166
3429.00,0.0167
3428.00,0.0168
3427.00,0.0168
3426.00,0.0169
3425.00,0.0170
3424.00,0.0170
3423.00,0.0171
3422.00,0.0171
3421.00,0.0172
3420.00,0.0173
3419.00,0.0173
3418.00,0.0174
3417.00,0.0175
3416.00,0.0176
3415.00,0.0176
3414.00,0.0177
3413.00,0.0178
3412.00,0.0178
3411.00,0.0179
3410.00,0.0180
3409.00,0.0181
3408.00,0.0181
3407.00,0.0182
3406.00,0.0182
3405.00,0.0183
3404.00,0.0184
3403.00,0.0185
3402.00,0.0185
3401.00,0.0186
3400.00,0.0187
3399.00,0.0188
3398.00,0.0188
3397.00,0.0189
3396.00,0.0190
3395.00,0.0190
3394.00,0.0190
3393.00,0.0191
3392.00,0.0192
3391.00,0.0193
3390.00,0.0194
3389.00,0.0195
3388.00,0.0195
3387.00,0.0196
3386.00,0.0197
3385.00,0.0198
3384.00,0.0199
3383.00,0.0200
3382.00,0.0201
3381.00,0.0202
3380.00,0.0202
3379.00,0.0203
3378.00,0.0204
3377.00,0.0205
3376.00,0.0205
3375.00,0.0206
3374.00,0.0207
3373.00,0.0208
3372.00,0.0209
3371.00,0.0210
3370.00,0.0211
3369.00,0.0212
3368.00,0.0213
3367.00,0.0214
3366.00,0.0215
3365.00,0.0216
3364.00,0.0217
3363.00,0.0219
3362.00,0.0220
3361.00,0.0221
3360.00,0.0222
3359.00,0.0223
3358.00,0.0224
3357.00,0.0225
3356.00,0.0226
3355.00,0.0227
3354.00,0.0227
3353.00,0.0229
3352.00,0.0230
3351.00,0.0231
3350.00,0.0233
3349.00,0.0234
3348.00,0.0235
3347.00,0.0237
3346.00,0.0238
3345.00,0.0239
3344.00,0.0240
3343.00,0.0241
3342.00,0.0242
3341.00,0.0243
3340.00,0.0244
3339.00,0.0245
3338.00,0.0247
3337.00,0.0248
3336.00,0.0250
3335.00,0.0252
3334.00,0.0254
3333.00,0.0255
3332.00,0.0257
3331.00,0.0258
3330.00,0.0259
3329.00,0.0261
3328.00,0.0262
3327.00,0.0264
3326.00,0.0265
3325.00,0.0267
3324.00,0.0269
3323.00,0.0271
3322.00,0.0272
3321.00,0.0274
3320.00,0.0275
3319.00,0.0277
3318.00,0.0279
3317.00,0.0281
3316.00,0.0282
3315.00,0.0284
3314.00,0.0286
3313.00,0.0288
3312.00,0.0289
3311.00,0.0291
3310.00,0.0292
3309.00,0.0293
3308.00,0.0294
3307.00,0.0296
3306.00,0.0298
3305.00,0.0300
3304.00,0.0302
3303.00,0.0305
3302.00,0.0307
3301.00,0.0309
3300.00,0.0311
3299.00,0.0312
3298.00,0.0313
3297.00,0.0314
3296.00,0.0316
3295.00,0.0317
3294.00,0.0318
3293.00,0.0320
3292.00,0.0322
3291.00,0.0323
3290.00,0.0325
3289.00,0.0326
3288.00,0.0328
3287.00,0.0329
3286.00,0.0330
3285.00,0.0331
3284.00,0.0332
3283.00,0.0333
3282.00,0.0334
3281.00,0.0334
3280.00,0.0335
3279.00,0.0335
3278.00,0.0335
3277.00,0.0335
3276.00,0.0335
3275.00,0.0334
3274.00,0.0334
3273.00,0.0333
3272.00,0.0332
3271.00,0.0332
3270.00,0.0331
3269.00,0.0331
3268.00,0.0330
3267.00,0.0329
3266.00,0.0328
3265.00,0.0327
3264.00,0.0326
3263.00,0.0325
3262.00,0.0324
3261.00,0.0322
3260.00,0.0321
3259.00,0.0319
3258.00,0.0317
3257.00,0.0315
3256.00,0.0313
3255.00,0.0312
3254.00,0.0310
3253.00,0.0309
3252.00,0.0307
3251.00,0.0305
3250.00,0.0304
3249.00,0.0302
3248.00,0.0300
3247.00,0.0298
3246.00,0.0297
3245.00,0.0295
3244.00,0.0294
3243.00,0.0293
3242.00,0.0291
3241.00,0.0290
3240.00,0.0288
3239.00,0.0287
3238.00,0.0285
3237.00,0.0283
3236.00,0.0281
3235.00,0.0280
3234.00,0.0278
3233.00,0.0277
3232.00,0.0277
3231.00,0.0276
3230.00,0.0275
3229.00,0.0274
3228.00,0.0273
3227.00,0.0272
3226.00,0.0270
3225.00,0.0269
3224.00,0.0268
3223.00,0.0267
3222.00,0.0267
3221.00,0.0266
3220.00,0.0265
3219.00,0.0264
3218.00,0.0263
3217.00,0.0262
3216.00,0.0261
3215.00,0.0260
3214.00,0.0260
3213.00,0.0259
3212.00,0.0258
3211.00,0.0257
3210.00,0.0256
3209.00,0.0255
3208.00,0.0254
3207.00,0.0253
3206.00,0.0252
3205.00,0.0252
3204.00,0.0251
3203.00,0.0250
3202.00,0.0250
3201.00,0.0249
3200.00,0.0248
3199.00,0.0247
3198.00,0.0246
3197.00,0.0245
3196.00,0.0244
3195.00,0.0243
3194.00,0.0242
3193.00,0.0241
3192.00,0.0241
3191.00,0.0240
3190.00,0.0239
3189.00,0.0238
3188.00,0.0237
3187.00,0.0236
3186.00,0.0235
3185.00,0.0235
3184.00,0.0234
3183.00,0.0233
3182.00,0.0232
3181.00,0.0231
3180.00,0.0230
3179.00,0.0229
3178.00,0.0228
3177.00,0.0227
3176.00,0.0226
3175.00,0.0225
3174.00,0.0225
3173.00,0.0224
3172.00,0.0223
3171.00,0.0223
3170.00,0.0222
3169.00,0.0221
3168.00,0.0220
3167.00,0.0219
3166.00,0.0218
3165.00,0.0217
3164.00,0.0216
3163.00,0.0215
3162.00,0.0214
3161.00,0.0213
3160.00,0.0212
3159.00,0.0211
3158.00,0.0210
3157.00,0.0209
3156.00,0.0208
3155.00,0.0207
3154.00,0.0206
3153.00,0.0206
3152.00,0.0205
3151.00,0.0204
3150.00,0.0203
3149.00,0.0203
3148.00,0.0202
3147.00,0.0201
3146.00,0.0200
3145.00,0.0199
3144.00,0.0198
3143.00,0.0197
3142.00,0.0196
3141.00,0.0195
3140.00,0.0195
3139.00,0.0194
3138.00,0.0193
3137.00,0.0193
3136.00,0.0193
3135.00,0.0192
3134.00,0.0192
3133.00,0.0191
3132.00,0.0191
3131.00,0.0190
3130.00,0.0189
3129.00,0.0188
3128.00,0.0187
3127.00,0.0187
3126.00,0.0186
3125.00,0.0186
3124.00,0.0185
3123.00,0.0184
3122.00,0.0184
3121.00,0.0183
3120.00,0.0183
3119.00,0.0182
3118.00,0.0182
3117.00,0.0182
3116.00,0.0181
3115.00,0.0181
3114.00,0.0182
3113.00,0.0182
3112.00,0.0182
3111.00,0.0182
3110.00,0.0182
3109.00,0.0182
3108.00,0.0182
3107.00,0.0182
3106.00,0.0182
3105.00,0.0182
3104.00,0.0182
3103.00,0.0182
3102.00,0.0182
3101.00,0.0182
3100.00,0.0182
3099.00,0.0183
3098.00,0.0183
3097.00,0.0184
3096.00,0.0184
3095.00,0.0184
3094.00,0.0184
3093.00,0.0184
3092.00,0.0184
3091.00,0.0184
3090.00,0.0185
3089.00,0.0185
3088.00,0.0185
3087.00,0.0186
3086.00,0.0186
3085.00,0.0186
3084.00,0.0186
3083.00,0.0186
3082.00,0.0186
3081.00,0.0187
3080.00,0.0187
3079.00,0.0187
3078.00,0.0188
3077.00,0.0188
3076.00,0.0189
3075.00,0.0189
3074.00,0.0190
3073.00,0.0190
3072.00,0.0189
3071.00,0.0189
3070.00,0.0188
3069.00,0.0188
3068.00,0.0188
3067.00,0.0188
3066.00,0.0188
3065.00,0.0188
3064.00,0.0188
3063.00,0.0189
3062.00,0.0189
3061.00,0.0189
3060.00,0.0189
3059.00,0.0189
3058.00,0.0188
3057.00,0.0188
3056.00,0.0188
3055.00,0.0187
3054.00,0.0187
3053.00,0.0186
3052.00,0.0185
3051.00,0.0185
3050.00,0.0185
3049.00,0.0184
3048.00,0.0184
3047.00,0.0183
3046.00,0.0182
3045.00,0.0182
3044.00,0.0181
3043.00,0.0181
3042.00,0.0180
3041.00,0.0180
3040.00,0.0179
3039.00,0.0179
3038.00,0.0178
3037.00,0.0178
3036.00,0.0177
3035.00,0.0176
3034.00,0.0176
3033.00,0.0175
3032.00,0.0175
3031.00,0.0175
3030.00,0.0174
3029.00,0.0174
3028.00,0.0173
3027.00,0.0172
3026.00,0.0171
3025.00,0.0171
3024.00,0.0170
3023.00,0.0169
3022.00,0.0169
3021.00,0.0168
3020.00,0.0167
3019.00,0.0166
3018.00,0.0165
3017.00,0.0164
3016.00,0.0163
3015.00,0.0162
3014.00,0.0161
3013.00,0.0160
3012.00,0.0159
3011.00,0.0159
3010.00,0.0158
3009.00,0.0158
3008.00,0.0157
3007.00,0.0156
3006.00,0.0155
3005.00,0.0153
3004.00,0.0152
3003.00,0.0152
3002.00,0.0151
3001.00,0.0150
3000.00,0.0149
2999.00,0.0148
2998.00,0.0147
2997.00,0.0147
2996.00,0.0147
2995.00,0.0147
2994.00,0.0147
2993.00,0.0147
2992.00,0.0147
2991.00,0.0147
2990.00,0.0148
2989.00,0.0149
2988.00,0.0149
2987.00,0.0150
2986.00,0.0150
2985.00,0.0149
2984.00,0.0148
2983.00,0.0147
2982.00,0.0147
2981.00,0.0147
2980.00,0.0150
2979.00,0.0152
2978.00,0.0155
2977.00,0.0158
2976.00,0.0161
2975.00,0.0163
2974.00,0.0165
2973.00,0.0167
2972.00,0.0168
2971.00,0.0170
2970.00,0.0173
2969.00,0.0176
2968.00,0.0179
2967.00,0.0181
2966.00,0.0184
2965.00,0.0186
2964.00,0.0188
2963.00,0.0189
2962.00,0.0190
2961.00,0.0191
2960.00,0.0191
2959.00,0.0190
2958.00,0.0190
2957.00,0.0189
2956.00,0.0187
2955.00,0.0186
2954.00,0.0185
2953.00,0.0184
2952.00,0.0183
2951.00,0.0182
2950.00,0.0182
2949.00,0.0182
2948.00,0.0182
2947.00,0.0183
2946.00,0.0185
2945.00,0.0187
2944.00,0.0188
2943.00,0.0190
2942.00,0.0192
2941.00,0.0193
2940.00,0.0194
2939.00,0.0196
2938.00,0.0197
2937.00,0.0198
2936.00,0.0199
2935.00,0.0200
2934.00,0.0200
2933.00,0.0201
2932.00,0.0201
2931.00,0.0202
2930.00,0.0202
2929.00,0.0202
2928.00,0.0201
2927.00,0.0200
2926.00,0.0200
2925.00,0.0199
2924.00,0.0198
2923.00,0.0198
2922.00,0.0197
2921.00,0.0196
2920.00,0.0195
2919.00,0.0193
2918.00,0.0192
2917.00,0.0190
2916.00,0.0187
2915.00,0.0185
2914.00,0.0182
2913.00,0.0180
2912.00,0.0178
2911.00,0.0176
2910.00,0.0174
2909.00,0.0173
2908.00,0.0171
2907.00,0.0170
2906.00,0.0169
2905.00,0.0168
2904.00,0.0167
2903.00,0.0167
2902.00,0.0166
2901.00,0.0165
2900.00,0.0164
2899.00,0.0163
2898.00,0.0162
2897.00,0.0161
2896.00,0.0160
2895.00,0.0159
2894.00,0.0158
2893.00,0.0157
2892.00,0.0157
2891.00,0.0156
2890.00,0.0156
2889.00,0.0155
2888.00,0.0155
2887.00,0.0155
2886.00,0.0155
2885.00,0.0156
2884.00,0.0156
2883.00,0.0156
2882.00,0.0157
2881.00,0.0158
2880.00,0.0159
2879.00,0.0160
2878.00,0.0161
2877.00,0.0162
2876.00,0.0162
2875.00,0.0163
2874.00,0.0162
2873.00,0.0162
2872.00,0.0161
2871.00,0.0160
2870.00,0.0159
2869.00,0.0158
2868.00,0.0157
2867.00,0.0156
2866.00,0.0156
2865.00,0.0155
2864.00,0.0154
2863.00,0.0154
2862.00,0.0153
2861.00,0.0153
2860.00,0.0152
2859.00,0.0152
2858.00,0.0151
2857.00,0.0151
2856.00,0.0151
2855.00,0.0151
2854.00,0.0152
2853.00,0.0152
2852.00,0.0153
2851.00,0.0152
2850.00,0.0151
2849.00,0.0150
2848.00,0.0148
2847.00,0.0147
2846.00,0.0145
2845.00,0.0143
2844.00,0.0142
2843.00,0.0140
2842.00,0.0139
2841.00,0.0137
2840.00,0.0136
2839.00,0.0135
2838.00,0.0134
2837.00,0.0134
2836.00,0.0133
2835.00,0.0132
2834.00,0.0131
2833.00,0.0130
2832.00,0.0130
2831.00,0.0129
2830.00,0.0129
2829.00,0.0129
2828.00,0.0129
2827.00,0.0129
2826.00,0.0129
2825.00,0.0129
2824.00,0.0130
2823.00,0.0130
2822.00,0.0130
2821.00,0.0130
2820.00,0.0130
2819.00,0.0130
2818.00,0.0130
2817.00,0.0130
2816.00,0.0129
2815.00,0.0129
2814.00,0.0129
2813.00,0.0128
2812.00,0.0128
2811.00,0.0128
2810.00,0.0127
2809.00,0.0127
2808.00,0.0127
2807.00,0.0127
2806.00,0.0127
2805.00,0.0126
2804.00,0.0126
2803.00,0.0126
2802.00,0.0126
2801.00,0.0126
2800.00,0.0125
2799.00,0.0125
2798.00,0.0125
2797.00,0.0124
2796.00,0.0124
2795.00,0.0124
2794.00,0.0124
2793.00,0.0123
2792.00,0.0123
2791.00,0.0123
2790.00,0.0123
2789.00,0.0122
2788.00,0.0122
2787.00,0.0122
2786.00,0.0122
2785.00,0.0121
2784.00,0.0121
2783.00,0.0120
2782.00,0.0120
2781.00,0.0120
2780.00,0.0120
2779.00,0.0119
2778.00,0.0119
2777.00,0.0119
2776.00,0.0118
2775.00,0.0118
2774.00,0.0118
2773.00,0.0117
2772.00,0.0117
2771.00,0.0117
2770.00,0.0116
2769.00,0.0116
2768.00,0.0115
2767.00,0.0115
2766.00,0.0115
2765.00,0.0115
2764.00,0.0114
2763.00,0.0114
2762.00,0.0114
2761.00,0.0113
2760.00,0.0113
2759.00,0.0113
2758.00,0.0112
2757.00,0.0112
