Created as New Dataset,Sample 367 By YargerLab Date Friday, November 14 2025
cm-1,A
4000.00,-0.0005
3999.00,-0.0005
3998.00,-0.0005
3997.00,-0.0005
3996.00,-0.0004
3995.00,-0.0004
3994.00,-0.0004
3993.00,-0.0005
3992.00,-0.0005
3991.00,-0.0005
3990.00,-0.0005
3989.00,-0.0005
3988.00,-0.0005
3987.00,-0.0005
3986.00,-0.0006
3985.00,-0.0006
3984.00,-0.0006
3983.00,-0.0005
3982.00,-0.0005
3981.00,-0.0006
3980.00,-0.0006
3979.00,-0.0006
3978.00,-0.0006
3977.00,-0.0006
3976.00,-0.0006
3975.00,-0.0006
3974.00,-0.0006
3973.00,-0.0006
3972.00,-0.0006
3971.00,-0.0006
3970.00,-0.0006
3969.00,-0.0006
3968.00,-0.0006
3967.00,-0.0006
3966.00,-0.0006
3965.00,-0.0006
3964.00,-0.0006
3963.00,-0.0006
3962.00,-0.0006
3961.00,-0.0006
3960.00,-0.0006
3959.00,-0.0006
3958.00,-0.0007
3957.00,-0.0007
3956.00,-0.0006
3955.00,-0.0006
3954.00,-0.0006
3953.00,-0.0006
3952.00,-0.0006
3951.00,-0.0006
3950.00,-0.0007
3949.00,-0.0007
3948.00,-0.0006
3947.00,-0.0006
3946.00,-0.0006
3945.00,-0.0007
3944.00,-0.0006
3943.00,-0.0006
3942.00,-0.0006
3941.00,-0.0005
3940.00,-0.0005
3939.00,-0.0006
3938.00,-0.0006
3937.00,-0.0006
3936.00,-0.0006
3935.00,-0.0006
3934.00,-0.0006
3933.00,-0.0007
3932.00,-0.0007
3931.00,-0.0007
3930.00,-0.0007
3929.00,-0.0007
3928.00,-0.0007
3927.00,-0.0007
3926.00,-0.0007
3925.00,-0.0007
3924.00,-0.0007
3923.00,-0.0007
3922.00,-0.0007
3921.00,-0.0007
3920.00,-0.0007
3919.00,-0.0007
3918.00,-0.0007
3917.00,-0.0007
3916.00,-0.0007
3915.00,-0.0007
3914.00,-0.0006
3913.00,-0.0006
3912.00,-0.0006
3911.00,-0.0006
3910.00,-0.0006
3909.00,-0.0006
3908.00,-0.0006
3907.00,-0.0006
3906.00,-0.0006
3905.00,-0.0007
3904.00,-0.0007
3903.00,-0.0007
3902.00,-0.0007
3901.00,-0.0007
3900.00,-0.0007
3899.00,-0.0006
3898.00,-0.0006
3897.00,-0.0006
3896.00,-0.0006
3895.00,-0.0006
3894.00,-0.0006
3893.00,-0.0007
3892.00,-0.0006
3891.00,-0.0006
3890.00,-0.0006
3889.00,-0.0006
3888.00,-0.0007
3887.00,-0.0008
3886.00,-0.0008
3885.00,-0.0008
3884.00,-0.0008
3883.00,-0.0008
3882.00,-0.0008
3881.00,-0.0008
3880.00,-0.0008
3879.00,-0.0007
3878.00,-0.0007
3877.00,-0.0007
3876.00,-0.0007
3875.00,-0.0007
3874.00,-0.0007
3873.00,-0.0006
3872.00,-0.0006
3871.00,-0.0007
3870.00,-0.0007
3869.00,-0.0007
3868.00,-0.0008
3867.00,-0.0009
3866.00,-0.0009
3865.00,-0.0009
3864.00,-0.0009
3863.00,-0.0009
3862.00,-0.0008
3861.00,-0.0008
3860.00,-0.0007
3859.00,-0.0007
3858.00,-0.0006
3857.00,-0.0005
3856.00,-0.0006
3855.00,-0.0006
3854.00,-0.0007
3853.00,-0.0007
3852.00,-0.0008
3851.00,-0.0009
3850.00,-0.0009
3849.00,-0.0009
3848.00,-0.0009
3847.00,-0.0008
3846.00,-0.0008
3845.00,-0.0008
3844.00,-0.0008
3843.00,-0.0008
3842.00,-0.0008
3841.00,-0.0008
3840.00,-0.0008
3839.00,-0.0008
3838.00,-0.0008
3837.00,-0.0008
3836.00,-0.0008
3835.00,-0.0008
3834.00,-0.0008
3833.00,-0.0008
3832.00,-0.0008
3831.00,-0.0007
3830.00,-0.0007
3829.00,-0.0007
3828.00,-0.0007
3827.00,-0.0007
3826.00,-0.0008
3825.00,-0.0008
3824.00,-0.0008
3823.00,-0.0009
3822.00,-0.0009
3821.00,-0.0009
3820.00,-0.0009
3819.00,-0.0008
3818.00,-0.0008
3817.00,-0.0008
3816.00,-0.0007
3815.00,-0.0007
3814.00,-0.0007
3813.00,-0.0007
3812.00,-0.0007
3811.00,-0.0007
3810.00,-0.0007
3809.00,-0.0007
3808.00,-0.0007
3807.00,-0.0007
3806.00,-0.0006
3805.00,-0.0006
3804.00,-0.0006
3803.00,-0.0007
3802.00,-0.0008
3801.00,-0.0008
3800.00,-0.0008
3799.00,-0.0009
3798.00,-0.0009
3797.00,-0.0009
3796.00,-0.0009
3795.00,-0.0008
3794.00,-0.0008
3793.00,-0.0008
3792.00,-0.0008
3791.00,-0.0008
3790.00,-0.0008
3789.00,-0.0008
3788.00,-0.0008
3787.00,-0.0009
3786.00,-0.0009
3785.00,-0.0008
3784.00,-0.0008
3783.00,-0.0007
3782.00,-0.0007
3781.00,-0.0008
3780.00,-0.0008
3779.00,-0.0008
3778.00,-0.0008
3777.00,-0.0008
3776.00,-0.0009
3775.00,-0.0008
3774.00,-0.0008
3773.00,-0.0008
3772.00,-0.0008
3771.00,-0.0008
3770.00,-0.0008
3769.00,-0.0008
3768.00,-0.0008
3767.00,-0.0008
3766.00,-0.0007
3765.00,-0.0007
3764.00,-0.0007
3763.00,-0.0007
3762.00,-0.0007
3761.00,-0.0008
3760.00,-0.0008
3759.00,-0.0009
3758.00,-0.0009
3757.00,-0.0009
3756.00,-0.0009
3755.00,-0.0008
3754.00,-0.0008
3753.00,-0.0008
3752.00,-0.0008
3751.00,-0.0007
3750.00,-0.0007
3749.00,-0.0007
3748.00,-0.0008
3747.00,-0.0008
3746.00,-0.0009
3745.00,-0.0009
3744.00,-0.0009
3743.00,-0.0009
3742.00,-0.0009
3741.00,-0.0009
3740.00,-0.0009
3739.00,-0.0008
3738.00,-0.0008
3737.00,-0.0008
3736.00,-0.0008
3735.00,-0.0008
3734.00,-0.0008
3733.00,-0.0008
3732.00,-0.0008
3731.00,-0.0008
3730.00,-0.0008
3729.00,-0.0007
3728.00,-0.0007
3727.00,-0.0007
3726.00,-0.0006
3725.00,-0.0007
3724.00,-0.0007
3723.00,-0.0007
3722.00,-0.0007
3721.00,-0.0007
3720.00,-0.0007
3719.00,-0.0007
3718.00,-0.0007
3717.00,-0.0007
3716.00,-0.0007
3715.00,-0.0007
3714.00,-0.0007
3713.00,-0.0007
3712.00,-0.0007
3711.00,-0.0007
3710.00,-0.0008
3709.00,-0.0008
3708.00,-0.0008
3707.00,-0.0007
3706.00,-0.0007
3705.00,-0.0007
3704.00,-0.0007
3703.00,-0.0008
3702.00,-0.0008
3701.00,-0.0008
3700.00,-0.0008
3699.00,-0.0008
3698.00,-0.0008
3697.00,-0.0008
3696.00,-0.0007
3695.00,-0.0007
3694.00,-0.0006
3693.00,-0.0007
3692.00,-0.0007
3691.00,-0.0008
3690.00,-0.0008
3689.00,-0.0008
3688.00,-0.0008
3687.00,-0.0008
3686.00,-0.0009
3685.00,-0.0009
3684.00,-0.0009
3683.00,-0.0009
3682.00,-0.0008
3681.00,-0.0008
3680.00,-0.0008
3679.00,-0.0007
3678.00,-0.0007
3677.00,-0.0006
3676.00,-0.0006
3675.00,-0.0006
3674.00,-0.0006
3673.00,-0.0007
3672.00,-0.0008
3671.00,-0.0008
3670.00,-0.0008
3669.00,-0.0008
3668.00,-0.0008
3667.00,-0.0008
3666.00,-0.0008
3665.00,-0.0008
3664.00,-0.0007
3663.00,-0.0006
3662.00,-0.0005
3661.00,-0.0005
3660.00,-0.0005
3659.00,-0.0005
3658.00,-0.0005
3657.00,-0.0005
3656.00,-0.0004
3655.00,-0.0004
3654.00,-0.0003
3653.00,-0.0003
3652.00,-0.0003
3651.00,-0.0004
3650.00,-0.0004
3649.00,-0.0004
3648.00,-0.0004
3647.00,-0.0004
3646.00,-0.0004
3645.00,-0.0004
3644.00,-0.0004
3643.00,-0.0004
3642.00,-0.0004
3641.00,-0.0004
3640.00,-0.0003
3639.00,-0.0003
3638.00,-0.0003
3637.00,-0.0002
3636.00,-0.0002
3635.00,-0.0002
3634.00,-0.0002
3633.00,-0.0002
3632.00,-0.0002
3631.00,-0.0002
3630.00,-0.0002
3629.00,-0.0002
3628.00,-0.0002
3627.00,-0.0002
3626.00,-0.0002
3625.00,-0.0002
3624.00,-0.0001
3623.00,-0.0001
3622.00,-0.0001
3621.00,-0.0001
3620.00,-0.0001
3619.00,-0.0000
3618.00,0.0000
3617.00,0.0001
3616.00,0.0002
3615.00,0.0002
3614.00,0.0002
3613.00,0.0002
3612.00,0.0001
3611.00,0.0001
3610.00,0.0001
3609.00,0.0001
3608.00,0.0002
3607.00,0.0003
3606.00,0.0003
3605.00,0.0003
3604.00,0.0004
3603.00,0.0004
3602.00,0.0005
3601.00,0.0006
3600.00,0.0006
3599.00,0.0006
3598.00,0.0006
3597.00,0.0006
3596.00,0.0006
3595.00,0.0006
3594.00,0.0006
3593.00,0.0006
3592.00,0.0006
3591.00,0.0006
3590.00,0.0007
3589.00,0.0007
3588.00,0.0007
3587.00,0.0007
3586.00,0.0007
3585.00,0.0007
3584.00,0.0007
3583.00,0.0007
3582.00,0.0007
3581.00,0.0008
3580.00,0.0009
3579.00,0.0010
3578.00,0.0010
3577.00,0.0010
3576.00,0.0011
3575.00,0.0011
3574.00,0.0011
3573.00,0.0011
3572.00,0.0011
3571.00,0.0011
3570.00,0.0011
3569.00,0.0012
3568.00,0.0012
3567.00,0.0013
3566.00,0.0013
3565.00,0.0014
3564.00,0.0014
3563.00,0.0015
3562.00,0.0015
3561.00,0.0016
3560.00,0.0017
3559.00,0.0017
3558.00,0.0017
3557.00,0.0017
3556.00,0.0017
3555.00,0.0018
3554.00,0.0018
3553.00,0.0019
3552.00,0.0019
3551.00,0.0020
3550.00,0.0020
3549.00,0.0020
3548.00,0.0020
3547.00,0.0021
3546.00,0.0022
3545.00,0.0022
3544.00,0.0022
3543.00,0.0022
3542.00,0.0022
3541.00,0.0022
3540.00,0.0022
3539.00,0.0023
3538.00,0.0023
3537.00,0.0024
3536.00,0.0025
3535.00,0.0025
3534.00,0.0025
3533.00,0.0025
3532.00,0.0026
3531.00,0.0026
3530.00,0.0026
3529.00,0.0027
3528.00,0.0027
3527.00,0.0027
3526.00,0.0028
3525.00,0.0028
3524.00,0.0029
3523.00,0.0030
3522.00,0.0030
3521.00,0.0031
3520.00,0.0031
3519.00,0.0031
3518.00,0.0031
3517.00,0.0031
3516.00,0.0032
3515.00,0.0032
3514.00,0.0032
3513.00,0.0032
3512.00,0.0032
3511.00,0.0033
3510.00,0.0033
3509.00,0.0034
3508.00,0.0035
3507.00,0.0035
3506.00,0.0036
3505.00,0.0036
3504.00,0.0036
3503.00,0.0037
3502.00,0.0037
3501.00,0.0037
3500.00,0.0037
3499.00,0.0038
3498.00,0.0038
3497.00,0.0038
3496.00,0.0038
3495.00,0.0039
3494.00,0.0039
3493.00,0.0039
3492.00,0.0040
3491.00,0.0040
3490.00,0.0040
3489.00,0.0041
3488.00,0.0041
3487.00,0.0042
3486.00,0.0042
3485.00,0.0042
3484.00,0.0042
3483.00,0.0042
3482.00,0.0043
3481.00,0.0043
3480.00,0.0044
3479.00,0.0045
3478.00,0.0045
3477.00,0.0046
3476.00,0.0047
3475.00,0.0047
3474.00,0.0047
3473.00,0.0047
3472.00,0.0047
3471.00,0.0046
3470.00,0.0046
3469.00,0.0046
3468.00,0.0046
3467.00,0.0047
3466.00,0.0047
3465.00,0.0048
3464.00,0.0049
3463.00,0.0050
3462.00,0.0050
3461.00,0.0051
3460.00,0.0050
3459.00,0.0050
3458.00,0.0050
3457.00,0.0051
3456.00,0.0051
3455.00,0.0052
3454.00,0.0052
3453.00,0.0052
3452.00,0.0052
3451.00,0.0052
3450.00,0.0052
3449.00,0.0052
3448.00,0.0051
3447.00,0.0051
3446.00,0.0052
3445.00,0.0052
3444.00,0.0053
3443.00,0.0053
3442.00,0.0053
3441.00,0.0054
3440.00,0.0055
3439.00,0.0055
3438.00,0.0055
3437.00,0.0055
3436.00,0.0055
3435.00,0.0055
3434.00,0.0055
3433.00,0.0055
3432.00,0.0056
3431.00,0.0058
3430.00,0.0058
3429.00,0.0059
3428.00,0.0059
3427.00,0.0059
3426.00,0.0060
3425.00,0.0060
3424.00,0.0060
3423.00,0.0060
3422.00,0.0059
3421.00,0.0059
3420.00,0.0060
3419.00,0.0060
3418.00,0.0060
3417.00,0.0060
3416.00,0.0061
3415.00,0.0061
3414.00,0.0062
3413.00,0.0062
3412.00,0.0063
3411.00,0.0063
3410.00,0.0063
3409.00,0.0063
3408.00,0.0064
3407.00,0.0064
3406.00,0.0064
3405.00,0.0064
3404.00,0.0064
3403.00,0.0063
3402.00,0.0064
3401.00,0.0064
3400.00,0.0064
3399.00,0.0064
3398.00,0.0065
3397.00,0.0066
3396.00,0.0066
3395.00,0.0067
3394.00,0.0067
3393.00,0.0067
3392.00,0.0067
3391.00,0.0067
3390.00,0.0067
3389.00,0.0067
3388.00,0.0067
3387.00,0.0067
3386.00,0.0068
3385.00,0.0069
3384.00,0.0069
3383.00,0.0069
3382.00,0.0069
3381.00,0.0069
3380.00,0.0069
3379.00,0.0069
3378.00,0.0069
3377.00,0.0070
3376.00,0.0070
3375.00,0.0071
3374.00,0.0071
3373.00,0.0072
3372.00,0.0072
3371.00,0.0072
3370.00,0.0072
3369.00,0.0072
3368.00,0.0072
3367.00,0.0073
3366.00,0.0073
3365.00,0.0073
3364.00,0.0073
3363.00,0.0073
3362.00,0.0074
3361.00,0.0074
3360.00,0.0075
3359.00,0.0075
3358.00,0.0075
3357.00,0.0075
3356.00,0.0076
3355.00,0.0076
3354.00,0.0076
3353.00,0.0077
3352.00,0.0077
3351.00,0.0077
3350.00,0.0078
3349.00,0.0078
3348.00,0.0078
3347.00,0.0079
3346.00,0.0079
3345.00,0.0079
3344.00,0.0079
3343.00,0.0079
3342.00,0.0079
3341.00,0.0080
3340.00,0.0080
3339.00,0.0081
3338.00,0.0081
3337.00,0.0081
3336.00,0.0082
3335.00,0.0082
3334.00,0.0082
3333.00,0.0083
3332.00,0.0083
3331.00,0.0083
3330.00,0.0083
3329.00,0.0083
3328.00,0.0084
3327.00,0.0084
3326.00,0.0084
3325.00,0.0084
3324.00,0.0084
3323.00,0.0084
3322.00,0.0084
3321.00,0.0085
3320.00,0.0085
3319.00,0.0085
3318.00,0.0086
3317.00,0.0086
3316.00,0.0086
3315.00,0.0086
3314.00,0.0086
3313.00,0.0087
3312.00,0.0087
3311.00,0.0087
3310.00,0.0087
3309.00,0.0087
3308.00,0.0087
3307.00,0.0087
3306.00,0.0088
3305.00,0.0088
3304.00,0.0088
3303.00,0.0088
3302.00,0.0088
3301.00,0.0088
3300.00,0.0088
3299.00,0.0088
3298.00,0.0088
3297.00,0.0088
3296.00,0.0088
3295.00,0.0088
3294.00,0.0088
3293.00,0.0089
3292.00,0.0089
3291.00,0.0090
3290.00,0.0090
3289.00,0.0090
3288.00,0.0090
3287.00,0.0090
3286.00,0.0089
3285.00,0.0089
3284.00,0.0089
3283.00,0.0089
3282.00,0.0089
3281.00,0.0089
3280.00,0.0089
3279.00,0.0088
3278.00,0.0088
3277.00,0.0088
3276.00,0.0088
3275.00,0.0087
3274.00,0.0087
3273.00,0.0086
3272.00,0.0086
3271.00,0.0085
3270.00,0.0085
3269.00,0.0085
3268.00,0.0085
3267.00,0.0084
3266.00,0.0084
3265.00,0.0084
3264.00,0.0084
3263.00,0.0084
3262.00,0.0084
3261.00,0.0083
3260.00,0.0082
3259.00,0.0082
3258.00,0.0081
3257.00,0.0081
3256.00,0.0080
3255.00,0.0080
3254.00,0.0080
3253.00,0.0079
3252.00,0.0079
3251.00,0.0078
3250.00,0.0078
3249.00,0.0078
3248.00,0.0077
3247.00,0.0077
3246.00,0.0076
3245.00,0.0076
3244.00,0.0076
3243.00,0.0076
3242.00,0.0076
3241.00,0.0075
3240.00,0.0075
3239.00,0.0075
3238.00,0.0074
3237.00,0.0073
3236.00,0.0073
3235.00,0.0072
3234.00,0.0072
3233.00,0.0072
3232.00,0.0072
3231.00,0.0072
3230.00,0.0072
3229.00,0.0071
3228.00,0.0070
3227.00,0.0070
3226.00,0.0070
3225.00,0.0070
3224.00,0.0070
3223.00,0.0069
3222.00,0.0069
3221.00,0.0069
3220.00,0.0068
3219.00,0.0068
3218.00,0.0068
3217.00,0.0067
3216.00,0.0067
3215.00,0.0067
3214.00,0.0067
3213.00,0.0067
3212.00,0.0067
3211.00,0.0067
3210.00,0.0068
3209.00,0.0068
3208.00,0.0068
3207.00,0.0068
3206.00,0.0068
3205.00,0.0068
3204.00,0.0067
3203.00,0.0067
3202.00,0.0066
3201.00,0.0066
3200.00,0.0065
3199.00,0.0065
3198.00,0.0065
3197.00,0.0065
3196.00,0.0065
3195.00,0.0064
3194.00,0.0064
3193.00,0.0063
3192.00,0.0063
3191.00,0.0062
3190.00,0.0062
3189.00,0.0062
3188.00,0.0062
3187.00,0.0062
3186.00,0.0062
3185.00,0.0061
3184.00,0.0061
3183.00,0.0060
3182.00,0.0060
3181.00,0.0060
3180.00,0.0060
3179.00,0.0060
3178.00,0.0060
3177.00,0.0059
3176.00,0.0059
3175.00,0.0058
3174.00,0.0058
3173.00,0.0058
3172.00,0.0058
3171.00,0.0058
3170.00,0.0058
3169.00,0.0058
3168.00,0.0058
3167.00,0.0057
3166.00,0.0057
3165.00,0.0056
3164.00,0.0056
3163.00,0.0056
3162.00,0.0056
3161.00,0.0056
3160.00,0.0055
3159.00,0.0055
3158.00,0.0054
3157.00,0.0054
3156.00,0.0054
3155.00,0.0053
3154.00,0.0053
3153.00,0.0053
3152.00,0.0053
3151.00,0.0053
3150.00,0.0053
3149.00,0.0052
3148.00,0.0052
3147.00,0.0052
3146.00,0.0051
3145.00,0.0051
3144.00,0.0050
3143.00,0.0050
3142.00,0.0050
3141.00,0.0049
3140.00,0.0049
3139.00,0.0049
3138.00,0.0049
3137.00,0.0049
3136.00,0.0049
3135.00,0.0049
3134.00,0.0048
3133.00,0.0048
3132.00,0.0047
3131.00,0.0047
3130.00,0.0047
3129.00,0.0047
3128.00,0.0047
3127.00,0.0048
3126.00,0.0048
3125.00,0.0048
3124.00,0.0048
3123.00,0.0048
3122.00,0.0048
3121.00,0.0048
3120.00,0.0048
3119.00,0.0049
3118.00,0.0049
3117.00,0.0049
3116.00,0.0050
3115.00,0.0051
3114.00,0.0052
3113.00,0.0053
3112.00,0.0054
3111.00,0.0056
3110.00,0.0057
3109.00,0.0059
3108.00,0.0061
3107.00,0.0063
3106.00,0.0065
3105.00,0.0067
3104.00,0.0068
3103.00,0.0069
3102.00,0.0069
3101.00,0.0068
3100.00,0.0068
3099.00,0.0067
3098.00,0.0067
3097.00,0.0067
3096.00,0.0067
3095.00,0.0067
3094.00,0.0069
3093.00,0.0070
3092.00,0.0073
3091.00,0.0077
3090.00,0.0081
3089.00,0.0087
3088.00,0.0094
3087.00,0.0101
3086.00,0.0108
3085.00,0.0115
3084.00,0.0121
3083.00,0.0124
3082.00,0.0126
3081.00,0.0125
3080.00,0.0121
3079.00,0.0117
3078.00,0.0112
3077.00,0.0107
3076.00,0.0103
3075.00,0.0101
3074.00,0.0099
3073.00,0.0099
3072.00,0.0100
3071.00,0.0102
3070.00,0.0105
3069.00,0.0108
3068.00,0.0113
3067.00,0.0119
3066.00,0.0126
3065.00,0.0134
3064.00,0.0143
3063.00,0.0151
3062.00,0.0157
3061.00,0.0162
3060.00,0.0164
3059.00,0.0163
3058.00,0.0160
3057.00,0.0155
3056.00,0.0147
3055.00,0.0139
3054.00,0.0132
3053.00,0.0124
3052.00,0.0118
3051.00,0.0112
3050.00,0.0108
3049.00,0.0104
3048.00,0.0100
3047.00,0.0097
3046.00,0.0095
3045.00,0.0095
3044.00,0.0095
3043.00,0.0096
3042.00,0.0098
3041.00,0.0101
3040.00,0.0105
3039.00,0.0110
3038.00,0.0116
3037.00,0.0123
3036.00,0.0132
3035.00,0.0142
3034.00,0.0155
3033.00,0.0170
3032.00,0.0187
3031.00,0.0206
3030.00,0.0225
3029.00,0.0244
3028.00,0.0262
3027.00,0.0275
3026.00,0.0284
3025.00,0.0286
3024.00,0.0282
3023.00,0.0271
3022.00,0.0254
3021.00,0.0234
3020.00,0.0212
3019.00,0.0191
3018.00,0.0171
3017.00,0.0154
3016.00,0.0140
3015.00,0.0129
3014.00,0.0119
3013.00,0.0112
3012.00,0.0106
3011.00,0.0102
3010.00,0.0099
3009.00,0.0098
3008.00,0.0097
3007.00,0.0098
3006.00,0.0099
3005.00,0.0101
3004.00,0.0103
3003.00,0.0105
3002.00,0.0106
3001.00,0.0106
3000.00,0.0105
2999.00,0.0102
2998.00,0.0099
2997.00,0.0094
2996.00,0.0090
2995.00,0.0086
2994.00,0.0083
2993.00,0.0081
2992.00,0.0080
2991.00,0.0079
2990.00,0.0078
2989.00,0.0079
2988.00,0.0079
2987.00,0.0081
2986.00,0.0082
2985.00,0.0083
2984.00,0.0085
2983.00,0.0086
2982.00,0.0088
2981.00,0.0090
2980.00,0.0092
2979.00,0.0095
2978.00,0.0098
2977.00,0.0101
2976.00,0.0103
2975.00,0.0107
2974.00,0.0110
2973.00,0.0113
2972.00,0.0117
2971.00,0.0121
2970.00,0.0125
2969.00,0.0130
2968.00,0.0135
2967.00,0.0140
2966.00,0.0145
2965.00,0.0151
2964.00,0.0156
2963.00,0.0161
2962.00,0.0167
2961.00,0.0172
2960.00,0.0177
2959.00,0.0182
2958.00,0.0186
2957.00,0.0191
2956.00,0.0195
2955.00,0.0198
2954.00,0.0202
2953.00,0.0204
2952.00,0.0207
2951.00,0.0210
2950.00,0.0214
2949.00,0.0220
2948.00,0.0226
2947.00,0.0233
2946.00,0.0241
2945.00,0.0250
2944.00,0.0260
2943.00,0.0271
2942.00,0.0284
2941.00,0.0298
2940.00,0.0313
2939.00,0.0329
2938.00,0.0346
2937.00,0.0364
2936.00,0.0382
2935.00,0.0402
2934.00,0.0421
2933.00,0.0442
2932.00,0.0462
2931.00,0.0482
2930.00,0.0501
2929.00,0.0519
2928.00,0.0537
2927.00,0.0554
2926.00,0.0569
2925.00,0.0581
2924.00,0.0592
2923.00,0.0600
2922.00,0.0606
2921.00,0.0609
2920.00,0.0611
2919.00,0.0609
2918.00,0.0602
2917.00,0.0591
2916.00,0.0575
2915.00,0.0553
2914.00,0.0529
2913.00,0.0505
2912.00,0.0482
2911.00,0.0461
2910.00,0.0442
2909.00,0.0424
2908.00,0.0408
2907.00,0.0393
2906.00,0.0378
2905.00,0.0364
2904.00,0.0351
2903.00,0.0339
2902.00,0.0327
2901.00,0.0315
2900.00,0.0303
2899.00,0.0291
2898.00,0.0280
2897.00,0.0270
2896.00,0.0261
2895.00,0.0253
2894.00,0.0245
2893.00,0.0238
2892.00,0.0231
2891.00,0.0225
2890.00,0.0219
2889.00,0.0213
2888.00,0.0208
2887.00,0.0203
2886.00,0.0198
2885.00,0.0193
2884.00,0.0189
2883.00,0.0185
2882.00,0.0181
2881.00,0.0178
2880.00,0.0176
2879.00,0.0175
2878.00,0.0174
2877.00,0.0173
2876.00,0.0173
2875.00,0.0173
2874.00,0.0173
2873.00,0.0174
2872.00,0.0174
2871.00,0.0175
2870.00,0.0175
2869.00,0.0175
2868.00,0.0176
2867.00,0.0178
2866.00,0.0182
2865.00,0.0187
2864.00,0.0193
2863.00,0.0200
2862.00,0.0209
2861.00,0.0219
2860.00,0.0230
2859.00,0.0243
2858.00,0.0256
2857.00,0.0270
2856.00,0.0284
2855.00,0.0298
2854.00,0.0311
2853.00,0.0321
2852.00,0.0327
2851.00,0.0328
2850.00,0.0322
2849.00,0.0309
2848.00,0.0292
2847.00,0.0272
2846.00,0.0252
2845.00,0.0232
2844.00,0.0213
2843.00,0.0195
2842.00,0.0178
2841.00,0.0162
2840.00,0.0147
2839.00,0.0134
2838.00,0.0121
2837.00,0.0111
2836.00,0.0102
2835.00,0.0095
2834.00,0.0088
2833.00,0.0083
2832.00,0.0078
2831.00,0.0074
2830.00,0.0070
2829.00,0.0067
2828.00,0.0065
2827.00,0.0062
2826.00,0.0060
2825.00,0.0058
2824.00,0.0057
2823.00,0.0055
2822.00,0.0054
2821.00,0.0053
2820.00,0.0052
2819.00,0.0051
2818.00,0.0050
2817.00,0.0049
2816.00,0.0048
2815.00,0.0047
2814.00,0.0046
2813.00,0.0045
2812.00,0.0044
2811.00,0.0044
2810.00,0.0044
2809.00,0.0043
2808.00,0.0043
2807.00,0.0042
2806.00,0.0041
2805.00,0.0040
2804.00,0.0040
2803.00,0.0039
2802.00,0.0038
2801.00,0.0038
2800.00,0.0037
2799.00,0.0037
2798.00,0.0036
2797.00,0.0036
2796.00,0.0035
2795.00,0.0035
2794.00,0.0034
2793.00,0.0034
2792.00,0.0033
2791.00,0.0033
2790.00,0.0032
2789.00,0.0032
2788.00,0.0032
2787.00,0.0032
2786.00,0.0032
2785.00,0.0031
2784.00,0.0031
2783.00,0.0030
2782.00,0.0030
2781.00,0.0030
