Created as New Dataset,Sample 365 By YargerLab Date Friday, November 14 2025
cm-1,A
4000.00,0.0246
3999.00,0.0246
3998.00,0.0246
3997.00,0.0246
3996.00,0.0246
3995.00,0.0246
3994.00,0.0246
3993.00,0.0246
3992.00,0.0245
3991.00,0.0245
3990.00,0.0245
3989.00,0.0245
3988.00,0.0245
3987.00,0.0245
3986.00,0.0244
3985.00,0.0244
3984.00,0.0244
3983.00,0.0244
3982.00,0.0244
3981.00,0.0243
3980.00,0.0243
3979.00,0.0243
3978.00,0.0243
3977.00,0.0243
3976.00,0.0242
3975.00,0.0242
3974.00,0.0242
3973.00,0.0242
3972.00,0.0242
3971.00,0.0242
3970.00,0.0241
3969.00,0.0241
3968.00,0.0241
3967.00,0.0241
3966.00,0.0241
3965.00,0.0241
3964.00,0.0240
3963.00,0.0240
3962.00,0.0241
3961.00,0.0241
3960.00,0.0240
3959.00,0.0240
3958.00,0.0240
3957.00,0.0239
3956.00,0.0239
3955.00,0.0239
3954.00,0.0239
3953.00,0.0239
3952.00,0.0239
3951.00,0.0239
3950.00,0.0239
3949.00,0.0239
3948.00,0.0239
3947.00,0.0239
3946.00,0.0239
3945.00,0.0238
3944.00,0.0238
3943.00,0.0238
3942.00,0.0237
3941.00,0.0237
3940.00,0.0237
3939.00,0.0237
3938.00,0.0236
3937.00,0.0236
3936.00,0.0236
3935.00,0.0236
3934.00,0.0236
3933.00,0.0236
3932.00,0.0236
3931.00,0.0235
3930.00,0.0235
3929.00,0.0235
3928.00,0.0235
3927.00,0.0235
3926.00,0.0235
3925.00,0.0234
3924.00,0.0235
3923.00,0.0235
3922.00,0.0235
3921.00,0.0235
3920.00,0.0235
3919.00,0.0235
3918.00,0.0235
3917.00,0.0234
3916.00,0.0234
3915.00,0.0233
3914.00,0.0233
3913.00,0.0233
3912.00,0.0232
3911.00,0.0232
3910.00,0.0232
3909.00,0.0232
3908.00,0.0232
3907.00,0.0231
3906.00,0.0231
3905.00,0.0232
3904.00,0.0233
3903.00,0.0233
3902.00,0.0234
3901.00,0.0234
3900.00,0.0233
3899.00,0.0232
3898.00,0.0231
3897.00,0.0231
3896.00,0.0230
3895.00,0.0230
3894.00,0.0230
3893.00,0.0229
3892.00,0.0229
3891.00,0.0229
3890.00,0.0229
3889.00,0.0229
3888.00,0.0230
3887.00,0.0230
3886.00,0.0230
3885.00,0.0230
3884.00,0.0230
3883.00,0.0230
3882.00,0.0230
3881.00,0.0230
3880.00,0.0229
3879.00,0.0229
3878.00,0.0229
3877.00,0.0229
3876.00,0.0229
3875.00,0.0228
3874.00,0.0228
3873.00,0.0227
3872.00,0.0228
3871.00,0.0228
3870.00,0.0228
3869.00,0.0227
3868.00,0.0227
3867.00,0.0226
3866.00,0.0226
3865.00,0.0226
3864.00,0.0226
3863.00,0.0226
3862.00,0.0227
3861.00,0.0227
3860.00,0.0226
3859.00,0.0226
3858.00,0.0225
3857.00,0.0224
3856.00,0.0223
3855.00,0.0223
3854.00,0.0222
3853.00,0.0223
3852.00,0.0224
3851.00,0.0224
3850.00,0.0224
3849.00,0.0224
3848.00,0.0224
3847.00,0.0224
3846.00,0.0224
3845.00,0.0224
3844.00,0.0224
3843.00,0.0224
3842.00,0.0224
3841.00,0.0224
3840.00,0.0224
3839.00,0.0224
3838.00,0.0224
3837.00,0.0223
3836.00,0.0223
3835.00,0.0222
3834.00,0.0222
3833.00,0.0221
3832.00,0.0221
3831.00,0.0221
3830.00,0.0221
3829.00,0.0221
3828.00,0.0221
3827.00,0.0221
3826.00,0.0221
3825.00,0.0221
3824.00,0.0221
3823.00,0.0221
3822.00,0.0221
3821.00,0.0221
3820.00,0.0221
3819.00,0.0221
3818.00,0.0221
3817.00,0.0221
3816.00,0.0220
3815.00,0.0220
3814.00,0.0219
3813.00,0.0219
3812.00,0.0219
3811.00,0.0218
3810.00,0.0218
3809.00,0.0217
3808.00,0.0218
3807.00,0.0218
3806.00,0.0218
3805.00,0.0218
3804.00,0.0218
3803.00,0.0218
3802.00,0.0218
3801.00,0.0217
3800.00,0.0217
3799.00,0.0217
3798.00,0.0217
3797.00,0.0218
3796.00,0.0217
3795.00,0.0217
3794.00,0.0217
3793.00,0.0216
3792.00,0.0215
3791.00,0.0215
3790.00,0.0215
3789.00,0.0215
3788.00,0.0215
3787.00,0.0215
3786.00,0.0214
3785.00,0.0214
3784.00,0.0214
3783.00,0.0214
3782.00,0.0214
3781.00,0.0214
3780.00,0.0214
3779.00,0.0214
3778.00,0.0214
3777.00,0.0213
3776.00,0.0213
3775.00,0.0213
3774.00,0.0213
3773.00,0.0213
3772.00,0.0213
3771.00,0.0213
3770.00,0.0213
3769.00,0.0213
3768.00,0.0213
3767.00,0.0213
3766.00,0.0213
3765.00,0.0212
3764.00,0.0212
3763.00,0.0212
3762.00,0.0212
3761.00,0.0212
3760.00,0.0212
3759.00,0.0212
3758.00,0.0212
3757.00,0.0212
3756.00,0.0212
3755.00,0.0212
3754.00,0.0212
3753.00,0.0212
3752.00,0.0213
3751.00,0.0213
3750.00,0.0213
3749.00,0.0213
3748.00,0.0213
3747.00,0.0213
3746.00,0.0213
3745.00,0.0213
3744.00,0.0213
3743.00,0.0212
3742.00,0.0212
3741.00,0.0212
3740.00,0.0212
3739.00,0.0212
3738.00,0.0212
3737.00,0.0212
3736.00,0.0212
3735.00,0.0212
3734.00,0.0212
3733.00,0.0213
3732.00,0.0212
3731.00,0.0211
3730.00,0.0211
3729.00,0.0210
3728.00,0.0210
3727.00,0.0210
3726.00,0.0209
3725.00,0.0209
3724.00,0.0209
3723.00,0.0209
3722.00,0.0208
3721.00,0.0207
3720.00,0.0207
3719.00,0.0206
3718.00,0.0206
3717.00,0.0206
3716.00,0.0206
3715.00,0.0206
3714.00,0.0206
3713.00,0.0206
3712.00,0.0206
3711.00,0.0206
3710.00,0.0206
3709.00,0.0206
3708.00,0.0206
3707.00,0.0206
3706.00,0.0205
3705.00,0.0205
3704.00,0.0205
3703.00,0.0204
3702.00,0.0204
3701.00,0.0204
3700.00,0.0204
3699.00,0.0204
3698.00,0.0204
3697.00,0.0204
3696.00,0.0204
3695.00,0.0204
3694.00,0.0204
3693.00,0.0203
3692.00,0.0203
3691.00,0.0203
3690.00,0.0204
3689.00,0.0205
3688.00,0.0205
3687.00,0.0205
3686.00,0.0205
3685.00,0.0205
3684.00,0.0205
3683.00,0.0205
3682.00,0.0205
3681.00,0.0204
3680.00,0.0204
3679.00,0.0205
3678.00,0.0205
3677.00,0.0206
3676.00,0.0207
3675.00,0.0207
3674.00,0.0208
3673.00,0.0208
3672.00,0.0208
3671.00,0.0208
3670.00,0.0207
3669.00,0.0207
3668.00,0.0206
3667.00,0.0206
3666.00,0.0206
3665.00,0.0206
3664.00,0.0206
3663.00,0.0206
3662.00,0.0206
3661.00,0.0206
3660.00,0.0206
3659.00,0.0207
3658.00,0.0207
3657.00,0.0207
3656.00,0.0208
3655.00,0.0208
3654.00,0.0209
3653.00,0.0210
3652.00,0.0211
3651.00,0.0212
3650.00,0.0212
3649.00,0.0213
3648.00,0.0214
3647.00,0.0214
3646.00,0.0213
3645.00,0.0213
3644.00,0.0213
3643.00,0.0213
3642.00,0.0213
3641.00,0.0213
3640.00,0.0213
3639.00,0.0213
3638.00,0.0213
3637.00,0.0214
3636.00,0.0215
3635.00,0.0215
3634.00,0.0216
3633.00,0.0217
3632.00,0.0218
3631.00,0.0218
3630.00,0.0219
3629.00,0.0219
3628.00,0.0220
3627.00,0.0220
3626.00,0.0221
3625.00,0.0222
3624.00,0.0223
3623.00,0.0223
3622.00,0.0223
3621.00,0.0223
3620.00,0.0223
3619.00,0.0224
3618.00,0.0224
3617.00,0.0226
3616.00,0.0227
3615.00,0.0228
3614.00,0.0229
3613.00,0.0229
3612.00,0.0230
3611.00,0.0231
3610.00,0.0231
3609.00,0.0232
3608.00,0.0232
3607.00,0.0233
3606.00,0.0233
3605.00,0.0234
3604.00,0.0234
3603.00,0.0235
3602.00,0.0235
3601.00,0.0236
3600.00,0.0236
3599.00,0.0237
3598.00,0.0238
3597.00,0.0238
3596.00,0.0239
3595.00,0.0239
3594.00,0.0240
3593.00,0.0241
3592.00,0.0242
3591.00,0.0243
3590.00,0.0245
3589.00,0.0246
3588.00,0.0246
3587.00,0.0246
3586.00,0.0246
3585.00,0.0246
3584.00,0.0247
3583.00,0.0248
3582.00,0.0248
3581.00,0.0249
3580.00,0.0249
3579.00,0.0250
3578.00,0.0251
3577.00,0.0252
3576.00,0.0253
3575.00,0.0254
3574.00,0.0255
3573.00,0.0255
3572.00,0.0257
3571.00,0.0258
3570.00,0.0260
3569.00,0.0262
3568.00,0.0263
3567.00,0.0263
3566.00,0.0264
3565.00,0.0264
3564.00,0.0265
3563.00,0.0265
3562.00,0.0266
3561.00,0.0266
3560.00,0.0267
3559.00,0.0268
3558.00,0.0269
3557.00,0.0270
3556.00,0.0271
3555.00,0.0272
3554.00,0.0273
3553.00,0.0274
3552.00,0.0275
3551.00,0.0276
3550.00,0.0277
3549.00,0.0279
3548.00,0.0280
3547.00,0.0281
3546.00,0.0282
3545.00,0.0282
3544.00,0.0282
3543.00,0.0283
3542.00,0.0284
3541.00,0.0285
3540.00,0.0286
3539.00,0.0287
3538.00,0.0288
3537.00,0.0289
3536.00,0.0290
3535.00,0.0291
3534.00,0.0292
3533.00,0.0293
3532.00,0.0294
3531.00,0.0296
3530.00,0.0297
3529.00,0.0297
3528.00,0.0298
3527.00,0.0299
3526.00,0.0300
3525.00,0.0301
3524.00,0.0302
3523.00,0.0303
3522.00,0.0304
3521.00,0.0304
3520.00,0.0305
3519.00,0.0306
3518.00,0.0306
3517.00,0.0307
3516.00,0.0308
3515.00,0.0309
3514.00,0.0310
3513.00,0.0311
3512.00,0.0312
3511.00,0.0313
3510.00,0.0314
3509.00,0.0315
3508.00,0.0316
3507.00,0.0317
3506.00,0.0318
3505.00,0.0319
3504.00,0.0320
3503.00,0.0321
3502.00,0.0321
3501.00,0.0322
3500.00,0.0323
3499.00,0.0323
3498.00,0.0324
3497.00,0.0325
3496.00,0.0326
3495.00,0.0327
3494.00,0.0328
3493.00,0.0328
3492.00,0.0329
3491.00,0.0330
3490.00,0.0331
3489.00,0.0332
3488.00,0.0332
3487.00,0.0333
3486.00,0.0334
3485.00,0.0335
3484.00,0.0336
3483.00,0.0337
3482.00,0.0338
3481.00,0.0338
3480.00,0.0339
3479.00,0.0340
3478.00,0.0341
3477.00,0.0342
3476.00,0.0343
3475.00,0.0344
3474.00,0.0345
3473.00,0.0345
3472.00,0.0346
3471.00,0.0347
3470.00,0.0348
3469.00,0.0348
3468.00,0.0349
3467.00,0.0350
3466.00,0.0351
3465.00,0.0352
3464.00,0.0353
3463.00,0.0354
3462.00,0.0354
3461.00,0.0355
3460.00,0.0356
3459.00,0.0356
3458.00,0.0357
3457.00,0.0358
3456.00,0.0359
3455.00,0.0360
3454.00,0.0361
3453.00,0.0362
3452.00,0.0363
3451.00,0.0364
3450.00,0.0364
3449.00,0.0365
3448.00,0.0365
3447.00,0.0366
3446.00,0.0366
3445.00,0.0367
3444.00,0.0368
3443.00,0.0368
3442.00,0.0369
3441.00,0.0370
3440.00,0.0371
3439.00,0.0372
3438.00,0.0372
3437.00,0.0373
3436.00,0.0374
3435.00,0.0375
3434.00,0.0375
3433.00,0.0376
3432.00,0.0377
3431.00,0.0378
3430.00,0.0378
3429.00,0.0379
3428.00,0.0380
3427.00,0.0381
3426.00,0.0381
3425.00,0.0382
3424.00,0.0383
3423.00,0.0383
3422.00,0.0384
3421.00,0.0385
3420.00,0.0386
3419.00,0.0387
3418.00,0.0388
3417.00,0.0389
3416.00,0.0389
3415.00,0.0390
3414.00,0.0390
3413.00,0.0391
3412.00,0.0391
3411.00,0.0392
3410.00,0.0392
3409.00,0.0393
3408.00,0.0394
3407.00,0.0395
3406.00,0.0395
3405.00,0.0396
3404.00,0.0396
3403.00,0.0396
3402.00,0.0396
3401.00,0.0397
3400.00,0.0397
3399.00,0.0398
3398.00,0.0399
3397.00,0.0399
3396.00,0.0400
3395.00,0.0400
3394.00,0.0401
3393.00,0.0401
3392.00,0.0402
3391.00,0.0403
3390.00,0.0404
3389.00,0.0405
3388.00,0.0405
3387.00,0.0406
3386.00,0.0406
3385.00,0.0407
3384.00,0.0407
3383.00,0.0408
3382.00,0.0409
3381.00,0.0409
3380.00,0.0410
3379.00,0.0411
3378.00,0.0411
3377.00,0.0412
3376.00,0.0412
3375.00,0.0413
3374.00,0.0413
3373.00,0.0414
3372.00,0.0415
3371.00,0.0415
3370.00,0.0416
3369.00,0.0416
3368.00,0.0417
3367.00,0.0418
3366.00,0.0418
3365.00,0.0418
3364.00,0.0419
3363.00,0.0419
3362.00,0.0420
3361.00,0.0420
3360.00,0.0421
3359.00,0.0422
3358.00,0.0422
3357.00,0.0423
3356.00,0.0423
3355.00,0.0424
3354.00,0.0424
3353.00,0.0425
3352.00,0.0425
3351.00,0.0426
3350.00,0.0426
3349.00,0.0426
3348.00,0.0427
3347.00,0.0428
3346.00,0.0429
3345.00,0.0429
3344.00,0.0430
3343.00,0.0431
3342.00,0.0431
3341.00,0.0431
3340.00,0.0432
3339.00,0.0433
3338.00,0.0434
3337.00,0.0434
3336.00,0.0435
3335.00,0.0435
3334.00,0.0436
3333.00,0.0436
3332.00,0.0437
3331.00,0.0437
3330.00,0.0438
3329.00,0.0439
3328.00,0.0439
3327.00,0.0440
3326.00,0.0441
3325.00,0.0442
3324.00,0.0442
3323.00,0.0443
3322.00,0.0444
3321.00,0.0445
3320.00,0.0446
3319.00,0.0447
3318.00,0.0447
3317.00,0.0448
3316.00,0.0448
3315.00,0.0449
3314.00,0.0450
3313.00,0.0450
3312.00,0.0451
3311.00,0.0451
3310.00,0.0452
3309.00,0.0452
3308.00,0.0453
3307.00,0.0453
3306.00,0.0454
3305.00,0.0455
3304.00,0.0456
3303.00,0.0457
3302.00,0.0458
3301.00,0.0459
3300.00,0.0459
3299.00,0.0460
3298.00,0.0460
3297.00,0.0461
3296.00,0.0461
3295.00,0.0461
3294.00,0.0462
3293.00,0.0462
3292.00,0.0462
3291.00,0.0463
3290.00,0.0463
3289.00,0.0463
3288.00,0.0463
3287.00,0.0464
3286.00,0.0464
3285.00,0.0464
3284.00,0.0464
3283.00,0.0464
3282.00,0.0464
3281.00,0.0464
3280.00,0.0464
3279.00,0.0464
3278.00,0.0464
3277.00,0.0464
3276.00,0.0464
3275.00,0.0463
3274.00,0.0462
3273.00,0.0462
3272.00,0.0461
3271.00,0.0460
3270.00,0.0460
3269.00,0.0460
3268.00,0.0459
3267.00,0.0458
3266.00,0.0458
3265.00,0.0457
3264.00,0.0456
3263.00,0.0455
3262.00,0.0454
3261.00,0.0454
3260.00,0.0453
3259.00,0.0452
3258.00,0.0451
3257.00,0.0450
3256.00,0.0448
3255.00,0.0447
3254.00,0.0447
3253.00,0.0446
3252.00,0.0445
3251.00,0.0444
3250.00,0.0443
3249.00,0.0442
3248.00,0.0440
3247.00,0.0440
3246.00,0.0439
3245.00,0.0438
3244.00,0.0438
3243.00,0.0436
3242.00,0.0435
3241.00,0.0434
3240.00,0.0433
3239.00,0.0432
3238.00,0.0431
3237.00,0.0430
3236.00,0.0428
3235.00,0.0427
3234.00,0.0427
3233.00,0.0426
3232.00,0.0425
3231.00,0.0424
3230.00,0.0423
3229.00,0.0422
3228.00,0.0421
3227.00,0.0421
3226.00,0.0420
3225.00,0.0419
3224.00,0.0418
3223.00,0.0417
3222.00,0.0416
3221.00,0.0415
3220.00,0.0415
3219.00,0.0414
3218.00,0.0413
3217.00,0.0412
3216.00,0.0411
3215.00,0.0410
3214.00,0.0410
3213.00,0.0409
3212.00,0.0408
3211.00,0.0408
3210.00,0.0407
3209.00,0.0406
3208.00,0.0404
3207.00,0.0403
3206.00,0.0402
3205.00,0.0402
3204.00,0.0401
3203.00,0.0400
3202.00,0.0399
3201.00,0.0398
3200.00,0.0397
3199.00,0.0397
3198.00,0.0396
3197.00,0.0395
3196.00,0.0394
3195.00,0.0393
3194.00,0.0392
3193.00,0.0391
3192.00,0.0390
3191.00,0.0389
3190.00,0.0388
3189.00,0.0387
3188.00,0.0386
3187.00,0.0385
3186.00,0.0384
3185.00,0.0383
3184.00,0.0382
3183.00,0.0381
3182.00,0.0380
3181.00,0.0379
3180.00,0.0378
3179.00,0.0377
3178.00,0.0376
3177.00,0.0374
3176.00,0.0373
3175.00,0.0372
3174.00,0.0372
3173.00,0.0371
3172.00,0.0370
3171.00,0.0368
3170.00,0.0367
3169.00,0.0366
3168.00,0.0365
3167.00,0.0364
3166.00,0.0363
3165.00,0.0362
3164.00,0.0361
3163.00,0.0360
3162.00,0.0359
3161.00,0.0358
3160.00,0.0356
3159.00,0.0355
3158.00,0.0354
3157.00,0.0353
3156.00,0.0352
3155.00,0.0351
3154.00,0.0350
3153.00,0.0349
3152.00,0.0348
3151.00,0.0346
3150.00,0.0346
3149.00,0.0345
3148.00,0.0344
3147.00,0.0343
3146.00,0.0343
3145.00,0.0342
3144.00,0.0341
3143.00,0.0340
3142.00,0.0339
3141.00,0.0338
3140.00,0.0337
3139.00,0.0336
3138.00,0.0336
3137.00,0.0335
3136.00,0.0335
3135.00,0.0334
3134.00,0.0334
3133.00,0.0333
3132.00,0.0332
3131.00,0.0331
3130.00,0.0330
3129.00,0.0330
3128.00,0.0329
3127.00,0.0328
3126.00,0.0328
3125.00,0.0327
3124.00,0.0326
3123.00,0.0326
3122.00,0.0325
3121.00,0.0324
3120.00,0.0323
3119.00,0.0323
3118.00,0.0322
3117.00,0.0322
3116.00,0.0322
3115.00,0.0322
3114.00,0.0322
3113.00,0.0323
3112.00,0.0323
3111.00,0.0322
3110.00,0.0322
3109.00,0.0321
3108.00,0.0321
3107.00,0.0321
3106.00,0.0321
3105.00,0.0321
3104.00,0.0321
3103.00,0.0321
3102.00,0.0321
3101.00,0.0321
3100.00,0.0321
3099.00,0.0321
3098.00,0.0321
3097.00,0.0321
3096.00,0.0321
3095.00,0.0321
3094.00,0.0321
3093.00,0.0321
3092.00,0.0321
3091.00,0.0321
3090.00,0.0320
3089.00,0.0320
3088.00,0.0320
3087.00,0.0320
3086.00,0.0319
3085.00,0.0319
3084.00,0.0319
3083.00,0.0319
3082.00,0.0319
3081.00,0.0318
3080.00,0.0318
3079.00,0.0317
3078.00,0.0317
3077.00,0.0317
3076.00,0.0317
3075.00,0.0317
3074.00,0.0318
3073.00,0.0317
3072.00,0.0317
3071.00,0.0316
3070.00,0.0316
3069.00,0.0315
3068.00,0.0315
3067.00,0.0314
3066.00,0.0314
3065.00,0.0314
3064.00,0.0314
3063.00,0.0313
3062.00,0.0313
3061.00,0.0312
3060.00,0.0311
3059.00,0.0311
3058.00,0.0310
3057.00,0.0309
3056.00,0.0308
3055.00,0.0307
3054.00,0.0306
3053.00,0.0305
3052.00,0.0305
3051.00,0.0304
3050.00,0.0303
3049.00,0.0302
3048.00,0.0302
3047.00,0.0301
3046.00,0.0300
3045.00,0.0299
3044.00,0.0298
3043.00,0.0297
3042.00,0.0297
3041.00,0.0296
3040.00,0.0296
3039.00,0.0296
3038.00,0.0295
3037.00,0.0295
3036.00,0.0294
3035.00,0.0293
3034.00,0.0293
3033.00,0.0293
3032.00,0.0293
3031.00,0.0292
3030.00,0.0292
3029.00,0.0292
3028.00,0.0292
3027.00,0.0292
3026.00,0.0292
3025.00,0.0292
3024.00,0.0292
3023.00,0.0293
3022.00,0.0293
3021.00,0.0294
3020.00,0.0294
3019.00,0.0295
3018.00,0.0295
3017.00,0.0295
3016.00,0.0295
3015.00,0.0296
3014.00,0.0297
3013.00,0.0297
3012.00,0.0297
3011.00,0.0297
3010.00,0.0297
3009.00,0.0296
3008.00,0.0296
3007.00,0.0295
3006.00,0.0294
3005.00,0.0293
3004.00,0.0291
3003.00,0.0290
3002.00,0.0288
3001.00,0.0287
3000.00,0.0286
2999.00,0.0285
2998.00,0.0284
2997.00,0.0283
2996.00,0.0283
2995.00,0.0283
2994.00,0.0282
2993.00,0.0282
2992.00,0.0282
2991.00,0.0283
2990.00,0.0284
2989.00,0.0285
2988.00,0.0286
2987.00,0.0288
2986.00,0.0290
2985.00,0.0292
2984.00,0.0294
2983.00,0.0296
2982.00,0.0299
2981.00,0.0301
2980.00,0.0304
2979.00,0.0307
2978.00,0.0311
2977.00,0.0314
2976.00,0.0318
2975.00,0.0322
2974.00,0.0326
2973.00,0.0331
2972.00,0.0336
2971.00,0.0341
2970.00,0.0346
2969.00,0.0351
2968.00,0.0357
2967.00,0.0363
2966.00,0.0369
2965.00,0.0375
2964.00,0.0381
2963.00,0.0387
2962.00,0.0392
2961.00,0.0397
2960.00,0.0401
2959.00,0.0405
2958.00,0.0409
2957.00,0.0412
2956.00,0.0414
2955.00,0.0415
2954.00,0.0415
2953.00,0.0415
2952.00,0.0414
2951.00,0.0413
2950.00,0.0413
2949.00,0.0413
2948.00,0.0415
2947.00,0.0417
2946.00,0.0421
2945.00,0.0426
2944.00,0.0432
2943.00,0.0439
2942.00,0.0447
2941.00,0.0456
2940.00,0.0465
2939.00,0.0476
2938.00,0.0487
2937.00,0.0499
2936.00,0.0511
2935.00,0.0523
2934.00,0.0535
2933.00,0.0548
2932.00,0.0560
2931.00,0.0572
2930.00,0.0584
2929.00,0.0596
2928.00,0.0607
2927.00,0.0617
2926.00,0.0626
2925.00,0.0633
2924.00,0.0640
2923.00,0.0644
2922.00,0.0647
2921.00,0.0648
2920.00,0.0647
2919.00,0.0645
2918.00,0.0641
2917.00,0.0634
2916.00,0.0622
2915.00,0.0607
2914.00,0.0588
2913.00,0.0568
2912.00,0.0548
2911.00,0.0530
2910.00,0.0514
2909.00,0.0500
2908.00,0.0488
2907.00,0.0478
2906.00,0.0469
2905.00,0.0461
2904.00,0.0454
2903.00,0.0447
2902.00,0.0440
2901.00,0.0434
2900.00,0.0428
2899.00,0.0423
2898.00,0.0417
2897.00,0.0412
2896.00,0.0408
2895.00,0.0403
2894.00,0.0399
2893.00,0.0394
2892.00,0.0390
2891.00,0.0385
2890.00,0.0380
2889.00,0.0376
2888.00,0.0372
2887.00,0.0369
2886.00,0.0365
2885.00,0.0362
2884.00,0.0360
2883.00,0.0357
2882.00,0.0355
2881.00,0.0354
2880.00,0.0354
2879.00,0.0354
2878.00,0.0355
2877.00,0.0357
2876.00,0.0359
2875.00,0.0361
2874.00,0.0363
2873.00,0.0366
2872.00,0.0367
2871.00,0.0369
2870.00,0.0369
2869.00,0.0370
2868.00,0.0370
2867.00,0.0372
2866.00,0.0374
2865.00,0.0377
2864.00,0.0382
2863.00,0.0388
2862.00,0.0397
2861.00,0.0406
2860.00,0.0418
2859.00,0.0430
2858.00,0.0442
2857.00,0.0455
2856.00,0.0468
2855.00,0.0480
2854.00,0.0491
2853.00,0.0499
2852.00,0.0503
2851.00,0.0502
2850.00,0.0494
2849.00,0.0479
2848.00,0.0459
2847.00,0.0436
2846.00,0.0412
2845.00,0.0390
2844.00,0.0369
2843.00,0.0351
2842.00,0.0336
2841.00,0.0323
2840.00,0.0312
2839.00,0.0303
2838.00,0.0295
2837.00,0.0289
2836.00,0.0283
2835.00,0.0278
2834.00,0.0274
2833.00,0.0270
2832.00,0.0266
2831.00,0.0263
2830.00,0.0260
2829.00,0.0258
2828.00,0.0255
2827.00,0.0253
2826.00,0.0251
2825.00,0.0248
2824.00,0.0246
2823.00,0.0244
2822.00,0.0242
2821.00,0.0240
2820.00,0.0238
2819.00,0.0237
2818.00,0.0235
2817.00,0.0234
2816.00,0.0232
2815.00,0.0231
2814.00,0.0229
2813.00,0.0228
2812.00,0.0226
2811.00,0.0225
2810.00,0.0224
2809.00,0.0223
2808.00,0.0222
2807.00,0.0221
2806.00,0.0220
2805.00,0.0219
2804.00,0.0218
2803.00,0.0217
2802.00,0.0216
2801.00,0.0215
2800.00,0.0214
2799.00,0.0213
2798.00,0.0212
2797.00,0.0211
2796.00,0.0210
2795.00,0.0210
2794.00,0.0209
2793.00,0.0208
2792.00,0.0207
2791.00,0.0207
2790.00,0.0206
2789.00,0.0205
2788.00,0.0205
2787.00,0.0204
2786.00,0.0204
2785.00,0.0203
2784.00,0.0203
2783.00,0.0202
2782.00,0.0202
2781.00,0.0201
2780.00,0.0200
2779.00,0.0200
2778.00,0.0199
2777.00,0.0198
2776.00,0.0198
2775.00,0.0197
2774.00,0.0197
2773.00,0.0196
2772.00,0.0196
2771.00,0.0196
2770.00,0.0195
2769.00,0.0195
2768.00,0.0195
2767.00,0.0194
2766.00,0.0194
2765.00,0.0193
2764.00,0.0193
2763.00,0.0192
2762.00,0.0192
2761.00,0.0192
2760.00,0.0191
2759.00,0.0191
2758.00,0.0190
2757.00,0.0190
