Created as New Dataset,Sample 173 By YargerLab Date Friday, October 03 2025
cm-1,A
4000.00,0.0046
3999.00,0.0046
3998.00,0.0046
3997.00,0.0045
3996.00,0.0045
3995.00,0.0046
3994.00,0.0046
3993.00,0.0046
3992.00,0.0046
3991.00,0.0046
3990.00,0.0046
3989.00,0.0046
3988.00,0.0046
3987.00,0.0046
3986.00,0.0046
3985.00,0.0046
3984.00,0.0046
3983.00,0.0046
3982.00,0.0046
3981.00,0.0046
3980.00,0.0046
3979.00,0.0046
3978.00,0.0046
3977.00,0.0046
3976.00,0.0046
3975.00,0.0046
3974.00,0.0046
3973.00,0.0046
3972.00,0.0047
3971.00,0.0047
3970.00,0.0047
3969.00,0.0046
3968.00,0.0046
3967.00,0.0046
3966.00,0.0046
3965.00,0.0046
3964.00,0.0046
3963.00,0.0046
3962.00,0.0046
3961.00,0.0046
3960.00,0.0046
3959.00,0.0046
3958.00,0.0046
3957.00,0.0046
3956.00,0.0046
3955.00,0.0046
3954.00,0.0047
3953.00,0.0047
3952.00,0.0047
3951.00,0.0047
3950.00,0.0047
3949.00,0.0047
3948.00,0.0047
3947.00,0.0047
3946.00,0.0047
3945.00,0.0047
3944.00,0.0047
3943.00,0.0047
3942.00,0.0047
3941.00,0.0047
3940.00,0.0047
3939.00,0.0047
3938.00,0.0046
3937.00,0.0046
3936.00,0.0046
3935.00,0.0046
3934.00,0.0047
3933.00,0.0047
3932.00,0.0047
3931.00,0.0047
3930.00,0.0047
3929.00,0.0048
3928.00,0.0048
3927.00,0.0048
3926.00,0.0047
3925.00,0.0047
3924.00,0.0047
3923.00,0.0048
3922.00,0.0048
3921.00,0.0048
3920.00,0.0047
3919.00,0.0047
3918.00,0.0047
3917.00,0.0047
3916.00,0.0047
3915.00,0.0047
3914.00,0.0047
3913.00,0.0046
3912.00,0.0046
3911.00,0.0046
3910.00,0.0047
3909.00,0.0047
3908.00,0.0048
3907.00,0.0049
3906.00,0.0049
3905.00,0.0050
3904.00,0.0050
3903.00,0.0051
3902.00,0.0051
3901.00,0.0051
3900.00,0.0050
3899.00,0.0049
3898.00,0.0049
3897.00,0.0049
3896.00,0.0048
3895.00,0.0048
3894.00,0.0048
3893.00,0.0048
3892.00,0.0047
3891.00,0.0048
3890.00,0.0048
3889.00,0.0049
3888.00,0.0049
3887.00,0.0049
3886.00,0.0048
3885.00,0.0048
3884.00,0.0049
3883.00,0.0050
3882.00,0.0049
3881.00,0.0049
3880.00,0.0048
3879.00,0.0048
3878.00,0.0049
3877.00,0.0048
3876.00,0.0048
3875.00,0.0048
3874.00,0.0049
3873.00,0.0050
3872.00,0.0051
3871.00,0.0051
3870.00,0.0050
3869.00,0.0051
3868.00,0.0051
3867.00,0.0051
3866.00,0.0051
3865.00,0.0050
3864.00,0.0049
3863.00,0.0049
3862.00,0.0048
3861.00,0.0048
3860.00,0.0048
3859.00,0.0048
3858.00,0.0049
3857.00,0.0051
3856.00,0.0053
3855.00,0.0053
3854.00,0.0053
3853.00,0.0052
3852.00,0.0052
3851.00,0.0052
3850.00,0.0051
3849.00,0.0049
3848.00,0.0047
3847.00,0.0047
3846.00,0.0047
3845.00,0.0047
3844.00,0.0047
3843.00,0.0048
3842.00,0.0049
3841.00,0.0050
3840.00,0.0051
3839.00,0.0051
3838.00,0.0051
3837.00,0.0051
3836.00,0.0051
3835.00,0.0050
3834.00,0.0050
3833.00,0.0049
3832.00,0.0048
3831.00,0.0047
3830.00,0.0047
3829.00,0.0047
3828.00,0.0047
3827.00,0.0047
3826.00,0.0047
3825.00,0.0048
3824.00,0.0049
3823.00,0.0050
3822.00,0.0049
3821.00,0.0049
3820.00,0.0049
3819.00,0.0050
3818.00,0.0050
3817.00,0.0049
3816.00,0.0048
3815.00,0.0047
3814.00,0.0048
3813.00,0.0047
3812.00,0.0047
3811.00,0.0047
3810.00,0.0047
3809.00,0.0047
3808.00,0.0047
3807.00,0.0047
3806.00,0.0048
3805.00,0.0049
3804.00,0.0050
3803.00,0.0050
3802.00,0.0049
3801.00,0.0049
3800.00,0.0049
3799.00,0.0049
3798.00,0.0048
3797.00,0.0047
3796.00,0.0046
3795.00,0.0045
3794.00,0.0045
3793.00,0.0045
3792.00,0.0044
3791.00,0.0044
3790.00,0.0044
3789.00,0.0044
3788.00,0.0044
3787.00,0.0044
3786.00,0.0045
3785.00,0.0045
3784.00,0.0045
3783.00,0.0046
3782.00,0.0047
3781.00,0.0047
3780.00,0.0046
3779.00,0.0046
3778.00,0.0046
3777.00,0.0046
3776.00,0.0046
3775.00,0.0046
3774.00,0.0046
3773.00,0.0046
3772.00,0.0046
3771.00,0.0046
3770.00,0.0046
3769.00,0.0046
3768.00,0.0046
3767.00,0.0046
3766.00,0.0046
3765.00,0.0046
3764.00,0.0046
3763.00,0.0047
3762.00,0.0047
3761.00,0.0047
3760.00,0.0047
3759.00,0.0047
3758.00,0.0047
3757.00,0.0048
3756.00,0.0048
3755.00,0.0049
3754.00,0.0050
3753.00,0.0051
3752.00,0.0051
3751.00,0.0052
3750.00,0.0052
3749.00,0.0053
3748.00,0.0054
3747.00,0.0054
3746.00,0.0053
3745.00,0.0051
3744.00,0.0050
3743.00,0.0050
3742.00,0.0051
3741.00,0.0050
3740.00,0.0049
3739.00,0.0049
3738.00,0.0050
3737.00,0.0050
3736.00,0.0051
3735.00,0.0051
3734.00,0.0051
3733.00,0.0051
3732.00,0.0049
3731.00,0.0048
3730.00,0.0047
3729.00,0.0046
3728.00,0.0046
3727.00,0.0046
3726.00,0.0046
3725.00,0.0047
3724.00,0.0047
3723.00,0.0047
3722.00,0.0047
3721.00,0.0046
3720.00,0.0046
3719.00,0.0045
3718.00,0.0044
3717.00,0.0044
3716.00,0.0045
3715.00,0.0046
3714.00,0.0047
3713.00,0.0047
3712.00,0.0048
3711.00,0.0048
3710.00,0.0047
3709.00,0.0047
3708.00,0.0046
3707.00,0.0045
3706.00,0.0044
3705.00,0.0044
3704.00,0.0044
3703.00,0.0044
3702.00,0.0043
3701.00,0.0043
3700.00,0.0043
3699.00,0.0043
3698.00,0.0043
3697.00,0.0043
3696.00,0.0043
3695.00,0.0044
3694.00,0.0045
3693.00,0.0046
3692.00,0.0047
3691.00,0.0047
3690.00,0.0047
3689.00,0.0047
3688.00,0.0047
3687.00,0.0047
3686.00,0.0047
3685.00,0.0046
3684.00,0.0045
3683.00,0.0045
3682.00,0.0045
3681.00,0.0045
3680.00,0.0046
3679.00,0.0048
3678.00,0.0049
3677.00,0.0050
3676.00,0.0049
3675.00,0.0049
3674.00,0.0051
3673.00,0.0051
3672.00,0.0051
3671.00,0.0050
3670.00,0.0049
3669.00,0.0048
3668.00,0.0048
3667.00,0.0047
3666.00,0.0047
3665.00,0.0046
3664.00,0.0045
3663.00,0.0045
3662.00,0.0046
3661.00,0.0046
3660.00,0.0047
3659.00,0.0048
3658.00,0.0049
3657.00,0.0049
3656.00,0.0050
3655.00,0.0051
3654.00,0.0053
3653.00,0.0055
3652.00,0.0056
3651.00,0.0057
3650.00,0.0056
3649.00,0.0056
3648.00,0.0056
3647.00,0.0055
3646.00,0.0055
3645.00,0.0053
3644.00,0.0052
3643.00,0.0052
3642.00,0.0052
3641.00,0.0052
3640.00,0.0052
3639.00,0.0052
3638.00,0.0052
3637.00,0.0052
3636.00,0.0053
3635.00,0.0053
3634.00,0.0055
3633.00,0.0056
3632.00,0.0058
3631.00,0.0060
3630.00,0.0060
3629.00,0.0060
3628.00,0.0059
3627.00,0.0059
3626.00,0.0058
3625.00,0.0058
3624.00,0.0058
3623.00,0.0059
3622.00,0.0060
3621.00,0.0061
3620.00,0.0062
3619.00,0.0062
3618.00,0.0062
3617.00,0.0062
3616.00,0.0063
3615.00,0.0063
3614.00,0.0063
3613.00,0.0063
3612.00,0.0064
3611.00,0.0064
3610.00,0.0065
3609.00,0.0064
3608.00,0.0064
3607.00,0.0064
3606.00,0.0064
3605.00,0.0064
3604.00,0.0064
3603.00,0.0065
3602.00,0.0065
3601.00,0.0065
3600.00,0.0066
3599.00,0.0066
3598.00,0.0067
3597.00,0.0068
3596.00,0.0068
3595.00,0.0069
3594.00,0.0069
3593.00,0.0069
3592.00,0.0070
3591.00,0.0071
3590.00,0.0072
3589.00,0.0073
3588.00,0.0073
3587.00,0.0073
3586.00,0.0073
3585.00,0.0073
3584.00,0.0073
3583.00,0.0072
3582.00,0.0072
3581.00,0.0073
3580.00,0.0073
3579.00,0.0073
3578.00,0.0074
3577.00,0.0074
3576.00,0.0075
3575.00,0.0075
3574.00,0.0076
3573.00,0.0077
3572.00,0.0078
3571.00,0.0080
3570.00,0.0082
3569.00,0.0084
3568.00,0.0084
3567.00,0.0084
3566.00,0.0083
3565.00,0.0083
3564.00,0.0083
3563.00,0.0082
3562.00,0.0082
3561.00,0.0082
3560.00,0.0083
3559.00,0.0083
3558.00,0.0083
3557.00,0.0084
3556.00,0.0085
3555.00,0.0086
3554.00,0.0087
3553.00,0.0087
3552.00,0.0088
3551.00,0.0088
3550.00,0.0089
3549.00,0.0090
3548.00,0.0091
3547.00,0.0091
3546.00,0.0092
3545.00,0.0092
3544.00,0.0092
3543.00,0.0092
3542.00,0.0092
3541.00,0.0093
3540.00,0.0093
3539.00,0.0094
3538.00,0.0094
3537.00,0.0095
3536.00,0.0095
3535.00,0.0096
3534.00,0.0096
3533.00,0.0096
3532.00,0.0097
3531.00,0.0098
3530.00,0.0098
3529.00,0.0099
3528.00,0.0100
3527.00,0.0100
3526.00,0.0101
3525.00,0.0101
3524.00,0.0102
3523.00,0.0102
3522.00,0.0102
3521.00,0.0102
3520.00,0.0103
3519.00,0.0103
3518.00,0.0104
3517.00,0.0104
3516.00,0.0105
3515.00,0.0105
3514.00,0.0106
3513.00,0.0107
3512.00,0.0107
3511.00,0.0108
3510.00,0.0108
3509.00,0.0108
3508.00,0.0109
3507.00,0.0109
3506.00,0.0110
3505.00,0.0110
3504.00,0.0111
3503.00,0.0111
3502.00,0.0112
3501.00,0.0112
3500.00,0.0112
3499.00,0.0112
3498.00,0.0112
3497.00,0.0113
3496.00,0.0113
3495.00,0.0114
3494.00,0.0115
3493.00,0.0115
3492.00,0.0116
3491.00,0.0116
3490.00,0.0117
3489.00,0.0118
3488.00,0.0118
3487.00,0.0118
3486.00,0.0119
3485.00,0.0119
3484.00,0.0120
3483.00,0.0121
3482.00,0.0121
3481.00,0.0122
3480.00,0.0122
3479.00,0.0122
3478.00,0.0123
3477.00,0.0123
3476.00,0.0123
3475.00,0.0124
3474.00,0.0124
3473.00,0.0125
3472.00,0.0125
3471.00,0.0126
3470.00,0.0127
3469.00,0.0127
3468.00,0.0127
3467.00,0.0127
3466.00,0.0128
3465.00,0.0128
3464.00,0.0129
3463.00,0.0130
3462.00,0.0130
3461.00,0.0131
3460.00,0.0131
3459.00,0.0131
3458.00,0.0132
3457.00,0.0132
3456.00,0.0132
3455.00,0.0133
3454.00,0.0133
3453.00,0.0134
3452.00,0.0134
3451.00,0.0135
3450.00,0.0136
3449.00,0.0137
3448.00,0.0137
3447.00,0.0137
3446.00,0.0137
3445.00,0.0138
3444.00,0.0138
3443.00,0.0138
3442.00,0.0139
3441.00,0.0139
3440.00,0.0139
3439.00,0.0140
3438.00,0.0141
3437.00,0.0142
3436.00,0.0142
3435.00,0.0143
3434.00,0.0143
3433.00,0.0144
3432.00,0.0144
3431.00,0.0145
3430.00,0.0145
3429.00,0.0145
3428.00,0.0146
3427.00,0.0146
3426.00,0.0147
3425.00,0.0148
3424.00,0.0148
3423.00,0.0149
3422.00,0.0150
3421.00,0.0150
3420.00,0.0150
3419.00,0.0150
3418.00,0.0151
3417.00,0.0151
3416.00,0.0152
3415.00,0.0152
3414.00,0.0153
3413.00,0.0154
3412.00,0.0154
3411.00,0.0155
3410.00,0.0156
3409.00,0.0156
3408.00,0.0157
3407.00,0.0157
3406.00,0.0158
3405.00,0.0158
3404.00,0.0159
3403.00,0.0160
3402.00,0.0160
3401.00,0.0161
3400.00,0.0161
3399.00,0.0162
3398.00,0.0162
3397.00,0.0163
3396.00,0.0163
3395.00,0.0164
3394.00,0.0165
3393.00,0.0165
3392.00,0.0165
3391.00,0.0165
3390.00,0.0166
3389.00,0.0166
3388.00,0.0167
3387.00,0.0167
3386.00,0.0168
3385.00,0.0169
3384.00,0.0169
3383.00,0.0170
3382.00,0.0171
3381.00,0.0171
3380.00,0.0172
3379.00,0.0173
3378.00,0.0174
3377.00,0.0174
3376.00,0.0175
3375.00,0.0175
3374.00,0.0176
3373.00,0.0177
3372.00,0.0178
3371.00,0.0179
3370.00,0.0180
3369.00,0.0181
3368.00,0.0181
3367.00,0.0182
3366.00,0.0182
3365.00,0.0183
3364.00,0.0183
3363.00,0.0184
3362.00,0.0185
3361.00,0.0186
3360.00,0.0187
3359.00,0.0188
3358.00,0.0189
3357.00,0.0189
3356.00,0.0190
3355.00,0.0191
3354.00,0.0192
3353.00,0.0193
3352.00,0.0194
3351.00,0.0194
3350.00,0.0195
3349.00,0.0196
3348.00,0.0197
3347.00,0.0198
3346.00,0.0198
3345.00,0.0199
3344.00,0.0200
3343.00,0.0201
3342.00,0.0202
3341.00,0.0203
3340.00,0.0203
3339.00,0.0204
3338.00,0.0205
3337.00,0.0206
3336.00,0.0207
3335.00,0.0208
3334.00,0.0208
3333.00,0.0209
3332.00,0.0210
3331.00,0.0212
3330.00,0.0213
3329.00,0.0214
3328.00,0.0215
3327.00,0.0216
3326.00,0.0216
3325.00,0.0217
3324.00,0.0218
3323.00,0.0218
3322.00,0.0219
3321.00,0.0220
3320.00,0.0221
3319.00,0.0222
3318.00,0.0223
3317.00,0.0224
3316.00,0.0225
3315.00,0.0226
3314.00,0.0227
3313.00,0.0228
3312.00,0.0229
3311.00,0.0230
3310.00,0.0231
3309.00,0.0232
3308.00,0.0233
3307.00,0.0234
3306.00,0.0235
3305.00,0.0235
3304.00,0.0236
3303.00,0.0237
3302.00,0.0237
3301.00,0.0238
3300.00,0.0239
3299.00,0.0240
3298.00,0.0240
3297.00,0.0241
3296.00,0.0242
3295.00,0.0243
3294.00,0.0243
3293.00,0.0244
3292.00,0.0244
3291.00,0.0244
3290.00,0.0245
3289.00,0.0245
3288.00,0.0245
3287.00,0.0246
3286.00,0.0246
3285.00,0.0247
3284.00,0.0247
3283.00,0.0247
3282.00,0.0247
3281.00,0.0247
3280.00,0.0247
3279.00,0.0247
3278.00,0.0247
3277.00,0.0247
3276.00,0.0247
3275.00,0.0246
3274.00,0.0246
3273.00,0.0245
3272.00,0.0245
3271.00,0.0244
3270.00,0.0244
3269.00,0.0243
3268.00,0.0242
3267.00,0.0241
3266.00,0.0241
3265.00,0.0240
3264.00,0.0239
3263.00,0.0238
3262.00,0.0237
3261.00,0.0236
3260.00,0.0235
3259.00,0.0234
3258.00,0.0233
3257.00,0.0232
3256.00,0.0231
3255.00,0.0230
3254.00,0.0229
3253.00,0.0228
3252.00,0.0227
3251.00,0.0226
3250.00,0.0225
3249.00,0.0224
3248.00,0.0223
3247.00,0.0222
3246.00,0.0221
3245.00,0.0220
3244.00,0.0219
3243.00,0.0218
3242.00,0.0217
3241.00,0.0216
3240.00,0.0215
3239.00,0.0215
3238.00,0.0214
3237.00,0.0213
3236.00,0.0212
3235.00,0.0211
3234.00,0.0211
3233.00,0.0210
3232.00,0.0209
3231.00,0.0209
3230.00,0.0208
3229.00,0.0207
3228.00,0.0207
3227.00,0.0206
3226.00,0.0206
3225.00,0.0206
3224.00,0.0205
3223.00,0.0205
3222.00,0.0205
3221.00,0.0205
3220.00,0.0204
3219.00,0.0204
3218.00,0.0203
3217.00,0.0202
3216.00,0.0202
3215.00,0.0201
3214.00,0.0200
3213.00,0.0200
3212.00,0.0200
3211.00,0.0199
3210.00,0.0199
3209.00,0.0199
3208.00,0.0199
3207.00,0.0198
3206.00,0.0198
3205.00,0.0197
3204.00,0.0196
3203.00,0.0196
3202.00,0.0196
3201.00,0.0196
3200.00,0.0195
3199.00,0.0195
3198.00,0.0194
3197.00,0.0193
3196.00,0.0193
3195.00,0.0192
3194.00,0.0192
3193.00,0.0191
3192.00,0.0191
3191.00,0.0191
3190.00,0.0191
3189.00,0.0190
3188.00,0.0190
3187.00,0.0189
3186.00,0.0188
3185.00,0.0188
3184.00,0.0187
3183.00,0.0186
3182.00,0.0185
3181.00,0.0185
3180.00,0.0184
3179.00,0.0184
3178.00,0.0183
3177.00,0.0183
3176.00,0.0182
3175.00,0.0181
3174.00,0.0181
3173.00,0.0180
3172.00,0.0180
3171.00,0.0179
3170.00,0.0178
3169.00,0.0178
3168.00,0.0177
3167.00,0.0177
3166.00,0.0176
3165.00,0.0176
3164.00,0.0175
3163.00,0.0174
3162.00,0.0173
3161.00,0.0173
3160.00,0.0172
3159.00,0.0172
3158.00,0.0171
3157.00,0.0171
3156.00,0.0171
3155.00,0.0170
3154.00,0.0170
3153.00,0.0170
3152.00,0.0169
3151.00,0.0168
3150.00,0.0168
3149.00,0.0167
3148.00,0.0166
3147.00,0.0166
3146.00,0.0165
3145.00,0.0165
3144.00,0.0164
3143.00,0.0163
3142.00,0.0163
3141.00,0.0162
3140.00,0.0162
3139.00,0.0161
3138.00,0.0160
3137.00,0.0160
3136.00,0.0159
3135.00,0.0159
3134.00,0.0159
3133.00,0.0159
3132.00,0.0158
3131.00,0.0158
3130.00,0.0158
3129.00,0.0158
3128.00,0.0157
3127.00,0.0157
3126.00,0.0157
3125.00,0.0156
3124.00,0.0156
3123.00,0.0155
3122.00,0.0155
3121.00,0.0155
3120.00,0.0154
3119.00,0.0154
3118.00,0.0154
3117.00,0.0154
3116.00,0.0154
3115.00,0.0153
3114.00,0.0153
3113.00,0.0153
3112.00,0.0153
3111.00,0.0153
3110.00,0.0152
3109.00,0.0152
3108.00,0.0152
3107.00,0.0152
3106.00,0.0152
3105.00,0.0152
3104.00,0.0152
3103.00,0.0152
3102.00,0.0152
3101.00,0.0152
3100.00,0.0151
3099.00,0.0151
3098.00,0.0151
3097.00,0.0151
3096.00,0.0151
3095.00,0.0151
3094.00,0.0152
3093.00,0.0152
3092.00,0.0152
3091.00,0.0152
3090.00,0.0153
3089.00,0.0152
3088.00,0.0152
3087.00,0.0152
3086.00,0.0152
3085.00,0.0152
3084.00,0.0152
3083.00,0.0152
3082.00,0.0153
3081.00,0.0153
3080.00,0.0153
3079.00,0.0153
3078.00,0.0153
3077.00,0.0153
3076.00,0.0153
3075.00,0.0153
3074.00,0.0153
3073.00,0.0153
3072.00,0.0153
3071.00,0.0153
3070.00,0.0153
3069.00,0.0153
3068.00,0.0153
3067.00,0.0153
3066.00,0.0153
3065.00,0.0153
3064.00,0.0153
3063.00,0.0152
3062.00,0.0152
3061.00,0.0152
3060.00,0.0152
3059.00,0.0152
3058.00,0.0152
3057.00,0.0152
3056.00,0.0151
3055.00,0.0151
3054.00,0.0151
3053.00,0.0150
3052.00,0.0150
3051.00,0.0150
3050.00,0.0149
3049.00,0.0149
3048.00,0.0148
3047.00,0.0148
3046.00,0.0148
3045.00,0.0147
3044.00,0.0147
3043.00,0.0147
3042.00,0.0146
3041.00,0.0146
3040.00,0.0145
3039.00,0.0145
3038.00,0.0144
3037.00,0.0144
3036.00,0.0144
3035.00,0.0143
3034.00,0.0143
3033.00,0.0142
3032.00,0.0142
3031.00,0.0141
3030.00,0.0141
3029.00,0.0140
3028.00,0.0140
3027.00,0.0140
3026.00,0.0139
3025.00,0.0138
3024.00,0.0138
3023.00,0.0138
3022.00,0.0138
3021.00,0.0137
3020.00,0.0137
3019.00,0.0136
3018.00,0.0136
3017.00,0.0136
3016.00,0.0135
3015.00,0.0135
3014.00,0.0135
3013.00,0.0134
3012.00,0.0134
3011.00,0.0133
3010.00,0.0133
3009.00,0.0132
3008.00,0.0132
3007.00,0.0132
3006.00,0.0132
3005.00,0.0132
3004.00,0.0132
3003.00,0.0131
3002.00,0.0131
3001.00,0.0131
3000.00,0.0131
2999.00,0.0131
2998.00,0.0132
2997.00,0.0132
2996.00,0.0132
2995.00,0.0133
2994.00,0.0133
2993.00,0.0133
2992.00,0.0134
2991.00,0.0135
2990.00,0.0135
2989.00,0.0136
2988.00,0.0137
2987.00,0.0137
2986.00,0.0138
2985.00,0.0139
2984.00,0.0141
2983.00,0.0142
2982.00,0.0143
2981.00,0.0144
2980.00,0.0145
2979.00,0.0147
2978.00,0.0148
2977.00,0.0149
2976.00,0.0151
2975.00,0.0152
2974.00,0.0153
2973.00,0.0154
2972.00,0.0156
2971.00,0.0158
2970.00,0.0159
2969.00,0.0161
2968.00,0.0162
2967.00,0.0163
2966.00,0.0165
2965.00,0.0166
2964.00,0.0168
2963.00,0.0169
2962.00,0.0170
2961.00,0.0171
2960.00,0.0171
2959.00,0.0171
2958.00,0.0171
2957.00,0.0171
2956.00,0.0171
2955.00,0.0170
2954.00,0.0169
2953.00,0.0168
2952.00,0.0168
2951.00,0.0167
2950.00,0.0167
2949.00,0.0167
2948.00,0.0167
2947.00,0.0167
2946.00,0.0167
2945.00,0.0167
2944.00,0.0168
2943.00,0.0169
2942.00,0.0171
2941.00,0.0172
2940.00,0.0174
2939.00,0.0175
2938.00,0.0177
2937.00,0.0179
2936.00,0.0180
2935.00,0.0182
2934.00,0.0183
2933.00,0.0185
2932.00,0.0186
2931.00,0.0187
2930.00,0.0188
2929.00,0.0189
2928.00,0.0190
2927.00,0.0190
2926.00,0.0191
2925.00,0.0191
2924.00,0.0191
2923.00,0.0191
2922.00,0.0190
2921.00,0.0190
2920.00,0.0189
2919.00,0.0188
2918.00,0.0187
2917.00,0.0185
2916.00,0.0182
2915.00,0.0180
2914.00,0.0177
2913.00,0.0174
2912.00,0.0172
2911.00,0.0169
2910.00,0.0167
2909.00,0.0165
2908.00,0.0163
2907.00,0.0161
2906.00,0.0160
2905.00,0.0158
2904.00,0.0157
2903.00,0.0156
2902.00,0.0154
2901.00,0.0153
2900.00,0.0152
2899.00,0.0151
2898.00,0.0150
2897.00,0.0149
2896.00,0.0149
2895.00,0.0148
2894.00,0.0147
2893.00,0.0146
2892.00,0.0145
2891.00,0.0144
2890.00,0.0144
2889.00,0.0143
2888.00,0.0143
2887.00,0.0142
2886.00,0.0142
2885.00,0.0142
2884.00,0.0142
2883.00,0.0142
2882.00,0.0143
2881.00,0.0143
2880.00,0.0144
2879.00,0.0144
2878.00,0.0145
2877.00,0.0145
2876.00,0.0145
2875.00,0.0146
2874.00,0.0146
2873.00,0.0146
2872.00,0.0146
2871.00,0.0146
2870.00,0.0145
2869.00,0.0145
2868.00,0.0144
2867.00,0.0143
2866.00,0.0143
2865.00,0.0142
2864.00,0.0142
2863.00,0.0142
2862.00,0.0141
2861.00,0.0142
2860.00,0.0142
2859.00,0.0142
2858.00,0.0143
2857.00,0.0143
2856.00,0.0143
2855.00,0.0144
2854.00,0.0144
2853.00,0.0144
2852.00,0.0144
2851.00,0.0143
2850.00,0.0142
2849.00,0.0141
2848.00,0.0138
2847.00,0.0136
2846.00,0.0133
2845.00,0.0131
2844.00,0.0128
2843.00,0.0126
2842.00,0.0125
2841.00,0.0123
2840.00,0.0122
2839.00,0.0121
2838.00,0.0120
2837.00,0.0119
2836.00,0.0118
2835.00,0.0117
2834.00,0.0117
2833.00,0.0116
2832.00,0.0116
2831.00,0.0116
2830.00,0.0115
2829.00,0.0115
2828.00,0.0115
2827.00,0.0114
2826.00,0.0114
2825.00,0.0113
2824.00,0.0113
2823.00,0.0113
2822.00,0.0113
2821.00,0.0113
2820.00,0.0112
2819.00,0.0112
2818.00,0.0112
2817.00,0.0111
2816.00,0.0111
2815.00,0.0111
2814.00,0.0111
2813.00,0.0111
2812.00,0.0110
2811.00,0.0110
2810.00,0.0109
2809.00,0.0109
2808.00,0.0109
2807.00,0.0109
2806.00,0.0109
2805.00,0.0109
2804.00,0.0108
2803.00,0.0108
2802.00,0.0108
2801.00,0.0108
2800.00,0.0108
2799.00,0.0107
2798.00,0.0107
2797.00,0.0107
2796.00,0.0107
2795.00,0.0106
2794.00,0.0106
2793.00,0.0106
2792.00,0.0106
2791.00,0.0106
2790.00,0.0106
2789.00,0.0105
2788.00,0.0105
2787.00,0.0105
2786.00,0.0104
2785.00,0.0104
2784.00,0.0104
2783.00,0.0104
2782.00,0.0104
2781.00,0.0103
2780.00,0.0103
2779.00,0.0103
2778.00,0.0103
2777.00,0.0103
2776.00,0.0102
2775.00,0.0102
2774.00,0.0102
2773.00,0.0102
2772.00,0.0102
2771.00,0.0101
2770.00,0.0101
2769.00,0.0101
2768.00,0.0101
2767.00,0.0100
2766.00,0.0100
2765.00,0.0100
2764.00,0.0100
2763.00,0.0099
2762.00,0.0099
2761.00,0.0099
2760.00,0.0099
2759.00,0.0099
2758.00,0.0098
2757.00,0.0098
