Created as New Dataset,Sample 390 By YargerLab Date Tuesday, December 02 2025
cm-1,A
4000.00,0.0096
3999.00,0.0096
3998.00,0.0096
3997.00,0.0096
3996.00,0.0096
3995.00,0.0096
3994.00,0.0096
3993.00,0.0096
3992.00,0.0097
3991.00,0.0097
3990.00,0.0097
3989.00,0.0097
3988.00,0.0097
3987.00,0.0097
3986.00,0.0097
3985.00,0.0097
3984.00,0.0097
3983.00,0.0097
3982.00,0.0097
3981.00,0.0097
3980.00,0.0097
3979.00,0.0096
3978.00,0.0096
3977.00,0.0096
3976.00,0.0097
3975.00,0.0097
3974.00,0.0097
3973.00,0.0097
3972.00,0.0096
3971.00,0.0096
3970.00,0.0096
3969.00,0.0097
3968.00,0.0097
3967.00,0.0097
3966.00,0.0097
3965.00,0.0097
3964.00,0.0097
3963.00,0.0097
3962.00,0.0097
3961.00,0.0097
3960.00,0.0097
3959.00,0.0097
3958.00,0.0096
3957.00,0.0096
3956.00,0.0096
3955.00,0.0096
3954.00,0.0096
3953.00,0.0096
3952.00,0.0096
3951.00,0.0096
3950.00,0.0096
3949.00,0.0096
3948.00,0.0097
3947.00,0.0097
3946.00,0.0097
3945.00,0.0097
3944.00,0.0097
3943.00,0.0097
3942.00,0.0097
3941.00,0.0096
3940.00,0.0096
3939.00,0.0096
3938.00,0.0096
3937.00,0.0096
3936.00,0.0096
3935.00,0.0096
3934.00,0.0096
3933.00,0.0096
3932.00,0.0096
3931.00,0.0096
3930.00,0.0096
3929.00,0.0097
3928.00,0.0097
3927.00,0.0096
3926.00,0.0096
3925.00,0.0096
3924.00,0.0096
3923.00,0.0096
3922.00,0.0096
3921.00,0.0096
3920.00,0.0096
3919.00,0.0096
3918.00,0.0096
3917.00,0.0096
3916.00,0.0096
3915.00,0.0096
3914.00,0.0096
3913.00,0.0096
3912.00,0.0096
3911.00,0.0096
3910.00,0.0096
3909.00,0.0096
3908.00,0.0095
3907.00,0.0095
3906.00,0.0095
3905.00,0.0095
3904.00,0.0095
3903.00,0.0095
3902.00,0.0096
3901.00,0.0096
3900.00,0.0096
3899.00,0.0096
3898.00,0.0096
3897.00,0.0095
3896.00,0.0095
3895.00,0.0094
3894.00,0.0094
3893.00,0.0095
3892.00,0.0095
3891.00,0.0095
3890.00,0.0095
3889.00,0.0095
3888.00,0.0095
3887.00,0.0095
3886.00,0.0095
3885.00,0.0095
3884.00,0.0095
3883.00,0.0095
3882.00,0.0095
3881.00,0.0095
3880.00,0.0096
3879.00,0.0096
3878.00,0.0096
3877.00,0.0095
3876.00,0.0095
3875.00,0.0095
3874.00,0.0096
3873.00,0.0096
3872.00,0.0096
3871.00,0.0095
3870.00,0.0095
3869.00,0.0095
3868.00,0.0095
3867.00,0.0095
3866.00,0.0095
3865.00,0.0096
3864.00,0.0096
3863.00,0.0096
3862.00,0.0096
3861.00,0.0095
3860.00,0.0095
3859.00,0.0095
3858.00,0.0095
3857.00,0.0095
3856.00,0.0095
3855.00,0.0094
3854.00,0.0094
3853.00,0.0094
3852.00,0.0094
3851.00,0.0094
3850.00,0.0094
3849.00,0.0094
3848.00,0.0094
3847.00,0.0094
3846.00,0.0094
3845.00,0.0094
3844.00,0.0094
3843.00,0.0094
3842.00,0.0094
3841.00,0.0094
3840.00,0.0094
3839.00,0.0094
3838.00,0.0094
3837.00,0.0094
3836.00,0.0094
3835.00,0.0095
3834.00,0.0095
3833.00,0.0095
3832.00,0.0095
3831.00,0.0095
3830.00,0.0095
3829.00,0.0094
3828.00,0.0094
3827.00,0.0094
3826.00,0.0094
3825.00,0.0095
3824.00,0.0094
3823.00,0.0094
3822.00,0.0094
3821.00,0.0094
3820.00,0.0094
3819.00,0.0094
3818.00,0.0094
3817.00,0.0094
3816.00,0.0094
3815.00,0.0094
3814.00,0.0094
3813.00,0.0094
3812.00,0.0094
3811.00,0.0094
3810.00,0.0094
3809.00,0.0094
3808.00,0.0094
3807.00,0.0094
3806.00,0.0094
3805.00,0.0094
3804.00,0.0094
3803.00,0.0094
3802.00,0.0094
3801.00,0.0095
3800.00,0.0095
3799.00,0.0095
3798.00,0.0095
3797.00,0.0094
3796.00,0.0094
3795.00,0.0094
3794.00,0.0094
3793.00,0.0094
3792.00,0.0094
3791.00,0.0094
3790.00,0.0095
3789.00,0.0095
3788.00,0.0095
3787.00,0.0094
3786.00,0.0094
3785.00,0.0094
3784.00,0.0094
3783.00,0.0094
3782.00,0.0094
3781.00,0.0094
3780.00,0.0094
3779.00,0.0095
3778.00,0.0095
3777.00,0.0095
3776.00,0.0095
3775.00,0.0094
3774.00,0.0094
3773.00,0.0094
3772.00,0.0094
3771.00,0.0094
3770.00,0.0094
3769.00,0.0093
3768.00,0.0094
3767.00,0.0094
3766.00,0.0094
3765.00,0.0094
3764.00,0.0094
3763.00,0.0094
3762.00,0.0093
3761.00,0.0093
3760.00,0.0093
3759.00,0.0094
3758.00,0.0093
3757.00,0.0093
3756.00,0.0093
3755.00,0.0093
3754.00,0.0093
3753.00,0.0093
3752.00,0.0093
3751.00,0.0093
3750.00,0.0093
3749.00,0.0092
3748.00,0.0092
3747.00,0.0092
3746.00,0.0093
3745.00,0.0093
3744.00,0.0093
3743.00,0.0092
3742.00,0.0092
3741.00,0.0092
3740.00,0.0092
3739.00,0.0092
3738.00,0.0092
3737.00,0.0091
3736.00,0.0091
3735.00,0.0092
3734.00,0.0092
3733.00,0.0092
3732.00,0.0092
3731.00,0.0092
3730.00,0.0092
3729.00,0.0092
3728.00,0.0092
3727.00,0.0092
3726.00,0.0092
3725.00,0.0092
3724.00,0.0092
3723.00,0.0092
3722.00,0.0092
3721.00,0.0092
3720.00,0.0092
3719.00,0.0092
3718.00,0.0092
3717.00,0.0092
3716.00,0.0092
3715.00,0.0092
3714.00,0.0091
3713.00,0.0091
3712.00,0.0091
3711.00,0.0091
3710.00,0.0091
3709.00,0.0090
3708.00,0.0090
3707.00,0.0090
3706.00,0.0090
3705.00,0.0091
3704.00,0.0091
3703.00,0.0091
3702.00,0.0091
3701.00,0.0091
3700.00,0.0091
3699.00,0.0091
3698.00,0.0091
3697.00,0.0091
3696.00,0.0091
3695.00,0.0091
3694.00,0.0090
3693.00,0.0090
3692.00,0.0090
3691.00,0.0090
3690.00,0.0090
3689.00,0.0090
3688.00,0.0090
3687.00,0.0090
3686.00,0.0090
3685.00,0.0090
3684.00,0.0090
3683.00,0.0091
3682.00,0.0091
3681.00,0.0091
3680.00,0.0091
3679.00,0.0091
3678.00,0.0091
3677.00,0.0091
3676.00,0.0091
3675.00,0.0091
3674.00,0.0092
3673.00,0.0091
3672.00,0.0091
3671.00,0.0091
3670.00,0.0092
3669.00,0.0092
3668.00,0.0092
3667.00,0.0092
3666.00,0.0092
3665.00,0.0092
3664.00,0.0092
3663.00,0.0092
3662.00,0.0092
3661.00,0.0092
3660.00,0.0093
3659.00,0.0093
3658.00,0.0093
3657.00,0.0093
3656.00,0.0093
3655.00,0.0093
3654.00,0.0093
3653.00,0.0093
3652.00,0.0093
3651.00,0.0093
3650.00,0.0093
3649.00,0.0094
3648.00,0.0094
3647.00,0.0094
3646.00,0.0094
3645.00,0.0094
3644.00,0.0094
3643.00,0.0095
3642.00,0.0095
3641.00,0.0096
3640.00,0.0096
3639.00,0.0096
3638.00,0.0096
3637.00,0.0096
3636.00,0.0096
3635.00,0.0096
3634.00,0.0096
3633.00,0.0097
3632.00,0.0097
3631.00,0.0097
3630.00,0.0097
3629.00,0.0097
3628.00,0.0098
3627.00,0.0098
3626.00,0.0098
3625.00,0.0098
3624.00,0.0099
3623.00,0.0099
3622.00,0.0100
3621.00,0.0100
3620.00,0.0101
3619.00,0.0101
3618.00,0.0102
3617.00,0.0102
3616.00,0.0102
3615.00,0.0102
3614.00,0.0103
3613.00,0.0103
3612.00,0.0103
3611.00,0.0103
3610.00,0.0103
3609.00,0.0104
3608.00,0.0104
3607.00,0.0104
3606.00,0.0105
3605.00,0.0105
3604.00,0.0105
3603.00,0.0105
3602.00,0.0105
3601.00,0.0106
3600.00,0.0107
3599.00,0.0107
3598.00,0.0108
3597.00,0.0108
3596.00,0.0108
3595.00,0.0108
3594.00,0.0108
3593.00,0.0109
3592.00,0.0110
3591.00,0.0110
3590.00,0.0110
3589.00,0.0110
3588.00,0.0110
3587.00,0.0110
3586.00,0.0111
3585.00,0.0111
3584.00,0.0112
3583.00,0.0112
3582.00,0.0112
3581.00,0.0113
3580.00,0.0113
3579.00,0.0113
3578.00,0.0113
3577.00,0.0114
3576.00,0.0114
3575.00,0.0114
3574.00,0.0115
3573.00,0.0115
3572.00,0.0116
3571.00,0.0117
3570.00,0.0117
3569.00,0.0117
3568.00,0.0117
3567.00,0.0118
3566.00,0.0118
3565.00,0.0119
3564.00,0.0119
3563.00,0.0119
3562.00,0.0120
3561.00,0.0120
3560.00,0.0121
3559.00,0.0121
3558.00,0.0122
3557.00,0.0122
3556.00,0.0123
3555.00,0.0123
3554.00,0.0124
3553.00,0.0124
3552.00,0.0125
3551.00,0.0125
3550.00,0.0125
3549.00,0.0125
3548.00,0.0126
3547.00,0.0126
3546.00,0.0126
3545.00,0.0127
3544.00,0.0127
3543.00,0.0128
3542.00,0.0128
3541.00,0.0128
3540.00,0.0129
3539.00,0.0129
3538.00,0.0130
3537.00,0.0131
3536.00,0.0131
3535.00,0.0131
3534.00,0.0131
3533.00,0.0131
3532.00,0.0132
3531.00,0.0132
3530.00,0.0132
3529.00,0.0133
3528.00,0.0133
3527.00,0.0134
3526.00,0.0135
3525.00,0.0135
3524.00,0.0136
3523.00,0.0136
3522.00,0.0136
3521.00,0.0136
3520.00,0.0136
3519.00,0.0136
3518.00,0.0136
3517.00,0.0136
3516.00,0.0137
3515.00,0.0138
3514.00,0.0138
3513.00,0.0139
3512.00,0.0139
3511.00,0.0139
3510.00,0.0140
3509.00,0.0141
3508.00,0.0141
3507.00,0.0142
3506.00,0.0142
3505.00,0.0143
3504.00,0.0143
3503.00,0.0144
3502.00,0.0144
3501.00,0.0145
3500.00,0.0145
3499.00,0.0145
3498.00,0.0146
3497.00,0.0146
3496.00,0.0147
3495.00,0.0147
3494.00,0.0147
3493.00,0.0148
3492.00,0.0148
3491.00,0.0148
3490.00,0.0148
3489.00,0.0149
3488.00,0.0149
3487.00,0.0150
3486.00,0.0151
3485.00,0.0151
3484.00,0.0152
3483.00,0.0152
3482.00,0.0153
3481.00,0.0153
3480.00,0.0154
3479.00,0.0155
3478.00,0.0155
3477.00,0.0156
3476.00,0.0156
3475.00,0.0156
3474.00,0.0157
3473.00,0.0157
3472.00,0.0158
3471.00,0.0158
3470.00,0.0159
3469.00,0.0159
3468.00,0.0160
3467.00,0.0161
3466.00,0.0161
3465.00,0.0161
3464.00,0.0162
3463.00,0.0162
3462.00,0.0162
3461.00,0.0163
3460.00,0.0164
3459.00,0.0165
3458.00,0.0166
3457.00,0.0167
3456.00,0.0167
3455.00,0.0168
3454.00,0.0168
3453.00,0.0168
3452.00,0.0169
3451.00,0.0169
3450.00,0.0170
3449.00,0.0171
3448.00,0.0171
3447.00,0.0172
3446.00,0.0173
3445.00,0.0173
3444.00,0.0173
3443.00,0.0174
3442.00,0.0174
3441.00,0.0175
3440.00,0.0176
3439.00,0.0176
3438.00,0.0177
3437.00,0.0178
3436.00,0.0179
3435.00,0.0179
3434.00,0.0180
3433.00,0.0181
3432.00,0.0181
3431.00,0.0182
3430.00,0.0183
3429.00,0.0183
3428.00,0.0184
3427.00,0.0185
3426.00,0.0186
3425.00,0.0187
3424.00,0.0187
3423.00,0.0188
3422.00,0.0188
3421.00,0.0189
3420.00,0.0190
3419.00,0.0191
3418.00,0.0191
3417.00,0.0192
3416.00,0.0193
3415.00,0.0194
3414.00,0.0195
3413.00,0.0195
3412.00,0.0196
3411.00,0.0197
3410.00,0.0198
3409.00,0.0198
3408.00,0.0199
3407.00,0.0200
3406.00,0.0200
3405.00,0.0201
3404.00,0.0202
3403.00,0.0203
3402.00,0.0203
3401.00,0.0204
3400.00,0.0205
3399.00,0.0205
3398.00,0.0206
3397.00,0.0207
3396.00,0.0207
3395.00,0.0208
3394.00,0.0209
3393.00,0.0210
3392.00,0.0211
3391.00,0.0212
3390.00,0.0212
3389.00,0.0213
3388.00,0.0214
3387.00,0.0215
3386.00,0.0216
3385.00,0.0217
3384.00,0.0217
3383.00,0.0218
3382.00,0.0219
3381.00,0.0220
3380.00,0.0221
3379.00,0.0222
3378.00,0.0223
3377.00,0.0224
3376.00,0.0225
3375.00,0.0226
3374.00,0.0227
3373.00,0.0228
3372.00,0.0228
3371.00,0.0229
3370.00,0.0230
3369.00,0.0231
3368.00,0.0233
3367.00,0.0234
3366.00,0.0235
3365.00,0.0236
3364.00,0.0237
3363.00,0.0239
3362.00,0.0240
3361.00,0.0242
3360.00,0.0244
3359.00,0.0245
3358.00,0.0247
3357.00,0.0249
3356.00,0.0250
3355.00,0.0252
3354.00,0.0253
3353.00,0.0254
3352.00,0.0256
3351.00,0.0257
3350.00,0.0259
3349.00,0.0261
3348.00,0.0263
3347.00,0.0265
3346.00,0.0266
3345.00,0.0268
3344.00,0.0270
3343.00,0.0272
3342.00,0.0274
3341.00,0.0276
3340.00,0.0278
3339.00,0.0280
3338.00,0.0282
3337.00,0.0283
3336.00,0.0285
3335.00,0.0287
3334.00,0.0289
3333.00,0.0291
3332.00,0.0293
3331.00,0.0295
3330.00,0.0297
3329.00,0.0299
3328.00,0.0302
3327.00,0.0304
3326.00,0.0307
3325.00,0.0309
3324.00,0.0312
3323.00,0.0314
3322.00,0.0316
3321.00,0.0319
3320.00,0.0321
3319.00,0.0324
3318.00,0.0326
3317.00,0.0328
3316.00,0.0331
3315.00,0.0334
3314.00,0.0336
3313.00,0.0339
3312.00,0.0342
3311.00,0.0345
3310.00,0.0347
3309.00,0.0350
3308.00,0.0353
3307.00,0.0355
3306.00,0.0358
3305.00,0.0361
3304.00,0.0364
3303.00,0.0368
3302.00,0.0371
3301.00,0.0374
3300.00,0.0377
3299.00,0.0380
3298.00,0.0383
3297.00,0.0386
3296.00,0.0389
3295.00,0.0393
3294.00,0.0396
3293.00,0.0399
3292.00,0.0403
3291.00,0.0407
3290.00,0.0411
3289.00,0.0415
3288.00,0.0418
3287.00,0.0422
3286.00,0.0425
3285.00,0.0428
3284.00,0.0431
3283.00,0.0434
3282.00,0.0436
3281.00,0.0439
3280.00,0.0442
3279.00,0.0444
3278.00,0.0445
3277.00,0.0447
3276.00,0.0448
3275.00,0.0449
3274.00,0.0449
3273.00,0.0449
3272.00,0.0450
3271.00,0.0449
3270.00,0.0449
3269.00,0.0449
3268.00,0.0448
3267.00,0.0447
3266.00,0.0445
3265.00,0.0443
3264.00,0.0441
3263.00,0.0438
3262.00,0.0436
3261.00,0.0433
3260.00,0.0430
3259.00,0.0427
3258.00,0.0424
3257.00,0.0420
3256.00,0.0417
3255.00,0.0414
3254.00,0.0411
3253.00,0.0408
3252.00,0.0405
3251.00,0.0403
3250.00,0.0400
3249.00,0.0397
3248.00,0.0394
3247.00,0.0392
3246.00,0.0389
3245.00,0.0387
3244.00,0.0384
3243.00,0.0382
3242.00,0.0380
3241.00,0.0378
3240.00,0.0376
3239.00,0.0374
3238.00,0.0372
3237.00,0.0370
3236.00,0.0368
3235.00,0.0366
3234.00,0.0364
3233.00,0.0362
3232.00,0.0360
3231.00,0.0359
3230.00,0.0358
3229.00,0.0356
3228.00,0.0355
3227.00,0.0354
3226.00,0.0353
3225.00,0.0351
3224.00,0.0350
3223.00,0.0348
3222.00,0.0347
3221.00,0.0346
3220.00,0.0344
3219.00,0.0343
3218.00,0.0342
3217.00,0.0341
3216.00,0.0340
3215.00,0.0339
3214.00,0.0338
3213.00,0.0336
3212.00,0.0335
3211.00,0.0334
3210.00,0.0333
3209.00,0.0332
3208.00,0.0331
3207.00,0.0330
3206.00,0.0329
3205.00,0.0328
3204.00,0.0327
3203.00,0.0325
3202.00,0.0324
3201.00,0.0323
3200.00,0.0322
3199.00,0.0321
3198.00,0.0320
3197.00,0.0318
3196.00,0.0317
3195.00,0.0315
3194.00,0.0314
3193.00,0.0312
3192.00,0.0311
3191.00,0.0310
3190.00,0.0309
3189.00,0.0308
3188.00,0.0307
3187.00,0.0305
3186.00,0.0304
3185.00,0.0302
3184.00,0.0301
3183.00,0.0300
3182.00,0.0298
3181.00,0.0296
3180.00,0.0295
3179.00,0.0293
3178.00,0.0292
3177.00,0.0290
3176.00,0.0289
3175.00,0.0288
3174.00,0.0287
3173.00,0.0285
3172.00,0.0284
3171.00,0.0282
3170.00,0.0281
3169.00,0.0279
3168.00,0.0278
3167.00,0.0277
3166.00,0.0275
3165.00,0.0274
3164.00,0.0273
3163.00,0.0271
3162.00,0.0270
3161.00,0.0268
3160.00,0.0267
3159.00,0.0266
3158.00,0.0264
3157.00,0.0263
3156.00,0.0262
3155.00,0.0261
3154.00,0.0260
3153.00,0.0259
3152.00,0.0258
3151.00,0.0257
3150.00,0.0256
3149.00,0.0255
3148.00,0.0254
3147.00,0.0253
3146.00,0.0252
3145.00,0.0251
3144.00,0.0250
3143.00,0.0249
3142.00,0.0248
3141.00,0.0247
3140.00,0.0246
3139.00,0.0246
3138.00,0.0245
3137.00,0.0245
3136.00,0.0244
3135.00,0.0243
3134.00,0.0243
3133.00,0.0242
3132.00,0.0241
3131.00,0.0240
3130.00,0.0240
3129.00,0.0239
3128.00,0.0239
3127.00,0.0239
3126.00,0.0238
3125.00,0.0238
3124.00,0.0238
3123.00,0.0237
3122.00,0.0237
3121.00,0.0236
3120.00,0.0235
3119.00,0.0235
3118.00,0.0235
3117.00,0.0235
3116.00,0.0236
3115.00,0.0236
3114.00,0.0236
3113.00,0.0236
3112.00,0.0237
3111.00,0.0237
3110.00,0.0236
3109.00,0.0236
3108.00,0.0237
3107.00,0.0237
3106.00,0.0238
3105.00,0.0238
3104.00,0.0239
3103.00,0.0239
3102.00,0.0239
3101.00,0.0239
3100.00,0.0240
3099.00,0.0240
3098.00,0.0241
3097.00,0.0242
3096.00,0.0243
3095.00,0.0244
3094.00,0.0244
3093.00,0.0244
3092.00,0.0244
3091.00,0.0245
3090.00,0.0245
3089.00,0.0245
3088.00,0.0246
3087.00,0.0247
3086.00,0.0247
3085.00,0.0248
3084.00,0.0248
3083.00,0.0249
3082.00,0.0249
3081.00,0.0249
3080.00,0.0249
3079.00,0.0250
3078.00,0.0250
3077.00,0.0251
3076.00,0.0252
3075.00,0.0253
3074.00,0.0253
3073.00,0.0254
3072.00,0.0254
3071.00,0.0254
3070.00,0.0254
3069.00,0.0254
3068.00,0.0254
3067.00,0.0254
3066.00,0.0254
3065.00,0.0254
3064.00,0.0254
3063.00,0.0253
3062.00,0.0253
3061.00,0.0252
3060.00,0.0251
3059.00,0.0251
3058.00,0.0250
3057.00,0.0249
3056.00,0.0249
3055.00,0.0248
3054.00,0.0247
3053.00,0.0246
3052.00,0.0245
3051.00,0.0244
3050.00,0.0244
3049.00,0.0243
3048.00,0.0242
3047.00,0.0241
3046.00,0.0240
3045.00,0.0239
3044.00,0.0238
3043.00,0.0237
3042.00,0.0236
3041.00,0.0235
3040.00,0.0234
3039.00,0.0234
3038.00,0.0233
3037.00,0.0232
3036.00,0.0230
3035.00,0.0229
3034.00,0.0228
3033.00,0.0227
3032.00,0.0226
3031.00,0.0226
3030.00,0.0226
3029.00,0.0225
3028.00,0.0224
3027.00,0.0223
3026.00,0.0222
3025.00,0.0222
3024.00,0.0221
3023.00,0.0220
3022.00,0.0220
3021.00,0.0219
3020.00,0.0219
3019.00,0.0218
3018.00,0.0218
3017.00,0.0218
3016.00,0.0217
3015.00,0.0215
3014.00,0.0214
3013.00,0.0213
3012.00,0.0212
3011.00,0.0212
3010.00,0.0212
3009.00,0.0212
3008.00,0.0212
3007.00,0.0211
3006.00,0.0211
3005.00,0.0211
3004.00,0.0211
3003.00,0.0211
3002.00,0.0211
3001.00,0.0210
3000.00,0.0210
2999.00,0.0210
2998.00,0.0210
2997.00,0.0211
2996.00,0.0211
2995.00,0.0212
2994.00,0.0212
2993.00,0.0213
2992.00,0.0214
2991.00,0.0215
2990.00,0.0216
2989.00,0.0217
2988.00,0.0218
2987.00,0.0218
2986.00,0.0219
2985.00,0.0220
2984.00,0.0221
2983.00,0.0222
2982.00,0.0222
2981.00,0.0223
2980.00,0.0223
2979.00,0.0224
2978.00,0.0225
2977.00,0.0226
2976.00,0.0226
2975.00,0.0227
2974.00,0.0228
2973.00,0.0229
2972.00,0.0230
2971.00,0.0231
2970.00,0.0231
2969.00,0.0232
2968.00,0.0232
2967.00,0.0233
2966.00,0.0233
2965.00,0.0233
2964.00,0.0233
2963.00,0.0233
2962.00,0.0233
2961.00,0.0233
2960.00,0.0233
2959.00,0.0234
2958.00,0.0234
2957.00,0.0234
2956.00,0.0234
2955.00,0.0234
2954.00,0.0234
2953.00,0.0234
2952.00,0.0234
2951.00,0.0234
2950.00,0.0234
2949.00,0.0233
2948.00,0.0233
2947.00,0.0234
2946.00,0.0234
2945.00,0.0236
2944.00,0.0238
2943.00,0.0240
2942.00,0.0243
2941.00,0.0246
2940.00,0.0249
2939.00,0.0253
2938.00,0.0257
2937.00,0.0261
2936.00,0.0266
2935.00,0.0270
2934.00,0.0275
2933.00,0.0280
2932.00,0.0285
2931.00,0.0289
2930.00,0.0294
2929.00,0.0298
2928.00,0.0302
2927.00,0.0306
2926.00,0.0309
2925.00,0.0312
2924.00,0.0314
2923.00,0.0315
2922.00,0.0315
2921.00,0.0314
2920.00,0.0313
2919.00,0.0311
2918.00,0.0308
2917.00,0.0304
2916.00,0.0299
2915.00,0.0294
2914.00,0.0288
2913.00,0.0282
2912.00,0.0276
2911.00,0.0271
2910.00,0.0266
2909.00,0.0262
2908.00,0.0259
2907.00,0.0255
2906.00,0.0253
2905.00,0.0251
2904.00,0.0249
2903.00,0.0247
2902.00,0.0245
2901.00,0.0243
2900.00,0.0241
2899.00,0.0239
2898.00,0.0238
2897.00,0.0236
2896.00,0.0234
2895.00,0.0232
2894.00,0.0231
2893.00,0.0229
2892.00,0.0228
2891.00,0.0227
2890.00,0.0225
2889.00,0.0224
2888.00,0.0222
2887.00,0.0221
2886.00,0.0220
2885.00,0.0219
2884.00,0.0218
2883.00,0.0217
2882.00,0.0216
2881.00,0.0216
2880.00,0.0216
2879.00,0.0216
2878.00,0.0216
2877.00,0.0216
2876.00,0.0217
2875.00,0.0217
2874.00,0.0218
2873.00,0.0218
2872.00,0.0219
2871.00,0.0219
2870.00,0.0219
2869.00,0.0218
2868.00,0.0218
2867.00,0.0217
2866.00,0.0217
2865.00,0.0217
2864.00,0.0217
2863.00,0.0218
2862.00,0.0220
2861.00,0.0222
2860.00,0.0225
2859.00,0.0228
2858.00,0.0232
2857.00,0.0235
2856.00,0.0239
2855.00,0.0242
2854.00,0.0245
2853.00,0.0248
2852.00,0.0250
2851.00,0.0250
2850.00,0.0249
2849.00,0.0246
2848.00,0.0242
2847.00,0.0236
2846.00,0.0230
2845.00,0.0224
2844.00,0.0219
2843.00,0.0214
2842.00,0.0210
2841.00,0.0206
2840.00,0.0203
2839.00,0.0201
2838.00,0.0199
2837.00,0.0197
2836.00,0.0196
2835.00,0.0195
2834.00,0.0194
2833.00,0.0193
2832.00,0.0192
2831.00,0.0192
2830.00,0.0191
2829.00,0.0190
2828.00,0.0189
2827.00,0.0189
2826.00,0.0188
2825.00,0.0188
2824.00,0.0188
2823.00,0.0188
2822.00,0.0187
2821.00,0.0187
2820.00,0.0186
2819.00,0.0186
2818.00,0.0185
2817.00,0.0185
2816.00,0.0185
2815.00,0.0185
2814.00,0.0184
2813.00,0.0184
2812.00,0.0183
2811.00,0.0183
2810.00,0.0183
2809.00,0.0183
2808.00,0.0183
2807.00,0.0183
2806.00,0.0182
2805.00,0.0182
2804.00,0.0182
2803.00,0.0182
2802.00,0.0181
2801.00,0.0181
2800.00,0.0181
2799.00,0.0181
2798.00,0.0180
2797.00,0.0180
2796.00,0.0180
2795.00,0.0179
2794.00,0.0179
2793.00,0.0179
2792.00,0.0179
2791.00,0.0179
2790.00,0.0179
2789.00,0.0179
2788.00,0.0178
2787.00,0.0178
2786.00,0.0178
2785.00,0.0177
2784.00,0.0177
2783.00,0.0177
2782.00,0.0176
2781.00,0.0176
2780.00,0.0176
2779.00,0.0176
2778.00,0.0176
2777.00,0.0175
2776.00,0.0175
2775.00,0.0175
2774.00,0.0175
2773.00,0.0175
2772.00,0.0175
2771.00,0.0174
2770.00,0.0174
2769.00,0.0174
2768.00,0.0174
2767.00,0.0174
2766.00,0.0174
2765.00,0.0174
2764.00,0.0173
2763.00,0.0173
2762.00,0.0172
2761.00,0.0172
2760.00,0.0172
2759.00,0.0172
2758.00,0.0172
2757.00,0.0171
