Created as New Dataset,Sample 645 By YargerLab Date Tuesday, June 10 2025
cm-1,A
4000.00,0.0119
3999.00,0.0119
3998.00,0.0118
3997.00,0.0118
3996.00,0.0118
3995.00,0.0119
3994.00,0.0119
3993.00,0.0119
3992.00,0.0119
3991.00,0.0119
3990.00,0.0119
3989.00,0.0119
3988.00,0.0119
3987.00,0.0119
3986.00,0.0119
3985.00,0.0119
3984.00,0.0119
3983.00,0.0119
3982.00,0.0119
3981.00,0.0118
3980.00,0.0118
3979.00,0.0118
3978.00,0.0118
3977.00,0.0118
3976.00,0.0118
3975.00,0.0118
3974.00,0.0117
3973.00,0.0118
3972.00,0.0118
3971.00,0.0118
3970.00,0.0118
3969.00,0.0118
3968.00,0.0118
3967.00,0.0118
3966.00,0.0118
3965.00,0.0118
3964.00,0.0118
3963.00,0.0118
3962.00,0.0118
3961.00,0.0118
3960.00,0.0118
3959.00,0.0118
3958.00,0.0118
3957.00,0.0119
3956.00,0.0119
3955.00,0.0119
3954.00,0.0118
3953.00,0.0118
3952.00,0.0118
3951.00,0.0117
3950.00,0.0118
3949.00,0.0118
3948.00,0.0118
3947.00,0.0118
3946.00,0.0118
3945.00,0.0118
3944.00,0.0118
3943.00,0.0118
3942.00,0.0117
3941.00,0.0117
3940.00,0.0117
3939.00,0.0117
3938.00,0.0117
3937.00,0.0117
3936.00,0.0118
3935.00,0.0118
3934.00,0.0118
3933.00,0.0118
3932.00,0.0117
3931.00,0.0117
3930.00,0.0117
3929.00,0.0117
3928.00,0.0117
3927.00,0.0117
3926.00,0.0117
3925.00,0.0117
3924.00,0.0116
3923.00,0.0116
3922.00,0.0116
3921.00,0.0116
3920.00,0.0116
3919.00,0.0116
3918.00,0.0116
3917.00,0.0116
3916.00,0.0116
3915.00,0.0116
3914.00,0.0116
3913.00,0.0116
3912.00,0.0116
3911.00,0.0116
3910.00,0.0116
3909.00,0.0116
3908.00,0.0116
3907.00,0.0116
3906.00,0.0116
3905.00,0.0116
3904.00,0.0116
3903.00,0.0116
3902.00,0.0116
3901.00,0.0116
3900.00,0.0116
3899.00,0.0117
3898.00,0.0117
3897.00,0.0117
3896.00,0.0117
3895.00,0.0117
3894.00,0.0116
3893.00,0.0116
3892.00,0.0115
3891.00,0.0115
3890.00,0.0115
3889.00,0.0116
3888.00,0.0116
3887.00,0.0116
3886.00,0.0115
3885.00,0.0115
3884.00,0.0115
3883.00,0.0114
3882.00,0.0114
3881.00,0.0114
3880.00,0.0113
3879.00,0.0114
3878.00,0.0114
3877.00,0.0114
3876.00,0.0114
3875.00,0.0115
3874.00,0.0115
3873.00,0.0115
3872.00,0.0114
3871.00,0.0114
3870.00,0.0114
3869.00,0.0113
3868.00,0.0114
3867.00,0.0114
3866.00,0.0115
3865.00,0.0115
3864.00,0.0115
3863.00,0.0115
3862.00,0.0115
3861.00,0.0114
3860.00,0.0114
3859.00,0.0114
3858.00,0.0114
3857.00,0.0113
3856.00,0.0113
3855.00,0.0112
3854.00,0.0112
3853.00,0.0111
3852.00,0.0111
3851.00,0.0111
3850.00,0.0112
3849.00,0.0112
3848.00,0.0113
3847.00,0.0114
3846.00,0.0114
3845.00,0.0114
3844.00,0.0113
3843.00,0.0113
3842.00,0.0113
3841.00,0.0113
3840.00,0.0113
3839.00,0.0113
3838.00,0.0113
3837.00,0.0112
3836.00,0.0112
3835.00,0.0112
3834.00,0.0112
3833.00,0.0113
3832.00,0.0113
3831.00,0.0113
3830.00,0.0113
3829.00,0.0113
3828.00,0.0113
3827.00,0.0113
3826.00,0.0113
3825.00,0.0112
3824.00,0.0112
3823.00,0.0112
3822.00,0.0111
3821.00,0.0111
3820.00,0.0111
3819.00,0.0111
3818.00,0.0110
3817.00,0.0111
3816.00,0.0111
3815.00,0.0111
3814.00,0.0111
3813.00,0.0111
3812.00,0.0112
3811.00,0.0112
3810.00,0.0112
3809.00,0.0112
3808.00,0.0112
3807.00,0.0112
3806.00,0.0112
3805.00,0.0112
3804.00,0.0111
3803.00,0.0111
3802.00,0.0111
3801.00,0.0111
3800.00,0.0111
3799.00,0.0111
3798.00,0.0111
3797.00,0.0111
3796.00,0.0112
3795.00,0.0112
3794.00,0.0112
3793.00,0.0112
3792.00,0.0113
3791.00,0.0113
3790.00,0.0112
3789.00,0.0112
3788.00,0.0112
3787.00,0.0111
3786.00,0.0111
3785.00,0.0111
3784.00,0.0111
3783.00,0.0111
3782.00,0.0111
3781.00,0.0111
3780.00,0.0111
3779.00,0.0111
3778.00,0.0111
3777.00,0.0111
3776.00,0.0111
3775.00,0.0111
3774.00,0.0111
3773.00,0.0111
3772.00,0.0111
3771.00,0.0112
3770.00,0.0112
3769.00,0.0111
3768.00,0.0111
3767.00,0.0111
3766.00,0.0111
3765.00,0.0111
3764.00,0.0111
3763.00,0.0111
3762.00,0.0111
3761.00,0.0110
3760.00,0.0110
3759.00,0.0110
3758.00,0.0110
3757.00,0.0110
3756.00,0.0109
3755.00,0.0109
3754.00,0.0109
3753.00,0.0109
3752.00,0.0109
3751.00,0.0108
3750.00,0.0108
3749.00,0.0108
3748.00,0.0108
3747.00,0.0108
3746.00,0.0108
3745.00,0.0108
3744.00,0.0108
3743.00,0.0108
3742.00,0.0108
3741.00,0.0108
3740.00,0.0109
3739.00,0.0108
3738.00,0.0108
3737.00,0.0108
3736.00,0.0109
3735.00,0.0109
3734.00,0.0109
3733.00,0.0109
3732.00,0.0109
3731.00,0.0109
3730.00,0.0109
3729.00,0.0109
3728.00,0.0109
3727.00,0.0109
3726.00,0.0109
3725.00,0.0109
3724.00,0.0109
3723.00,0.0109
3722.00,0.0110
3721.00,0.0109
3720.00,0.0109
3719.00,0.0109
3718.00,0.0108
3717.00,0.0108
3716.00,0.0108
3715.00,0.0108
3714.00,0.0108
3713.00,0.0108
3712.00,0.0108
3711.00,0.0107
3710.00,0.0108
3709.00,0.0108
3708.00,0.0108
3707.00,0.0108
3706.00,0.0108
3705.00,0.0108
3704.00,0.0108
3703.00,0.0108
3702.00,0.0108
3701.00,0.0107
3700.00,0.0107
3699.00,0.0107
3698.00,0.0107
3697.00,0.0107
3696.00,0.0107
3695.00,0.0107
3694.00,0.0107
3693.00,0.0106
3692.00,0.0106
3691.00,0.0106
3690.00,0.0106
3689.00,0.0105
3688.00,0.0105
3687.00,0.0105
3686.00,0.0105
3685.00,0.0106
3684.00,0.0106
3683.00,0.0106
3682.00,0.0106
3681.00,0.0106
3680.00,0.0106
3679.00,0.0107
3678.00,0.0107
3677.00,0.0107
3676.00,0.0107
3675.00,0.0107
3674.00,0.0106
3673.00,0.0106
3672.00,0.0105
3671.00,0.0105
3670.00,0.0106
3669.00,0.0106
3668.00,0.0106
3667.00,0.0106
3666.00,0.0107
3665.00,0.0107
3664.00,0.0108
3663.00,0.0108
3662.00,0.0108
3661.00,0.0108
3660.00,0.0108
3659.00,0.0108
3658.00,0.0108
3657.00,0.0108
3656.00,0.0108
3655.00,0.0108
3654.00,0.0108
3653.00,0.0108
3652.00,0.0107
3651.00,0.0107
3650.00,0.0107
3649.00,0.0107
3648.00,0.0107
3647.00,0.0107
3646.00,0.0107
3645.00,0.0107
3644.00,0.0107
3643.00,0.0107
3642.00,0.0108
3641.00,0.0108
3640.00,0.0109
3639.00,0.0109
3638.00,0.0109
3637.00,0.0109
3636.00,0.0110
3635.00,0.0109
3634.00,0.0109
3633.00,0.0109
3632.00,0.0109
3631.00,0.0110
3630.00,0.0110
3629.00,0.0111
3628.00,0.0111
3627.00,0.0111
3626.00,0.0111
3625.00,0.0111
3624.00,0.0111
3623.00,0.0111
3622.00,0.0111
3621.00,0.0111
3620.00,0.0111
3619.00,0.0111
3618.00,0.0111
3617.00,0.0111
3616.00,0.0111
3615.00,0.0111
3614.00,0.0112
3613.00,0.0112
3612.00,0.0112
3611.00,0.0113
3610.00,0.0113
3609.00,0.0114
3608.00,0.0114
3607.00,0.0114
3606.00,0.0115
3605.00,0.0115
3604.00,0.0115
3603.00,0.0115
3602.00,0.0115
3601.00,0.0116
3600.00,0.0116
3599.00,0.0116
3598.00,0.0116
3597.00,0.0117
3596.00,0.0117
3595.00,0.0117
3594.00,0.0117
3593.00,0.0117
3592.00,0.0118
3591.00,0.0118
3590.00,0.0118
3589.00,0.0118
3588.00,0.0118
3587.00,0.0119
3586.00,0.0119
3585.00,0.0119
3584.00,0.0120
3583.00,0.0120
3582.00,0.0121
3581.00,0.0120
3580.00,0.0120
3579.00,0.0119
3578.00,0.0119
3577.00,0.0120
3576.00,0.0120
3575.00,0.0121
3574.00,0.0121
3573.00,0.0121
3572.00,0.0122
3571.00,0.0122
3570.00,0.0122
3569.00,0.0123
3568.00,0.0124
3567.00,0.0124
3566.00,0.0124
3565.00,0.0124
3564.00,0.0124
3563.00,0.0125
3562.00,0.0125
3561.00,0.0125
3560.00,0.0125
3559.00,0.0125
3558.00,0.0125
3557.00,0.0125
3556.00,0.0125
3555.00,0.0126
3554.00,0.0126
3553.00,0.0126
3552.00,0.0127
3551.00,0.0127
3550.00,0.0127
3549.00,0.0128
3548.00,0.0128
3547.00,0.0129
3546.00,0.0130
3545.00,0.0130
3544.00,0.0130
3543.00,0.0130
3542.00,0.0130
3541.00,0.0131
3540.00,0.0131
3539.00,0.0131
3538.00,0.0132
3537.00,0.0132
3536.00,0.0132
3535.00,0.0132
3534.00,0.0132
3533.00,0.0132
3532.00,0.0132
3531.00,0.0132
3530.00,0.0133
3529.00,0.0133
3528.00,0.0134
3527.00,0.0134
3526.00,0.0135
3525.00,0.0135
3524.00,0.0136
3523.00,0.0136
3522.00,0.0136
3521.00,0.0137
3520.00,0.0137
3519.00,0.0138
3518.00,0.0138
3517.00,0.0138
3516.00,0.0138
3515.00,0.0138
3514.00,0.0138
3513.00,0.0138
3512.00,0.0138
3511.00,0.0138
3510.00,0.0138
3509.00,0.0138
3508.00,0.0138
3507.00,0.0138
3506.00,0.0139
3505.00,0.0139
3504.00,0.0139
3503.00,0.0139
3502.00,0.0140
3501.00,0.0140
3500.00,0.0140
3499.00,0.0141
3498.00,0.0141
3497.00,0.0141
3496.00,0.0142
3495.00,0.0142
3494.00,0.0142
3493.00,0.0142
3492.00,0.0142
3491.00,0.0142
3490.00,0.0142
3489.00,0.0142
3488.00,0.0142
3487.00,0.0142
3486.00,0.0143
3485.00,0.0143
3484.00,0.0143
3483.00,0.0144
3482.00,0.0144
3481.00,0.0144
3480.00,0.0144
3479.00,0.0145
3478.00,0.0145
3477.00,0.0146
3476.00,0.0146
3475.00,0.0146
3474.00,0.0146
3473.00,0.0146
3472.00,0.0146
3471.00,0.0146
3470.00,0.0147
3469.00,0.0147
3468.00,0.0147
3467.00,0.0148
3466.00,0.0147
3465.00,0.0147
3464.00,0.0148
3463.00,0.0148
3462.00,0.0148
3461.00,0.0149
3460.00,0.0150
3459.00,0.0151
3458.00,0.0152
3457.00,0.0152
3456.00,0.0153
3455.00,0.0153
3454.00,0.0152
3453.00,0.0151
3452.00,0.0151
3451.00,0.0151
3450.00,0.0151
3449.00,0.0152
3448.00,0.0152
3447.00,0.0152
3446.00,0.0152
3445.00,0.0152
3444.00,0.0153
3443.00,0.0153
3442.00,0.0153
3441.00,0.0154
3440.00,0.0154
3439.00,0.0155
3438.00,0.0155
3437.00,0.0155
3436.00,0.0155
3435.00,0.0156
3434.00,0.0156
3433.00,0.0156
3432.00,0.0156
3431.00,0.0157
3430.00,0.0158
3429.00,0.0158
3428.00,0.0159
3427.00,0.0159
3426.00,0.0159
3425.00,0.0160
3424.00,0.0160
3423.00,0.0160
3422.00,0.0161
3421.00,0.0162
3420.00,0.0163
3419.00,0.0163
3418.00,0.0163
3417.00,0.0164
3416.00,0.0164
3415.00,0.0165
3414.00,0.0165
3413.00,0.0166
3412.00,0.0167
3411.00,0.0167
3410.00,0.0167
3409.00,0.0168
3408.00,0.0168
3407.00,0.0168
3406.00,0.0169
3405.00,0.0169
3404.00,0.0170
3403.00,0.0170
3402.00,0.0171
3401.00,0.0172
3400.00,0.0172
3399.00,0.0173
3398.00,0.0173
3397.00,0.0174
3396.00,0.0174
3395.00,0.0174
3394.00,0.0175
3393.00,0.0176
3392.00,0.0176
3391.00,0.0177
3390.00,0.0177
3389.00,0.0178
3388.00,0.0178
3387.00,0.0179
3386.00,0.0179
3385.00,0.0180
3384.00,0.0181
3383.00,0.0182
3382.00,0.0182
3381.00,0.0183
3380.00,0.0183
3379.00,0.0184
3378.00,0.0184
3377.00,0.0185
3376.00,0.0185
3375.00,0.0186
3374.00,0.0187
3373.00,0.0187
3372.00,0.0188
3371.00,0.0189
3370.00,0.0190
3369.00,0.0191
3368.00,0.0192
3367.00,0.0193
3366.00,0.0193
3365.00,0.0194
3364.00,0.0195
3363.00,0.0196
3362.00,0.0198
3361.00,0.0198
3360.00,0.0199
3359.00,0.0199
3358.00,0.0200
3357.00,0.0201
3356.00,0.0202
3355.00,0.0203
3354.00,0.0204
3353.00,0.0205
3352.00,0.0207
3351.00,0.0208
3350.00,0.0209
3349.00,0.0210
3348.00,0.0211
3347.00,0.0213
3346.00,0.0214
3345.00,0.0215
3344.00,0.0216
3343.00,0.0218
3342.00,0.0219
3341.00,0.0220
3340.00,0.0222
3339.00,0.0224
3338.00,0.0226
3337.00,0.0228
3336.00,0.0229
3335.00,0.0230
3334.00,0.0232
3333.00,0.0233
3332.00,0.0235
3331.00,0.0237
3330.00,0.0239
3329.00,0.0241
3328.00,0.0243
3327.00,0.0245
3326.00,0.0247
3325.00,0.0249
3324.00,0.0251
3323.00,0.0253
3322.00,0.0256
3321.00,0.0258
3320.00,0.0261
3319.00,0.0263
3318.00,0.0265
3317.00,0.0268
3316.00,0.0270
3315.00,0.0272
3314.00,0.0275
3313.00,0.0277
3312.00,0.0280
3311.00,0.0282
3310.00,0.0284
3309.00,0.0286
3308.00,0.0288
3307.00,0.0291
3306.00,0.0293
3305.00,0.0296
3304.00,0.0298
3303.00,0.0300
3302.00,0.0303
3301.00,0.0305
3300.00,0.0307
3299.00,0.0309
3298.00,0.0312
3297.00,0.0314
3296.00,0.0316
3295.00,0.0318
3294.00,0.0320
3293.00,0.0321
3292.00,0.0322
3291.00,0.0323
3290.00,0.0324
3289.00,0.0326
3288.00,0.0327
3287.00,0.0328
3286.00,0.0328
3285.00,0.0329
3284.00,0.0329
3283.00,0.0330
3282.00,0.0330
3281.00,0.0329
3280.00,0.0329
3279.00,0.0328
3278.00,0.0327
3277.00,0.0327
3276.00,0.0326
3275.00,0.0325
3274.00,0.0324
3273.00,0.0322
3272.00,0.0320
3271.00,0.0319
3270.00,0.0317
3269.00,0.0315
3268.00,0.0313
3267.00,0.0311
3266.00,0.0309
3265.00,0.0307
3264.00,0.0305
3263.00,0.0304
3262.00,0.0302
3261.00,0.0300
3260.00,0.0298
3259.00,0.0296
3258.00,0.0294
3257.00,0.0291
3256.00,0.0289
3255.00,0.0288
3254.00,0.0286
3253.00,0.0284
3252.00,0.0283
3251.00,0.0281
3250.00,0.0280
3249.00,0.0278
3248.00,0.0277
3247.00,0.0276
3246.00,0.0274
3245.00,0.0273
3244.00,0.0272
3243.00,0.0270
3242.00,0.0269
3241.00,0.0267
3240.00,0.0266
3239.00,0.0264
3238.00,0.0262
3237.00,0.0261
3236.00,0.0260
3235.00,0.0259
3234.00,0.0258
3233.00,0.0257
3232.00,0.0256
3231.00,0.0255
3230.00,0.0254
3229.00,0.0253
3228.00,0.0252
3227.00,0.0251
3226.00,0.0250
3225.00,0.0249
3224.00,0.0248
3223.00,0.0247
3222.00,0.0245
3221.00,0.0244
3220.00,0.0244
3219.00,0.0243
3218.00,0.0242
3217.00,0.0241
3216.00,0.0240
3215.00,0.0240
3214.00,0.0239
3213.00,0.0238
3212.00,0.0237
3211.00,0.0236
3210.00,0.0235
3209.00,0.0234
3208.00,0.0233
3207.00,0.0232
3206.00,0.0231
3205.00,0.0231
3204.00,0.0230
3203.00,0.0229
3202.00,0.0229
3201.00,0.0228
3200.00,0.0227
3199.00,0.0226
3198.00,0.0225
3197.00,0.0224
3196.00,0.0223
3195.00,0.0222
3194.00,0.0221
3193.00,0.0220
3192.00,0.0219
3191.00,0.0218
3190.00,0.0217
3189.00,0.0216
3188.00,0.0216
3187.00,0.0215
3186.00,0.0214
3185.00,0.0213
3184.00,0.0212
3183.00,0.0211
3182.00,0.0211
3181.00,0.0210
3180.00,0.0209
3179.00,0.0208
3178.00,0.0207
3177.00,0.0206
3176.00,0.0206
3175.00,0.0205
3174.00,0.0204
3173.00,0.0203
3172.00,0.0202
3171.00,0.0201
3170.00,0.0200
3169.00,0.0199
3168.00,0.0198
3167.00,0.0197
3166.00,0.0196
3165.00,0.0195
3164.00,0.0194
3163.00,0.0194
3162.00,0.0193
3161.00,0.0192
3160.00,0.0192
3159.00,0.0191
3158.00,0.0190
3157.00,0.0190
3156.00,0.0189
3155.00,0.0188
3154.00,0.0188
3153.00,0.0187
3152.00,0.0187
3151.00,0.0186
3150.00,0.0186
3149.00,0.0185
3148.00,0.0185
3147.00,0.0184
3146.00,0.0184
3145.00,0.0183
3144.00,0.0183
3143.00,0.0183
3142.00,0.0183
3141.00,0.0182
3140.00,0.0181
3139.00,0.0181
3138.00,0.0180
3137.00,0.0179
3136.00,0.0179
3135.00,0.0178
3134.00,0.0178
3133.00,0.0177
3132.00,0.0177
3131.00,0.0177
3130.00,0.0177
3129.00,0.0177
3128.00,0.0177
3127.00,0.0176
3126.00,0.0176
3125.00,0.0176
3124.00,0.0175
3123.00,0.0175
3122.00,0.0175
3121.00,0.0175
3120.00,0.0175
3119.00,0.0175
3118.00,0.0175
3117.00,0.0175
3116.00,0.0175
3115.00,0.0175
3114.00,0.0175
3113.00,0.0175
3112.00,0.0175
3111.00,0.0175
3110.00,0.0175
3109.00,0.0176
3108.00,0.0176
3107.00,0.0176
3106.00,0.0176
3105.00,0.0176
3104.00,0.0177
3103.00,0.0177
3102.00,0.0177
3101.00,0.0178
3100.00,0.0178
3099.00,0.0178
3098.00,0.0178
3097.00,0.0178
3096.00,0.0179
3095.00,0.0179
3094.00,0.0179
3093.00,0.0180
3092.00,0.0180
3091.00,0.0181
3090.00,0.0181
3089.00,0.0181
3088.00,0.0181
3087.00,0.0181
3086.00,0.0182
3085.00,0.0182
3084.00,0.0183
3083.00,0.0183
3082.00,0.0183
3081.00,0.0183
3080.00,0.0183
3079.00,0.0183
3078.00,0.0183
3077.00,0.0183
3076.00,0.0184
3075.00,0.0184
3074.00,0.0184
3073.00,0.0184
3072.00,0.0184
3071.00,0.0184
3070.00,0.0184
3069.00,0.0184
3068.00,0.0184
3067.00,0.0184
3066.00,0.0184
3065.00,0.0184
3064.00,0.0184
3063.00,0.0184
3062.00,0.0184
3061.00,0.0184
3060.00,0.0183
3059.00,0.0183
3058.00,0.0182
3057.00,0.0182
3056.00,0.0181
3055.00,0.0181
3054.00,0.0180
3053.00,0.0180
3052.00,0.0179
3051.00,0.0179
3050.00,0.0179
3049.00,0.0179
3048.00,0.0179
3047.00,0.0178
3046.00,0.0177
3045.00,0.0177
3044.00,0.0176
3043.00,0.0175
3042.00,0.0175
3041.00,0.0175
3040.00,0.0174
3039.00,0.0173
3038.00,0.0173
3037.00,0.0172
3036.00,0.0171
3035.00,0.0170
3034.00,0.0169
3033.00,0.0169
3032.00,0.0168
3031.00,0.0168
3030.00,0.0168
3029.00,0.0168
3028.00,0.0167
3027.00,0.0167
3026.00,0.0167
3025.00,0.0166
3024.00,0.0166
3023.00,0.0165
3022.00,0.0164
3021.00,0.0163
3020.00,0.0162
3019.00,0.0161
3018.00,0.0161
3017.00,0.0160
3016.00,0.0160
3015.00,0.0161
3014.00,0.0161
3013.00,0.0161
3012.00,0.0161
3011.00,0.0161
3010.00,0.0161
3009.00,0.0161
3008.00,0.0161
3007.00,0.0160
3006.00,0.0160
3005.00,0.0159
3004.00,0.0159
3003.00,0.0159
3002.00,0.0160
3001.00,0.0160
3000.00,0.0160
2999.00,0.0160
2998.00,0.0160
2997.00,0.0160
2996.00,0.0161
2995.00,0.0161
2994.00,0.0162
2993.00,0.0162
2992.00,0.0163
2991.00,0.0163
2990.00,0.0164
2989.00,0.0165
2988.00,0.0166
2987.00,0.0167
2986.00,0.0167
2985.00,0.0168
2984.00,0.0169
2983.00,0.0169
2982.00,0.0170
2981.00,0.0171
2980.00,0.0172
2979.00,0.0172
2978.00,0.0173
2977.00,0.0174
2976.00,0.0174
2975.00,0.0174
2974.00,0.0175
2973.00,0.0176
2972.00,0.0177
2971.00,0.0178
2970.00,0.0178
2969.00,0.0179
2968.00,0.0180
2967.00,0.0181
2966.00,0.0182
2965.00,0.0182
2964.00,0.0183
2963.00,0.0183
2962.00,0.0183
2961.00,0.0184
2960.00,0.0184
2959.00,0.0184
2958.00,0.0184
2957.00,0.0184
2956.00,0.0184
2955.00,0.0183
2954.00,0.0183
2953.00,0.0183
2952.00,0.0182
2951.00,0.0182
2950.00,0.0181
2949.00,0.0181
2948.00,0.0182
2947.00,0.0182
2946.00,0.0183
2945.00,0.0184
2944.00,0.0186
2943.00,0.0187
2942.00,0.0189
2941.00,0.0192
2940.00,0.0194
2939.00,0.0197
2938.00,0.0200
2937.00,0.0203
2936.00,0.0206
2935.00,0.0210
2934.00,0.0213
2933.00,0.0217
2932.00,0.0220
2931.00,0.0224
2930.00,0.0227
2929.00,0.0230
2928.00,0.0233
2927.00,0.0237
2926.00,0.0240
2925.00,0.0242
2924.00,0.0245
2923.00,0.0247
2922.00,0.0249
2921.00,0.0251
2920.00,0.0252
2919.00,0.0252
2918.00,0.0251
2917.00,0.0250
2916.00,0.0248
2915.00,0.0244
2914.00,0.0239
2913.00,0.0233
2912.00,0.0227
2911.00,0.0221
2910.00,0.0216
2909.00,0.0212
2908.00,0.0208
2907.00,0.0205
2906.00,0.0202
2905.00,0.0199
2904.00,0.0197
2903.00,0.0195
2902.00,0.0194
2901.00,0.0192
2900.00,0.0191
2899.00,0.0189
2898.00,0.0188
2897.00,0.0186
2896.00,0.0185
2895.00,0.0184
2894.00,0.0183
2893.00,0.0182
2892.00,0.0181
2891.00,0.0179
2890.00,0.0178
2889.00,0.0177
2888.00,0.0176
2887.00,0.0176
2886.00,0.0175
2885.00,0.0174
2884.00,0.0174
2883.00,0.0173
2882.00,0.0173
2881.00,0.0173
2880.00,0.0172
2879.00,0.0173
2878.00,0.0173
2877.00,0.0173
2876.00,0.0173
2875.00,0.0173
2874.00,0.0173
2873.00,0.0173
2872.00,0.0173
2871.00,0.0173
2870.00,0.0172
2869.00,0.0172
2868.00,0.0171
2867.00,0.0171
2866.00,0.0171
2865.00,0.0171
2864.00,0.0171
2863.00,0.0172
2862.00,0.0173
2861.00,0.0174
2860.00,0.0176
2859.00,0.0179
2858.00,0.0182
2857.00,0.0185
2856.00,0.0188
2855.00,0.0192
2854.00,0.0195
2853.00,0.0198
2852.00,0.0201
2851.00,0.0203
2850.00,0.0204
2849.00,0.0202
2848.00,0.0199
2847.00,0.0195
2846.00,0.0189
2845.00,0.0184
2844.00,0.0178
2843.00,0.0174
2842.00,0.0170
2841.00,0.0167
2840.00,0.0164
2839.00,0.0162
2838.00,0.0160
2837.00,0.0158
2836.00,0.0157
2835.00,0.0156
2834.00,0.0155
2833.00,0.0154
2832.00,0.0153
2831.00,0.0152
2830.00,0.0152
2829.00,0.0151
2828.00,0.0151
2827.00,0.0150
2826.00,0.0150
2825.00,0.0149
2824.00,0.0148
2823.00,0.0148
2822.00,0.0148
2821.00,0.0148
2820.00,0.0147
2819.00,0.0147
2818.00,0.0147
2817.00,0.0146
2816.00,0.0145
2815.00,0.0145
2814.00,0.0145
2813.00,0.0145
2812.00,0.0144
2811.00,0.0144
2810.00,0.0144
2809.00,0.0144
2808.00,0.0144
2807.00,0.0143
2806.00,0.0143
2805.00,0.0143
2804.00,0.0143
2803.00,0.0143
2802.00,0.0143
2801.00,0.0143
2800.00,0.0142
2799.00,0.0142
2798.00,0.0141
2797.00,0.0140
2796.00,0.0140
2795.00,0.0140
2794.00,0.0140
2793.00,0.0140
2792.00,0.0140
2791.00,0.0139
2790.00,0.0139
2789.00,0.0139
2788.00,0.0139
2787.00,0.0139
2786.00,0.0139
2785.00,0.0139
2784.00,0.0138
2783.00,0.0138
2782.00,0.0138
2781.00,0.0137
2780.00,0.0137
2779.00,0.0137
2778.00,0.0137
2777.00,0.0137
2776.00,0.0137
2775.00,0.0137
2774.00,0.0136
2773.00,0.0136
2772.00,0.0136
2771.00,0.0136
2770.00,0.0135
2769.00,0.0135
2768.00,0.0135
2767.00,0.0135
2766.00,0.0134
2765.00,0.0134
2764.00,0.0134
2763.00,0.0134
2762.00,0.0134
2761.00,0.0134
2760.00,0.0134
2759.00,0.0133
2758.00,0.0133
2757.00,0.0133
