Created as New Dataset,Sample 171 By YargerLab Date Friday, October 03 2025
cm-1,A
4000.00,0.0014
3999.00,0.0014
3998.00,0.0014
3997.00,0.0014
3996.00,0.0014
3995.00,0.0014
3994.00,0.0014
3993.00,0.0014
3992.00,0.0014
3991.00,0.0014
3990.00,0.0014
3989.00,0.0014
3988.00,0.0014
3987.00,0.0014
3986.00,0.0014
3985.00,0.0014
3984.00,0.0013
3983.00,0.0013
3982.00,0.0013
3981.00,0.0013
3980.00,0.0013
3979.00,0.0013
3978.00,0.0013
3977.00,0.0013
3976.00,0.0013
3975.00,0.0013
3974.00,0.0013
3973.00,0.0014
3972.00,0.0014
3971.00,0.0014
3970.00,0.0014
3969.00,0.0014
3968.00,0.0014
3967.00,0.0014
3966.00,0.0014
3965.00,0.0014
3964.00,0.0014
3963.00,0.0013
3962.00,0.0013
3961.00,0.0013
3960.00,0.0013
3959.00,0.0014
3958.00,0.0014
3957.00,0.0014
3956.00,0.0014
3955.00,0.0014
3954.00,0.0014
3953.00,0.0014
3952.00,0.0014
3951.00,0.0014
3950.00,0.0014
3949.00,0.0013
3948.00,0.0013
3947.00,0.0013
3946.00,0.0013
3945.00,0.0013
3944.00,0.0013
3943.00,0.0013
3942.00,0.0013
3941.00,0.0014
3940.00,0.0014
3939.00,0.0014
3938.00,0.0014
3937.00,0.0014
3936.00,0.0014
3935.00,0.0014
3934.00,0.0013
3933.00,0.0013
3932.00,0.0013
3931.00,0.0013
3930.00,0.0013
3929.00,0.0013
3928.00,0.0013
3927.00,0.0013
3926.00,0.0013
3925.00,0.0013
3924.00,0.0013
3923.00,0.0013
3922.00,0.0013
3921.00,0.0013
3920.00,0.0013
3919.00,0.0012
3918.00,0.0012
3917.00,0.0012
3916.00,0.0013
3915.00,0.0013
3914.00,0.0013
3913.00,0.0013
3912.00,0.0013
3911.00,0.0014
3910.00,0.0014
3909.00,0.0014
3908.00,0.0014
3907.00,0.0013
3906.00,0.0013
3905.00,0.0013
3904.00,0.0013
3903.00,0.0012
3902.00,0.0012
3901.00,0.0011
3900.00,0.0011
3899.00,0.0012
3898.00,0.0012
3897.00,0.0012
3896.00,0.0013
3895.00,0.0013
3894.00,0.0013
3893.00,0.0013
3892.00,0.0013
3891.00,0.0013
3890.00,0.0013
3889.00,0.0013
3888.00,0.0012
3887.00,0.0012
3886.00,0.0012
3885.00,0.0013
3884.00,0.0012
3883.00,0.0012
3882.00,0.0012
3881.00,0.0012
3880.00,0.0012
3879.00,0.0013
3878.00,0.0013
3877.00,0.0013
3876.00,0.0013
3875.00,0.0013
3874.00,0.0013
3873.00,0.0013
3872.00,0.0012
3871.00,0.0012
3870.00,0.0012
3869.00,0.0013
3868.00,0.0013
3867.00,0.0013
3866.00,0.0012
3865.00,0.0012
3864.00,0.0012
3863.00,0.0012
3862.00,0.0012
3861.00,0.0012
3860.00,0.0012
3859.00,0.0012
3858.00,0.0013
3857.00,0.0013
3856.00,0.0012
3855.00,0.0012
3854.00,0.0013
3853.00,0.0012
3852.00,0.0012
3851.00,0.0011
3850.00,0.0011
3849.00,0.0012
3848.00,0.0012
3847.00,0.0013
3846.00,0.0013
3845.00,0.0013
3844.00,0.0013
3843.00,0.0012
3842.00,0.0013
3841.00,0.0013
3840.00,0.0013
3839.00,0.0013
3838.00,0.0013
3837.00,0.0013
3836.00,0.0012
3835.00,0.0012
3834.00,0.0012
3833.00,0.0012
3832.00,0.0012
3831.00,0.0013
3830.00,0.0013
3829.00,0.0013
3828.00,0.0013
3827.00,0.0013
3826.00,0.0013
3825.00,0.0013
3824.00,0.0013
3823.00,0.0012
3822.00,0.0012
3821.00,0.0012
3820.00,0.0012
3819.00,0.0012
3818.00,0.0012
3817.00,0.0012
3816.00,0.0012
3815.00,0.0013
3814.00,0.0013
3813.00,0.0013
3812.00,0.0013
3811.00,0.0013
3810.00,0.0013
3809.00,0.0013
3808.00,0.0013
3807.00,0.0014
3806.00,0.0014
3805.00,0.0014
3804.00,0.0014
3803.00,0.0013
3802.00,0.0014
3801.00,0.0014
3800.00,0.0014
3799.00,0.0013
3798.00,0.0013
3797.00,0.0012
3796.00,0.0013
3795.00,0.0013
3794.00,0.0013
3793.00,0.0014
3792.00,0.0014
3791.00,0.0014
3790.00,0.0014
3789.00,0.0014
3788.00,0.0014
3787.00,0.0014
3786.00,0.0014
3785.00,0.0014
3784.00,0.0014
3783.00,0.0014
3782.00,0.0014
3781.00,0.0014
3780.00,0.0014
3779.00,0.0014
3778.00,0.0014
3777.00,0.0014
3776.00,0.0014
3775.00,0.0014
3774.00,0.0014
3773.00,0.0014
3772.00,0.0014
3771.00,0.0013
3770.00,0.0013
3769.00,0.0013
3768.00,0.0013
3767.00,0.0013
3766.00,0.0013
3765.00,0.0013
3764.00,0.0014
3763.00,0.0014
3762.00,0.0014
3761.00,0.0014
3760.00,0.0014
3759.00,0.0014
3758.00,0.0014
3757.00,0.0014
3756.00,0.0013
3755.00,0.0013
3754.00,0.0013
3753.00,0.0013
3752.00,0.0012
3751.00,0.0012
3750.00,0.0012
3749.00,0.0012
3748.00,0.0011
3747.00,0.0011
3746.00,0.0010
3745.00,0.0011
3744.00,0.0012
3743.00,0.0012
3742.00,0.0012
3741.00,0.0012
3740.00,0.0012
3739.00,0.0012
3738.00,0.0012
3737.00,0.0012
3736.00,0.0012
3735.00,0.0012
3734.00,0.0012
3733.00,0.0011
3732.00,0.0012
3731.00,0.0012
3730.00,0.0013
3729.00,0.0013
3728.00,0.0013
3727.00,0.0013
3726.00,0.0013
3725.00,0.0013
3724.00,0.0013
3723.00,0.0012
3722.00,0.0012
3721.00,0.0012
3720.00,0.0013
3719.00,0.0013
3718.00,0.0013
3717.00,0.0013
3716.00,0.0013
3715.00,0.0012
3714.00,0.0012
3713.00,0.0012
3712.00,0.0012
3711.00,0.0012
3710.00,0.0011
3709.00,0.0011
3708.00,0.0012
3707.00,0.0012
3706.00,0.0012
3705.00,0.0013
3704.00,0.0013
3703.00,0.0013
3702.00,0.0013
3701.00,0.0013
3700.00,0.0013
3699.00,0.0013
3698.00,0.0013
3697.00,0.0013
3696.00,0.0013
3695.00,0.0013
3694.00,0.0013
3693.00,0.0013
3692.00,0.0013
3691.00,0.0013
3690.00,0.0012
3689.00,0.0012
3688.00,0.0012
3687.00,0.0012
3686.00,0.0012
3685.00,0.0012
3684.00,0.0013
3683.00,0.0013
3682.00,0.0013
3681.00,0.0013
3680.00,0.0013
3679.00,0.0013
3678.00,0.0012
3677.00,0.0012
3676.00,0.0012
3675.00,0.0012
3674.00,0.0011
3673.00,0.0011
3672.00,0.0011
3671.00,0.0011
3670.00,0.0011
3669.00,0.0012
3668.00,0.0012
3667.00,0.0012
3666.00,0.0012
3665.00,0.0013
3664.00,0.0013
3663.00,0.0013
3662.00,0.0014
3661.00,0.0014
3660.00,0.0014
3659.00,0.0014
3658.00,0.0014
3657.00,0.0014
3656.00,0.0015
3655.00,0.0015
3654.00,0.0015
3653.00,0.0014
3652.00,0.0014
3651.00,0.0013
3650.00,0.0013
3649.00,0.0012
3648.00,0.0012
3647.00,0.0012
3646.00,0.0012
3645.00,0.0012
3644.00,0.0013
3643.00,0.0013
3642.00,0.0014
3641.00,0.0014
3640.00,0.0014
3639.00,0.0014
3638.00,0.0013
3637.00,0.0013
3636.00,0.0013
3635.00,0.0013
3634.00,0.0013
3633.00,0.0013
3632.00,0.0013
3631.00,0.0012
3630.00,0.0012
3629.00,0.0012
3628.00,0.0012
3627.00,0.0012
3626.00,0.0012
3625.00,0.0012
3624.00,0.0013
3623.00,0.0013
3622.00,0.0013
3621.00,0.0013
3620.00,0.0013
3619.00,0.0013
3618.00,0.0013
3617.00,0.0013
3616.00,0.0013
3615.00,0.0013
3614.00,0.0013
3613.00,0.0013
3612.00,0.0013
3611.00,0.0012
3610.00,0.0012
3609.00,0.0012
3608.00,0.0012
3607.00,0.0012
3606.00,0.0012
3605.00,0.0013
3604.00,0.0013
3603.00,0.0013
3602.00,0.0013
3601.00,0.0013
3600.00,0.0013
3599.00,0.0013
3598.00,0.0013
3597.00,0.0013
3596.00,0.0014
3595.00,0.0014
3594.00,0.0014
3593.00,0.0014
3592.00,0.0014
3591.00,0.0014
3590.00,0.0014
3589.00,0.0014
3588.00,0.0014
3587.00,0.0014
3586.00,0.0013
3585.00,0.0013
3584.00,0.0014
3583.00,0.0014
3582.00,0.0014
3581.00,0.0014
3580.00,0.0015
3579.00,0.0015
3578.00,0.0015
3577.00,0.0015
3576.00,0.0015
3575.00,0.0015
3574.00,0.0015
3573.00,0.0015
3572.00,0.0015
3571.00,0.0015
3570.00,0.0015
3569.00,0.0014
3568.00,0.0014
3567.00,0.0014
3566.00,0.0014
3565.00,0.0014
3564.00,0.0014
3563.00,0.0014
3562.00,0.0015
3561.00,0.0015
3560.00,0.0015
3559.00,0.0016
3558.00,0.0016
3557.00,0.0016
3556.00,0.0016
3555.00,0.0016
3554.00,0.0016
3553.00,0.0016
3552.00,0.0016
3551.00,0.0016
3550.00,0.0016
3549.00,0.0016
3548.00,0.0016
3547.00,0.0016
3546.00,0.0017
3545.00,0.0017
3544.00,0.0017
3543.00,0.0017
3542.00,0.0017
3541.00,0.0017
3540.00,0.0017
3539.00,0.0017
3538.00,0.0017
3537.00,0.0017
3536.00,0.0017
3535.00,0.0017
3534.00,0.0017
3533.00,0.0017
3532.00,0.0017
3531.00,0.0017
3530.00,0.0017
3529.00,0.0017
3528.00,0.0018
3527.00,0.0018
3526.00,0.0018
3525.00,0.0018
3524.00,0.0018
3523.00,0.0018
3522.00,0.0018
3521.00,0.0018
3520.00,0.0018
3519.00,0.0018
3518.00,0.0019
3517.00,0.0019
3516.00,0.0019
3515.00,0.0019
3514.00,0.0020
3513.00,0.0020
3512.00,0.0020
3511.00,0.0020
3510.00,0.0020
3509.00,0.0020
3508.00,0.0020
3507.00,0.0020
3506.00,0.0020
3505.00,0.0020
3504.00,0.0020
3503.00,0.0020
3502.00,0.0019
3501.00,0.0019
3500.00,0.0019
3499.00,0.0019
3498.00,0.0019
3497.00,0.0019
3496.00,0.0019
3495.00,0.0020
3494.00,0.0020
3493.00,0.0020
3492.00,0.0020
3491.00,0.0020
3490.00,0.0021
3489.00,0.0021
3488.00,0.0020
3487.00,0.0020
3486.00,0.0020
3485.00,0.0021
3484.00,0.0021
3483.00,0.0021
3482.00,0.0021
3481.00,0.0021
3480.00,0.0021
3479.00,0.0021
3478.00,0.0022
3477.00,0.0022
3476.00,0.0021
3475.00,0.0021
3474.00,0.0021
3473.00,0.0022
3472.00,0.0022
3471.00,0.0022
3470.00,0.0022
3469.00,0.0022
3468.00,0.0022
3467.00,0.0021
3466.00,0.0021
3465.00,0.0022
3464.00,0.0022
3463.00,0.0022
3462.00,0.0022
3461.00,0.0022
3460.00,0.0022
3459.00,0.0022
3458.00,0.0022
3457.00,0.0022
3456.00,0.0022
3455.00,0.0022
3454.00,0.0022
3453.00,0.0022
3452.00,0.0023
3451.00,0.0023
3450.00,0.0023
3449.00,0.0023
3448.00,0.0023
3447.00,0.0023
3446.00,0.0023
3445.00,0.0022
3444.00,0.0023
3443.00,0.0023
3442.00,0.0023
3441.00,0.0023
3440.00,0.0023
3439.00,0.0023
3438.00,0.0023
3437.00,0.0023
3436.00,0.0023
3435.00,0.0023
3434.00,0.0023
3433.00,0.0023
3432.00,0.0023
3431.00,0.0023
3430.00,0.0023
3429.00,0.0023
3428.00,0.0023
3427.00,0.0023
3426.00,0.0023
3425.00,0.0023
3424.00,0.0023
3423.00,0.0023
3422.00,0.0023
3421.00,0.0023
3420.00,0.0023
3419.00,0.0023
3418.00,0.0023
3417.00,0.0023
3416.00,0.0023
3415.00,0.0023
3414.00,0.0023
3413.00,0.0023
3412.00,0.0023
3411.00,0.0023
3410.00,0.0023
3409.00,0.0023
3408.00,0.0023
3407.00,0.0023
3406.00,0.0024
3405.00,0.0024
3404.00,0.0024
3403.00,0.0024
3402.00,0.0024
3401.00,0.0024
3400.00,0.0024
3399.00,0.0024
3398.00,0.0024
3397.00,0.0024
3396.00,0.0024
3395.00,0.0024
3394.00,0.0024
3393.00,0.0024
3392.00,0.0024
3391.00,0.0024
3390.00,0.0024
3389.00,0.0023
3388.00,0.0023
3387.00,0.0023
3386.00,0.0023
3385.00,0.0023
3384.00,0.0024
3383.00,0.0024
3382.00,0.0024
3381.00,0.0024
3380.00,0.0024
3379.00,0.0025
3378.00,0.0025
3377.00,0.0025
3376.00,0.0024
3375.00,0.0024
3374.00,0.0024
3373.00,0.0024
3372.00,0.0024
3371.00,0.0024
3370.00,0.0024
3369.00,0.0024
3368.00,0.0024
3367.00,0.0024
3366.00,0.0024
3365.00,0.0024
3364.00,0.0024
3363.00,0.0024
3362.00,0.0024
3361.00,0.0025
3360.00,0.0025
3359.00,0.0025
3358.00,0.0025
3357.00,0.0024
3356.00,0.0024
3355.00,0.0024
3354.00,0.0025
3353.00,0.0025
3352.00,0.0025
3351.00,0.0025
3350.00,0.0025
3349.00,0.0025
3348.00,0.0025
3347.00,0.0025
3346.00,0.0025
3345.00,0.0025
3344.00,0.0026
3343.00,0.0025
3342.00,0.0025
3341.00,0.0025
3340.00,0.0025
3339.00,0.0025
3338.00,0.0025
3337.00,0.0025
3336.00,0.0025
3335.00,0.0026
3334.00,0.0025
3333.00,0.0025
3332.00,0.0025
3331.00,0.0025
3330.00,0.0025
3329.00,0.0025
3328.00,0.0026
3327.00,0.0026
3326.00,0.0026
3325.00,0.0026
3324.00,0.0026
3323.00,0.0026
3322.00,0.0026
3321.00,0.0026
3320.00,0.0026
3319.00,0.0026
3318.00,0.0026
3317.00,0.0026
3316.00,0.0025
3315.00,0.0025
3314.00,0.0025
3313.00,0.0026
3312.00,0.0026
3311.00,0.0026
3310.00,0.0026
3309.00,0.0026
3308.00,0.0026
3307.00,0.0026
3306.00,0.0026
3305.00,0.0027
3304.00,0.0026
3303.00,0.0026
3302.00,0.0026
3301.00,0.0026
3300.00,0.0026
3299.00,0.0026
3298.00,0.0026
3297.00,0.0026
3296.00,0.0026
3295.00,0.0026
3294.00,0.0026
3293.00,0.0026
3292.00,0.0026
3291.00,0.0026
3290.00,0.0026
3289.00,0.0026
3288.00,0.0026
3287.00,0.0026
3286.00,0.0026
3285.00,0.0026
3284.00,0.0026
3283.00,0.0026
3282.00,0.0026
3281.00,0.0026
3280.00,0.0026
3279.00,0.0026
3278.00,0.0026
3277.00,0.0026
3276.00,0.0026
3275.00,0.0026
3274.00,0.0026
3273.00,0.0026
3272.00,0.0026
3271.00,0.0026
3270.00,0.0026
3269.00,0.0027
3268.00,0.0027
3267.00,0.0026
3266.00,0.0026
3265.00,0.0026
3264.00,0.0026
3263.00,0.0026
3262.00,0.0026
3261.00,0.0026
3260.00,0.0025
3259.00,0.0025
3258.00,0.0025
3257.00,0.0025
3256.00,0.0025
3255.00,0.0025
3254.00,0.0025
3253.00,0.0025
3252.00,0.0025
3251.00,0.0024
3250.00,0.0024
3249.00,0.0024
3248.00,0.0025
3247.00,0.0025
3246.00,0.0025
3245.00,0.0025
3244.00,0.0025
3243.00,0.0024
3242.00,0.0024
3241.00,0.0024
3240.00,0.0024
3239.00,0.0024
3238.00,0.0024
3237.00,0.0024
3236.00,0.0023
3235.00,0.0023
3234.00,0.0023
3233.00,0.0023
3232.00,0.0023
3231.00,0.0023
3230.00,0.0023
3229.00,0.0023
3228.00,0.0024
3227.00,0.0024
3226.00,0.0024
3225.00,0.0023
3224.00,0.0023
3223.00,0.0023
3222.00,0.0024
3221.00,0.0024
3220.00,0.0024
3219.00,0.0024
3218.00,0.0024
3217.00,0.0023
3216.00,0.0023
3215.00,0.0023
3214.00,0.0023
3213.00,0.0023
3212.00,0.0023
3211.00,0.0024
3210.00,0.0024
3209.00,0.0024
3208.00,0.0024
3207.00,0.0024
3206.00,0.0024
3205.00,0.0023
3204.00,0.0023
3203.00,0.0024
3202.00,0.0024
3201.00,0.0024
3200.00,0.0024
3199.00,0.0024
3198.00,0.0023
3197.00,0.0023
3196.00,0.0023
3195.00,0.0023
3194.00,0.0023
3193.00,0.0023
3192.00,0.0023
3191.00,0.0023
3190.00,0.0023
3189.00,0.0023
3188.00,0.0023
3187.00,0.0022
3186.00,0.0022
3185.00,0.0022
3184.00,0.0022
3183.00,0.0022
3182.00,0.0022
3181.00,0.0022
3180.00,0.0022
3179.00,0.0022
3178.00,0.0022
3177.00,0.0022
3176.00,0.0022
3175.00,0.0022
3174.00,0.0022
3173.00,0.0022
3172.00,0.0022
3171.00,0.0022
3170.00,0.0022
3169.00,0.0022
3168.00,0.0022
3167.00,0.0022
3166.00,0.0022
3165.00,0.0023
3164.00,0.0023
3163.00,0.0022
3162.00,0.0022
3161.00,0.0022
3160.00,0.0022
3159.00,0.0022
3158.00,0.0022
3157.00,0.0021
3156.00,0.0021
3155.00,0.0021
3154.00,0.0021
3153.00,0.0021
3152.00,0.0021
3151.00,0.0021
3150.00,0.0021
3149.00,0.0021
3148.00,0.0021
3147.00,0.0021
3146.00,0.0021
3145.00,0.0021
3144.00,0.0021
3143.00,0.0021
3142.00,0.0021
3141.00,0.0021
3140.00,0.0021
3139.00,0.0021
3138.00,0.0020
3137.00,0.0021
3136.00,0.0021
3135.00,0.0021
3134.00,0.0021
3133.00,0.0021
3132.00,0.0021
3131.00,0.0021
3130.00,0.0021
3129.00,0.0021
3128.00,0.0021
3127.00,0.0021
3126.00,0.0021
3125.00,0.0021
3124.00,0.0021
3123.00,0.0021
3122.00,0.0021
3121.00,0.0021
3120.00,0.0022
3119.00,0.0022
3118.00,0.0023
3117.00,0.0023
3116.00,0.0024
3115.00,0.0024
3114.00,0.0025
3113.00,0.0026
3112.00,0.0028
3111.00,0.0029
3110.00,0.0031
3109.00,0.0032
3108.00,0.0034
3107.00,0.0035
3106.00,0.0036
3105.00,0.0037
3104.00,0.0038
3103.00,0.0038
3102.00,0.0038
3101.00,0.0037
3100.00,0.0037
3099.00,0.0036
3098.00,0.0036
3097.00,0.0036
3096.00,0.0036
3095.00,0.0037
3094.00,0.0038
3093.00,0.0040
3092.00,0.0043
3091.00,0.0046
3090.00,0.0050
3089.00,0.0054
3088.00,0.0059
3087.00,0.0064
3086.00,0.0069
3085.00,0.0073
3084.00,0.0076
3083.00,0.0078
3082.00,0.0079
3081.00,0.0077
3080.00,0.0075
3079.00,0.0072
3078.00,0.0069
3077.00,0.0065
3076.00,0.0063
3075.00,0.0061
3074.00,0.0061
3073.00,0.0061
3072.00,0.0062
3071.00,0.0063
3070.00,0.0065
3069.00,0.0068
3068.00,0.0072
3067.00,0.0076
3066.00,0.0081
3065.00,0.0086
3064.00,0.0092
3063.00,0.0096
3062.00,0.0100
3061.00,0.0103
3060.00,0.0104
3059.00,0.0103
3058.00,0.0101
3057.00,0.0097
3056.00,0.0092
3055.00,0.0087
3054.00,0.0082
3053.00,0.0077
3052.00,0.0073
3051.00,0.0069
3050.00,0.0066
3049.00,0.0063
3048.00,0.0061
3047.00,0.0060
3046.00,0.0059
3045.00,0.0059
3044.00,0.0059
3043.00,0.0061
3042.00,0.0062
3041.00,0.0065
3040.00,0.0068
3039.00,0.0072
3038.00,0.0076
3037.00,0.0082
3036.00,0.0089
3035.00,0.0097
3034.00,0.0106
3033.00,0.0117
3032.00,0.0129
3031.00,0.0141
3030.00,0.0154
3029.00,0.0166
3028.00,0.0177
3027.00,0.0185
3026.00,0.0189
3025.00,0.0189
3024.00,0.0185
3023.00,0.0176
3022.00,0.0164
3021.00,0.0150
3020.00,0.0135
3019.00,0.0120
3018.00,0.0107
3017.00,0.0096
3016.00,0.0086
3015.00,0.0078
3014.00,0.0072
3013.00,0.0068
3012.00,0.0064
3011.00,0.0061
3010.00,0.0059
3009.00,0.0059
3008.00,0.0059
3007.00,0.0060
3006.00,0.0061
3005.00,0.0062
3004.00,0.0064
3003.00,0.0065
3002.00,0.0066
3001.00,0.0065
3000.00,0.0064
2999.00,0.0062
2998.00,0.0059
2997.00,0.0056
2996.00,0.0052
2995.00,0.0049
2994.00,0.0047
2993.00,0.0045
2992.00,0.0044
2991.00,0.0043
2990.00,0.0043
2989.00,0.0043
2988.00,0.0043
2987.00,0.0043
2986.00,0.0043
2985.00,0.0043
2984.00,0.0043
2983.00,0.0043
2982.00,0.0044
2981.00,0.0044
2980.00,0.0045
2979.00,0.0046
2978.00,0.0047
2977.00,0.0048
2976.00,0.0048
2975.00,0.0049
2974.00,0.0050
2973.00,0.0051
2972.00,0.0052
2971.00,0.0053
2970.00,0.0055
2969.00,0.0057
2968.00,0.0058
2967.00,0.0060
2966.00,0.0062
2965.00,0.0064
2964.00,0.0066
2963.00,0.0068
2962.00,0.0071
2961.00,0.0073
2960.00,0.0076
2959.00,0.0078
2958.00,0.0081
2957.00,0.0083
2956.00,0.0085
2955.00,0.0087
2954.00,0.0090
2953.00,0.0092
2952.00,0.0095
2951.00,0.0098
2950.00,0.0101
2949.00,0.0105
2948.00,0.0109
2947.00,0.0113
2946.00,0.0118
2945.00,0.0123
2944.00,0.0129
2943.00,0.0136
2942.00,0.0143
2941.00,0.0150
2940.00,0.0158
2939.00,0.0166
2938.00,0.0175
2937.00,0.0184
2936.00,0.0193
2935.00,0.0203
2934.00,0.0213
2933.00,0.0222
2932.00,0.0232
2931.00,0.0241
2930.00,0.0250
2929.00,0.0258
2928.00,0.0266
2927.00,0.0272
2926.00,0.0277
2925.00,0.0282
2924.00,0.0285
2923.00,0.0287
2922.00,0.0288
2921.00,0.0288
2920.00,0.0286
2919.00,0.0284
2918.00,0.0280
2917.00,0.0275
2916.00,0.0269
2915.00,0.0262
2914.00,0.0255
2913.00,0.0247
2912.00,0.0239
2911.00,0.0232
2910.00,0.0224
2909.00,0.0217
2908.00,0.0211
2907.00,0.0204
2906.00,0.0197
2905.00,0.0191
2904.00,0.0185
2903.00,0.0178
2902.00,0.0172
2901.00,0.0165
2900.00,0.0159
2899.00,0.0153
2898.00,0.0148
2897.00,0.0142
2896.00,0.0138
2895.00,0.0133
2894.00,0.0129
2893.00,0.0125
2892.00,0.0122
2891.00,0.0118
2890.00,0.0115
2889.00,0.0112
2888.00,0.0109
2887.00,0.0106
2886.00,0.0104
2885.00,0.0101
2884.00,0.0099
2883.00,0.0097
2882.00,0.0096
2881.00,0.0094
2880.00,0.0093
2879.00,0.0091
2878.00,0.0089
2877.00,0.0088
2876.00,0.0087
2875.00,0.0086
2874.00,0.0086
2873.00,0.0085
2872.00,0.0085
2871.00,0.0085
2870.00,0.0085
2869.00,0.0085
2868.00,0.0086
2867.00,0.0087
2866.00,0.0089
2865.00,0.0091
2864.00,0.0094
2863.00,0.0097
2862.00,0.0101
2861.00,0.0106
2860.00,0.0111
2859.00,0.0116
2858.00,0.0121
2857.00,0.0127
2856.00,0.0132
2855.00,0.0136
2854.00,0.0140
2853.00,0.0143
2852.00,0.0146
2851.00,0.0147
2850.00,0.0146
2849.00,0.0144
2848.00,0.0140
2847.00,0.0134
2846.00,0.0128
2845.00,0.0121
2844.00,0.0114
2843.00,0.0107
2842.00,0.0099
2841.00,0.0092
2840.00,0.0085
2839.00,0.0078
2838.00,0.0072
2837.00,0.0066
2836.00,0.0061
2835.00,0.0057
2834.00,0.0053
2833.00,0.0050
2832.00,0.0048
2831.00,0.0046
2830.00,0.0044
2829.00,0.0042
2828.00,0.0041
2827.00,0.0040
2826.00,0.0039
2825.00,0.0038
2824.00,0.0037
2823.00,0.0037
2822.00,0.0036
2821.00,0.0036
2820.00,0.0035
2819.00,0.0035
2818.00,0.0035
2817.00,0.0034
2816.00,0.0034
2815.00,0.0034
2814.00,0.0033
2813.00,0.0033
2812.00,0.0033
2811.00,0.0032
2810.00,0.0032
2809.00,0.0032
2808.00,0.0032
2807.00,0.0031
2806.00,0.0031
2805.00,0.0031
2804.00,0.0031
2803.00,0.0030
2802.00,0.0030
2801.00,0.0029
2800.00,0.0029
2799.00,0.0029
2798.00,0.0029
2797.00,0.0029
2796.00,0.0029
2795.00,0.0029
2794.00,0.0029
2793.00,0.0029
2792.00,0.0029
2791.00,0.0028
2790.00,0.0028
2789.00,0.0028
2788.00,0.0027
2787.00,0.0027
2786.00,0.0027
2785.00,0.0027
2784.00,0.0027
2783.00,0.0027
2782.00,0.0027
2781.00,0.0027
2780.00,0.0027
2779.00,0.0027
2778.00,0.0027
2777.00,0.0027
2776.00,0.0026
2775.00,0.0026
2774.00,0.0026
2773.00,0.0026
2772.00,0.0026
2771.00,0.0025
2770.00,0.0025
2769.00,0.0025
2768.00,0.0025
2767.00,0.0025
2766.00,0.0025
2765.00,0.0025
2764.00,0.0025
2763.00,0.0024
2762.00,0.0024
2761.00,0.0024
2760.00,0.0024
2759.00,0.0024
2758.00,0.0024
2757.00,0.0024
