Created as New Dataset,Sample 368 By YargerLab Date Friday, November 14 2025
cm-1,A
4000.00,0.0001
3999.00,0.0001
3998.00,0.0001
3997.00,0.0001
3996.00,0.0001
3995.00,0.0001
3994.00,0.0001
3993.00,0.0001
3992.00,0.0001
3991.00,0.0001
3990.00,0.0001
3989.00,0.0001
3988.00,0.0001
3987.00,0.0001
3986.00,0.0001
3985.00,0.0001
3984.00,0.0000
3983.00,0.0000
3982.00,0.0000
3981.00,0.0000
3980.00,0.0000
3979.00,0.0000
3978.00,0.0000
3977.00,0.0000
3976.00,0.0000
3975.00,0.0000
3974.00,0.0000
3973.00,0.0000
3972.00,0.0000
3971.00,0.0000
3970.00,0.0001
3969.00,0.0001
3968.00,0.0001
3967.00,0.0000
3966.00,0.0000
3965.00,0.0000
3964.00,0.0001
3963.00,0.0001
3962.00,0.0000
3961.00,-0.0000
3960.00,-0.0000
3959.00,-0.0000
3958.00,-0.0000
3957.00,-0.0000
3956.00,-0.0000
3955.00,0.0000
3954.00,0.0000
3953.00,0.0000
3952.00,0.0000
3951.00,0.0000
3950.00,0.0000
3949.00,0.0000
3948.00,0.0000
3947.00,0.0000
3946.00,0.0000
3945.00,0.0000
3944.00,-0.0000
3943.00,-0.0000
3942.00,-0.0000
3941.00,0.0000
3940.00,0.0000
3939.00,-0.0000
3938.00,-0.0000
3937.00,-0.0000
3936.00,0.0000
3935.00,0.0000
3934.00,0.0000
3933.00,0.0000
3932.00,0.0000
3931.00,0.0000
3930.00,0.0000
3929.00,0.0000
3928.00,0.0000
3927.00,0.0000
3926.00,0.0000
3925.00,0.0000
3924.00,0.0000
3923.00,0.0000
3922.00,0.0000
3921.00,0.0000
3920.00,0.0000
3919.00,-0.0000
3918.00,-0.0000
3917.00,-0.0000
3916.00,-0.0000
3915.00,0.0000
3914.00,0.0000
3913.00,0.0000
3912.00,0.0000
3911.00,0.0000
3910.00,0.0000
3909.00,0.0000
3908.00,0.0000
3907.00,0.0000
3906.00,0.0000
3905.00,0.0000
3904.00,0.0000
3903.00,0.0000
3902.00,0.0000
3901.00,0.0000
3900.00,0.0000
3899.00,0.0000
3898.00,0.0000
3897.00,0.0000
3896.00,0.0000
3895.00,-0.0000
3894.00,-0.0000
3893.00,-0.0000
3892.00,-0.0000
3891.00,-0.0000
3890.00,-0.0000
3889.00,-0.0000
3888.00,0.0000
3887.00,0.0000
3886.00,0.0000
3885.00,0.0000
3884.00,0.0000
3883.00,0.0000
3882.00,0.0000
3881.00,-0.0000
3880.00,0.0000
3879.00,0.0000
3878.00,0.0000
3877.00,0.0000
3876.00,0.0000
3875.00,0.0000
3874.00,0.0000
3873.00,0.0000
3872.00,0.0000
3871.00,0.0000
3870.00,0.0000
3869.00,0.0000
3868.00,0.0000
3867.00,-0.0000
3866.00,-0.0000
3865.00,-0.0000
3864.00,-0.0000
3863.00,0.0000
3862.00,0.0000
3861.00,0.0000
3860.00,0.0000
3859.00,0.0000
3858.00,0.0000
3857.00,0.0000
3856.00,0.0000
3855.00,0.0000
3854.00,-0.0000
3853.00,-0.0000
3852.00,-0.0000
3851.00,-0.0000
3850.00,-0.0000
3849.00,-0.0000
3848.00,-0.0000
3847.00,-0.0000
3846.00,-0.0000
3845.00,-0.0000
3844.00,0.0000
3843.00,0.0001
3842.00,0.0001
3841.00,0.0001
3840.00,0.0001
3839.00,0.0001
3838.00,0.0001
3837.00,0.0001
3836.00,0.0001
3835.00,0.0001
3834.00,0.0001
3833.00,0.0000
3832.00,0.0000
3831.00,0.0001
3830.00,0.0001
3829.00,0.0001
3828.00,0.0001
3827.00,0.0001
3826.00,0.0001
3825.00,0.0001
3824.00,0.0001
3823.00,0.0001
3822.00,0.0001
3821.00,0.0001
3820.00,0.0000
3819.00,0.0000
3818.00,0.0000
3817.00,0.0000
3816.00,0.0000
3815.00,0.0001
3814.00,0.0001
3813.00,0.0001
3812.00,0.0001
3811.00,0.0001
3810.00,0.0001
3809.00,0.0001
3808.00,0.0001
3807.00,0.0000
3806.00,0.0000
3805.00,0.0001
3804.00,0.0001
3803.00,0.0001
3802.00,0.0001
3801.00,0.0001
3800.00,0.0001
3799.00,0.0001
3798.00,0.0001
3797.00,0.0000
3796.00,0.0000
3795.00,0.0000
3794.00,0.0000
3793.00,0.0000
3792.00,0.0000
3791.00,0.0000
3790.00,0.0000
3789.00,0.0000
3788.00,0.0000
3787.00,0.0000
3786.00,0.0000
3785.00,0.0000
3784.00,0.0000
3783.00,0.0001
3782.00,0.0001
3781.00,0.0000
3780.00,0.0000
3779.00,-0.0000
3778.00,-0.0001
3777.00,-0.0001
3776.00,-0.0001
3775.00,-0.0001
3774.00,-0.0001
3773.00,-0.0000
3772.00,-0.0000
3771.00,0.0000
3770.00,0.0000
3769.00,-0.0000
3768.00,-0.0000
3767.00,-0.0000
3766.00,0.0000
3765.00,0.0000
3764.00,0.0001
3763.00,0.0001
3762.00,0.0001
3761.00,0.0001
3760.00,0.0001
3759.00,0.0001
3758.00,0.0001
3757.00,0.0001
3756.00,0.0001
3755.00,0.0001
3754.00,0.0001
3753.00,0.0001
3752.00,0.0001
3751.00,0.0001
3750.00,0.0001
3749.00,0.0001
3748.00,0.0001
3747.00,0.0001
3746.00,0.0000
3745.00,0.0000
3744.00,0.0000
3743.00,0.0000
3742.00,0.0000
3741.00,0.0000
3740.00,0.0001
3739.00,0.0001
3738.00,0.0001
3737.00,0.0001
3736.00,0.0001
3735.00,0.0001
3734.00,0.0001
3733.00,0.0001
3732.00,0.0001
3731.00,0.0000
3730.00,0.0000
3729.00,0.0000
3728.00,0.0001
3727.00,0.0001
3726.00,0.0001
3725.00,0.0001
3724.00,0.0001
3723.00,0.0000
3722.00,0.0000
3721.00,0.0000
3720.00,0.0000
3719.00,0.0000
3718.00,-0.0000
3717.00,-0.0000
3716.00,-0.0000
3715.00,-0.0000
3714.00,-0.0000
3713.00,0.0000
3712.00,0.0001
3711.00,0.0001
3710.00,0.0000
3709.00,0.0000
3708.00,0.0000
3707.00,0.0000
3706.00,0.0001
3705.00,0.0001
3704.00,0.0001
3703.00,0.0001
3702.00,0.0001
3701.00,0.0001
3700.00,0.0001
3699.00,0.0000
3698.00,-0.0000
3697.00,-0.0000
3696.00,0.0000
3695.00,0.0000
3694.00,0.0000
3693.00,0.0000
3692.00,0.0000
3691.00,0.0000
3690.00,0.0000
3689.00,-0.0000
3688.00,-0.0000
3687.00,-0.0000
3686.00,-0.0000
3685.00,-0.0000
3684.00,-0.0000
3683.00,-0.0000
3682.00,0.0000
3681.00,0.0000
3680.00,0.0001
3679.00,0.0001
3678.00,0.0001
3677.00,0.0001
3676.00,0.0001
3675.00,0.0001
3674.00,0.0001
3673.00,0.0001
3672.00,0.0001
3671.00,0.0001
3670.00,0.0001
3669.00,0.0001
3668.00,0.0000
3667.00,0.0000
3666.00,0.0000
3665.00,0.0001
3664.00,0.0001
3663.00,0.0001
3662.00,0.0001
3661.00,0.0001
3660.00,0.0002
3659.00,0.0002
3658.00,0.0002
3657.00,0.0002
3656.00,0.0002
3655.00,0.0003
3654.00,0.0003
3653.00,0.0003
3652.00,0.0003
3651.00,0.0004
3650.00,0.0004
3649.00,0.0004
3648.00,0.0004
3647.00,0.0004
3646.00,0.0004
3645.00,0.0004
3644.00,0.0003
3643.00,0.0003
3642.00,0.0003
3641.00,0.0003
3640.00,0.0003
3639.00,0.0003
3638.00,0.0003
3637.00,0.0003
3636.00,0.0003
3635.00,0.0003
3634.00,0.0003
3633.00,0.0003
3632.00,0.0003
3631.00,0.0003
3630.00,0.0003
3629.00,0.0003
3628.00,0.0003
3627.00,0.0003
3626.00,0.0003
3625.00,0.0003
3624.00,0.0004
3623.00,0.0004
3622.00,0.0004
3621.00,0.0004
3620.00,0.0004
3619.00,0.0004
3618.00,0.0004
3617.00,0.0004
3616.00,0.0004
3615.00,0.0004
3614.00,0.0003
3613.00,0.0003
3612.00,0.0003
3611.00,0.0003
3610.00,0.0004
3609.00,0.0004
3608.00,0.0004
3607.00,0.0004
3606.00,0.0004
3605.00,0.0004
3604.00,0.0004
3603.00,0.0004
3602.00,0.0004
3601.00,0.0004
3600.00,0.0005
3599.00,0.0005
3598.00,0.0005
3597.00,0.0005
3596.00,0.0005
3595.00,0.0005
3594.00,0.0005
3593.00,0.0005
3592.00,0.0005
3591.00,0.0005
3590.00,0.0005
3589.00,0.0005
3588.00,0.0005
3587.00,0.0005
3586.00,0.0005
3585.00,0.0005
3584.00,0.0005
3583.00,0.0005
3582.00,0.0005
3581.00,0.0005
3580.00,0.0005
3579.00,0.0006
3578.00,0.0006
3577.00,0.0006
3576.00,0.0006
3575.00,0.0007
3574.00,0.0007
3573.00,0.0007
3572.00,0.0007
3571.00,0.0007
3570.00,0.0007
3569.00,0.0007
3568.00,0.0007
3567.00,0.0007
3566.00,0.0007
3565.00,0.0008
3564.00,0.0008
3563.00,0.0008
3562.00,0.0008
3561.00,0.0008
3560.00,0.0008
3559.00,0.0008
3558.00,0.0008
3557.00,0.0009
3556.00,0.0009
3555.00,0.0009
3554.00,0.0009
3553.00,0.0009
3552.00,0.0009
3551.00,0.0009
3550.00,0.0009
3549.00,0.0010
3548.00,0.0010
3547.00,0.0010
3546.00,0.0010
3545.00,0.0010
3544.00,0.0010
3543.00,0.0010
3542.00,0.0010
3541.00,0.0010
3540.00,0.0010
3539.00,0.0010
3538.00,0.0010
3537.00,0.0010
3536.00,0.0010
3535.00,0.0011
3534.00,0.0011
3533.00,0.0011
3532.00,0.0011
3531.00,0.0011
3530.00,0.0012
3529.00,0.0012
3528.00,0.0012
3527.00,0.0012
3526.00,0.0012
3525.00,0.0012
3524.00,0.0012
3523.00,0.0012
3522.00,0.0012
3521.00,0.0013
3520.00,0.0013
3519.00,0.0013
3518.00,0.0013
3517.00,0.0013
3516.00,0.0013
3515.00,0.0013
3514.00,0.0013
3513.00,0.0013
3512.00,0.0013
3511.00,0.0013
3510.00,0.0013
3509.00,0.0013
3508.00,0.0013
3507.00,0.0014
3506.00,0.0014
3505.00,0.0014
3504.00,0.0014
3503.00,0.0014
3502.00,0.0014
3501.00,0.0015
3500.00,0.0015
3499.00,0.0015
3498.00,0.0015
3497.00,0.0015
3496.00,0.0015
3495.00,0.0015
3494.00,0.0015
3493.00,0.0015
3492.00,0.0016
3491.00,0.0016
3490.00,0.0016
3489.00,0.0016
3488.00,0.0016
3487.00,0.0016
3486.00,0.0016
3485.00,0.0017
3484.00,0.0017
3483.00,0.0017
3482.00,0.0017
3481.00,0.0017
3480.00,0.0018
3479.00,0.0018
3478.00,0.0018
3477.00,0.0018
3476.00,0.0018
3475.00,0.0018
3474.00,0.0018
3473.00,0.0018
3472.00,0.0018
3471.00,0.0018
3470.00,0.0018
3469.00,0.0018
3468.00,0.0018
3467.00,0.0018
3466.00,0.0018
3465.00,0.0019
3464.00,0.0019
3463.00,0.0019
3462.00,0.0019
3461.00,0.0019
3460.00,0.0019
3459.00,0.0019
3458.00,0.0019
3457.00,0.0019
3456.00,0.0019
3455.00,0.0019
3454.00,0.0019
3453.00,0.0019
3452.00,0.0019
3451.00,0.0019
3450.00,0.0019
3449.00,0.0019
3448.00,0.0019
3447.00,0.0020
3446.00,0.0020
3445.00,0.0020
3444.00,0.0020
3443.00,0.0020
3442.00,0.0020
3441.00,0.0019
3440.00,0.0019
3439.00,0.0019
3438.00,0.0019
3437.00,0.0020
3436.00,0.0020
3435.00,0.0020
3434.00,0.0020
3433.00,0.0020
3432.00,0.0020
3431.00,0.0021
3430.00,0.0021
3429.00,0.0021
3428.00,0.0021
3427.00,0.0021
3426.00,0.0021
3425.00,0.0021
3424.00,0.0021
3423.00,0.0021
3422.00,0.0021
3421.00,0.0021
3420.00,0.0021
3419.00,0.0021
3418.00,0.0021
3417.00,0.0021
3416.00,0.0021
3415.00,0.0021
3414.00,0.0021
3413.00,0.0021
3412.00,0.0021
3411.00,0.0021
3410.00,0.0021
3409.00,0.0021
3408.00,0.0021
3407.00,0.0022
3406.00,0.0022
3405.00,0.0022
3404.00,0.0022
3403.00,0.0022
3402.00,0.0022
3401.00,0.0022
3400.00,0.0022
3399.00,0.0022
3398.00,0.0022
3397.00,0.0022
3396.00,0.0022
3395.00,0.0023
3394.00,0.0023
3393.00,0.0023
3392.00,0.0023
3391.00,0.0023
3390.00,0.0023
3389.00,0.0023
3388.00,0.0023
3387.00,0.0023
3386.00,0.0023
3385.00,0.0024
3384.00,0.0024
3383.00,0.0024
3382.00,0.0024
3381.00,0.0024
3380.00,0.0024
3379.00,0.0024
3378.00,0.0024
3377.00,0.0024
3376.00,0.0024
3375.00,0.0024
3374.00,0.0024
3373.00,0.0024
3372.00,0.0024
3371.00,0.0024
3370.00,0.0024
3369.00,0.0025
3368.00,0.0025
3367.00,0.0025
3366.00,0.0025
3365.00,0.0025
3364.00,0.0025
3363.00,0.0025
3362.00,0.0025
3361.00,0.0025
3360.00,0.0025
3359.00,0.0025
3358.00,0.0025
3357.00,0.0025
3356.00,0.0026
3355.00,0.0026
3354.00,0.0026
3353.00,0.0026
3352.00,0.0026
3351.00,0.0026
3350.00,0.0026
3349.00,0.0026
3348.00,0.0026
3347.00,0.0026
3346.00,0.0026
3345.00,0.0026
3344.00,0.0026
3343.00,0.0026
3342.00,0.0026
3341.00,0.0027
3340.00,0.0027
3339.00,0.0027
3338.00,0.0027
3337.00,0.0026
3336.00,0.0026
3335.00,0.0026
3334.00,0.0026
3333.00,0.0026
3332.00,0.0026
3331.00,0.0027
3330.00,0.0027
3329.00,0.0027
3328.00,0.0027
3327.00,0.0027
3326.00,0.0027
3325.00,0.0027
3324.00,0.0028
3323.00,0.0028
3322.00,0.0028
3321.00,0.0028
3320.00,0.0028
3319.00,0.0028
3318.00,0.0028
3317.00,0.0028
3316.00,0.0028
3315.00,0.0028
3314.00,0.0028
3313.00,0.0028
3312.00,0.0028
3311.00,0.0028
3310.00,0.0028
3309.00,0.0028
3308.00,0.0028
3307.00,0.0028
3306.00,0.0028
3305.00,0.0028
3304.00,0.0028
3303.00,0.0028
3302.00,0.0028
3301.00,0.0028
3300.00,0.0028
3299.00,0.0028
3298.00,0.0028
3297.00,0.0029
3296.00,0.0029
3295.00,0.0028
3294.00,0.0028
3293.00,0.0028
3292.00,0.0028
3291.00,0.0028
3290.00,0.0028
3289.00,0.0028
3288.00,0.0028
3287.00,0.0028
3286.00,0.0028
3285.00,0.0028
3284.00,0.0028
3283.00,0.0028
3282.00,0.0028
3281.00,0.0028
3280.00,0.0028
3279.00,0.0028
3278.00,0.0027
3277.00,0.0027
3276.00,0.0027
3275.00,0.0027
3274.00,0.0027
3273.00,0.0027
3272.00,0.0026
3271.00,0.0026
3270.00,0.0026
3269.00,0.0026
3268.00,0.0026
3267.00,0.0026
3266.00,0.0026
3265.00,0.0026
3264.00,0.0026
3263.00,0.0026
3262.00,0.0025
3261.00,0.0025
3260.00,0.0025
3259.00,0.0025
3258.00,0.0025
3257.00,0.0025
3256.00,0.0025
3255.00,0.0025
3254.00,0.0025
3253.00,0.0025
3252.00,0.0025
3251.00,0.0024
3250.00,0.0024
3249.00,0.0024
3248.00,0.0024
3247.00,0.0023
3246.00,0.0023
3245.00,0.0023
3244.00,0.0023
3243.00,0.0023
3242.00,0.0022
3241.00,0.0022
3240.00,0.0022
3239.00,0.0022
3238.00,0.0022
3237.00,0.0022
3236.00,0.0022
3235.00,0.0023
3234.00,0.0023
3233.00,0.0023
3232.00,0.0023
3231.00,0.0023
3230.00,0.0022
3229.00,0.0022
3228.00,0.0021
3227.00,0.0021
3226.00,0.0021
3225.00,0.0021
3224.00,0.0021
3223.00,0.0021
3222.00,0.0021
3221.00,0.0021
3220.00,0.0021
3219.00,0.0021
3218.00,0.0021
3217.00,0.0021
3216.00,0.0021
3215.00,0.0022
3214.00,0.0022
3213.00,0.0022
3212.00,0.0022
3211.00,0.0022
3210.00,0.0022
3209.00,0.0022
3208.00,0.0022
3207.00,0.0022
3206.00,0.0022
3205.00,0.0022
3204.00,0.0022
3203.00,0.0022
3202.00,0.0022
3201.00,0.0022
3200.00,0.0022
3199.00,0.0021
3198.00,0.0021
3197.00,0.0021
3196.00,0.0020
3195.00,0.0020
3194.00,0.0020
3193.00,0.0020
3192.00,0.0019
3191.00,0.0019
3190.00,0.0019
3189.00,0.0019
3188.00,0.0019
3187.00,0.0019
3186.00,0.0019
3185.00,0.0019
3184.00,0.0018
3183.00,0.0018
3182.00,0.0018
3181.00,0.0018
3180.00,0.0018
3179.00,0.0018
3178.00,0.0018
3177.00,0.0018
3176.00,0.0018
3175.00,0.0017
3174.00,0.0017
3173.00,0.0017
3172.00,0.0017
3171.00,0.0018
3170.00,0.0018
3169.00,0.0018
3168.00,0.0018
3167.00,0.0018
3166.00,0.0019
3165.00,0.0019
3164.00,0.0019
3163.00,0.0019
3162.00,0.0019
3161.00,0.0019
3160.00,0.0019
3159.00,0.0018
3158.00,0.0018
3157.00,0.0017
3156.00,0.0017
3155.00,0.0016
3154.00,0.0016
3153.00,0.0016
3152.00,0.0016
3151.00,0.0016
3150.00,0.0016
3149.00,0.0016
3148.00,0.0016
3147.00,0.0016
3146.00,0.0016
3145.00,0.0015
3144.00,0.0015
3143.00,0.0015
3142.00,0.0015
3141.00,0.0015
3140.00,0.0015
3139.00,0.0015
3138.00,0.0015
3137.00,0.0015
3136.00,0.0015
3135.00,0.0015
3134.00,0.0015
3133.00,0.0015
3132.00,0.0015
3131.00,0.0015
3130.00,0.0015
3129.00,0.0015
3128.00,0.0015
3127.00,0.0015
3126.00,0.0015
3125.00,0.0016
3124.00,0.0016
3123.00,0.0016
3122.00,0.0016
3121.00,0.0017
3120.00,0.0017
3119.00,0.0018
3118.00,0.0018
3117.00,0.0019
3116.00,0.0020
3115.00,0.0021
3114.00,0.0023
3113.00,0.0025
3112.00,0.0027
3111.00,0.0029
3110.00,0.0032
3109.00,0.0035
3108.00,0.0038
3107.00,0.0041
3106.00,0.0043
3105.00,0.0045
3104.00,0.0047
3103.00,0.0047
3102.00,0.0047
3101.00,0.0047
3100.00,0.0046
3099.00,0.0045
3098.00,0.0044
3097.00,0.0044
3096.00,0.0044
3095.00,0.0044
3094.00,0.0046
3093.00,0.0049
3092.00,0.0053
3091.00,0.0059
3090.00,0.0065
3089.00,0.0073
3088.00,0.0083
3087.00,0.0093
3086.00,0.0103
3085.00,0.0112
3084.00,0.0120
3083.00,0.0125
3082.00,0.0126
3081.00,0.0124
3080.00,0.0119
3079.00,0.0113
3078.00,0.0106
3077.00,0.0100
3076.00,0.0095
3075.00,0.0091
3074.00,0.0089
3073.00,0.0089
3072.00,0.0090
3071.00,0.0092
3070.00,0.0096
3069.00,0.0102
3068.00,0.0109
3067.00,0.0117
3066.00,0.0127
3065.00,0.0138
3064.00,0.0149
3063.00,0.0160
3062.00,0.0169
3061.00,0.0175
3060.00,0.0178
3059.00,0.0177
3058.00,0.0172
3057.00,0.0165
3056.00,0.0155
3055.00,0.0144
3054.00,0.0133
3053.00,0.0123
3052.00,0.0114
3051.00,0.0106
3050.00,0.0099
3049.00,0.0094
3048.00,0.0089
3047.00,0.0086
3046.00,0.0084
3045.00,0.0084
3044.00,0.0084
3043.00,0.0086
3042.00,0.0089
3041.00,0.0093
3040.00,0.0098
3039.00,0.0105
3038.00,0.0114
3037.00,0.0124
3036.00,0.0136
3035.00,0.0151
3034.00,0.0169
3033.00,0.0190
3032.00,0.0213
3031.00,0.0239
3030.00,0.0265
3029.00,0.0292
3028.00,0.0315
3027.00,0.0333
3026.00,0.0344
3025.00,0.0346
3024.00,0.0337
3023.00,0.0319
3022.00,0.0294
3021.00,0.0264
3020.00,0.0232
3019.00,0.0201
3018.00,0.0173
3017.00,0.0149
3016.00,0.0129
3015.00,0.0113
3014.00,0.0099
3013.00,0.0089
3012.00,0.0080
3011.00,0.0075
3010.00,0.0071
3009.00,0.0069
3008.00,0.0069
3007.00,0.0071
3006.00,0.0074
3005.00,0.0077
3004.00,0.0081
3003.00,0.0085
3002.00,0.0087
3001.00,0.0087
3000.00,0.0086
2999.00,0.0082
2998.00,0.0077
2997.00,0.0071
2996.00,0.0065
2995.00,0.0060
2994.00,0.0055
2993.00,0.0051
2992.00,0.0049
2991.00,0.0047
2990.00,0.0045
2989.00,0.0044
2988.00,0.0044
2987.00,0.0043
2986.00,0.0043
2985.00,0.0043
2984.00,0.0043
2983.00,0.0043
2982.00,0.0043
2981.00,0.0043
2980.00,0.0044
2979.00,0.0044
2978.00,0.0045
2977.00,0.0046
2976.00,0.0047
2975.00,0.0048
2974.00,0.0049
2973.00,0.0050
2972.00,0.0051
2971.00,0.0052
2970.00,0.0054
2969.00,0.0056
2968.00,0.0058
2967.00,0.0060
2966.00,0.0062
2965.00,0.0065
2964.00,0.0067
2963.00,0.0070
2962.00,0.0073
2961.00,0.0076
2960.00,0.0080
2959.00,0.0083
2958.00,0.0087
2957.00,0.0091
2956.00,0.0095
2955.00,0.0099
2954.00,0.0104
2953.00,0.0109
2952.00,0.0114
2951.00,0.0120
2950.00,0.0126
2949.00,0.0133
2948.00,0.0140
2947.00,0.0148
2946.00,0.0156
2945.00,0.0165
2944.00,0.0174
2943.00,0.0184
2942.00,0.0195
2941.00,0.0207
2940.00,0.0220
2939.00,0.0234
2938.00,0.0248
2937.00,0.0263
2936.00,0.0279
2935.00,0.0296
2934.00,0.0313
2933.00,0.0330
2932.00,0.0347
2931.00,0.0364
2930.00,0.0381
2929.00,0.0397
2928.00,0.0411
2927.00,0.0424
2926.00,0.0436
2925.00,0.0445
2924.00,0.0453
2923.00,0.0458
2922.00,0.0461
2921.00,0.0461
2920.00,0.0458
2919.00,0.0453
2918.00,0.0446
2917.00,0.0436
2916.00,0.0424
2915.00,0.0411
2914.00,0.0399
2913.00,0.0386
2912.00,0.0374
2911.00,0.0361
2910.00,0.0349
2909.00,0.0337
2908.00,0.0325
2907.00,0.0313
2906.00,0.0301
2905.00,0.0289
2904.00,0.0277
2903.00,0.0265
2902.00,0.0254
2901.00,0.0243
2900.00,0.0231
2899.00,0.0220
2898.00,0.0210
2897.00,0.0200
2896.00,0.0191
2895.00,0.0184
2894.00,0.0176
2893.00,0.0170
2892.00,0.0164
2891.00,0.0159
2890.00,0.0154
2889.00,0.0149
2888.00,0.0145
2887.00,0.0141
2886.00,0.0137
2885.00,0.0133
2884.00,0.0130
2883.00,0.0126
2882.00,0.0123
2881.00,0.0120
2880.00,0.0117
2879.00,0.0114
2878.00,0.0112
2877.00,0.0109
2876.00,0.0106
2875.00,0.0104
2874.00,0.0102
2873.00,0.0100
2872.00,0.0099
2871.00,0.0098
2870.00,0.0097
2869.00,0.0097
2868.00,0.0097
2867.00,0.0099
2866.00,0.0101
2865.00,0.0104
2864.00,0.0108
2863.00,0.0113
2862.00,0.0118
2861.00,0.0124
2860.00,0.0131
2859.00,0.0139
2858.00,0.0146
2857.00,0.0154
2856.00,0.0161
2855.00,0.0168
2854.00,0.0175
2853.00,0.0180
2852.00,0.0184
2851.00,0.0185
2850.00,0.0184
2849.00,0.0182
2848.00,0.0178
2847.00,0.0173
2846.00,0.0166
2845.00,0.0158
2844.00,0.0148
2843.00,0.0137
2842.00,0.0126
2841.00,0.0113
2840.00,0.0101
2839.00,0.0090
2838.00,0.0079
2837.00,0.0070
2836.00,0.0062
2835.00,0.0056
2834.00,0.0050
2833.00,0.0045
2832.00,0.0042
2831.00,0.0038
2830.00,0.0036
2829.00,0.0034
2828.00,0.0032
2827.00,0.0031
2826.00,0.0030
2825.00,0.0029
2824.00,0.0028
2823.00,0.0027
2822.00,0.0027
2821.00,0.0026
2820.00,0.0026
2819.00,0.0026
2818.00,0.0026
2817.00,0.0026
2816.00,0.0025
2815.00,0.0025
2814.00,0.0025
2813.00,0.0024
2812.00,0.0024
2811.00,0.0024
2810.00,0.0024
2809.00,0.0024
2808.00,0.0023
2807.00,0.0023
2806.00,0.0023
2805.00,0.0022
2804.00,0.0022
2803.00,0.0022
2802.00,0.0021
2801.00,0.0021
2800.00,0.0021
2799.00,0.0020
2798.00,0.0020
2797.00,0.0020
2796.00,0.0019
2795.00,0.0019
2794.00,0.0019
2793.00,0.0018
2792.00,0.0018
2791.00,0.0018
2790.00,0.0018
2789.00,0.0018
2788.00,0.0018
2787.00,0.0018
2786.00,0.0018
2785.00,0.0018
2784.00,0.0018
2783.00,0.0018
2782.00,0.0017
2781.00,0.0017
2780.00,0.0017
2779.00,0.0017
2778.00,0.0017
2777.00,0.0017
2776.00,0.0017
2775.00,0.0016
2774.00,0.0016
2773.00,0.0016
2772.00,0.0016
2771.00,0.0015
2770.00,0.0015
2769.00,0.0015
2768.00,0.0015
2767.00,0.0015
2766.00,0.0014
2765.00,0.0014
2764.00,0.0014
2763.00,0.0013
2762.00,0.0013
2761.00,0.0013
