Created as New Dataset,Sample 594 By YargerLab Date Thursday, June 05 2025
cm-1,A
4000.00,0.0096
3999.00,0.0096
3998.00,0.0096
3997.00,0.0096
3996.00,0.0095
3995.00,0.0096
3994.00,0.0095
3993.00,0.0095
3992.00,0.0095
3991.00,0.0095
3990.00,0.0095
3989.00,0.0096
3988.00,0.0096
3987.00,0.0096
3986.00,0.0096
3985.00,0.0096
3984.00,0.0096
3983.00,0.0096
3982.00,0.0095
3981.00,0.0095
3980.00,0.0095
3979.00,0.0095
3978.00,0.0095
3977.00,0.0095
3976.00,0.0095
3975.00,0.0095
3974.00,0.0096
3973.00,0.0096
3972.00,0.0096
3971.00,0.0096
3970.00,0.0096
3969.00,0.0096
3968.00,0.0096
3967.00,0.0096
3966.00,0.0095
3965.00,0.0095
3964.00,0.0095
3963.00,0.0095
3962.00,0.0095
3961.00,0.0095
3960.00,0.0095
3959.00,0.0095
3958.00,0.0095
3957.00,0.0095
3956.00,0.0095
3955.00,0.0095
3954.00,0.0095
3953.00,0.0095
3952.00,0.0095
3951.00,0.0095
3950.00,0.0095
3949.00,0.0095
3948.00,0.0095
3947.00,0.0095
3946.00,0.0095
3945.00,0.0095
3944.00,0.0095
3943.00,0.0095
3942.00,0.0095
3941.00,0.0095
3940.00,0.0095
3939.00,0.0095
3938.00,0.0095
3937.00,0.0095
3936.00,0.0095
3935.00,0.0095
3934.00,0.0095
3933.00,0.0095
3932.00,0.0095
3931.00,0.0095
3930.00,0.0094
3929.00,0.0094
3928.00,0.0094
3927.00,0.0094
3926.00,0.0094
3925.00,0.0094
3924.00,0.0094
3923.00,0.0094
3922.00,0.0094
3921.00,0.0094
3920.00,0.0094
3919.00,0.0094
3918.00,0.0094
3917.00,0.0094
3916.00,0.0094
3915.00,0.0094
3914.00,0.0094
3913.00,0.0094
3912.00,0.0094
3911.00,0.0094
3910.00,0.0094
3909.00,0.0094
3908.00,0.0094
3907.00,0.0094
3906.00,0.0094
3905.00,0.0094
3904.00,0.0094
3903.00,0.0094
3902.00,0.0093
3901.00,0.0093
3900.00,0.0094
3899.00,0.0094
3898.00,0.0094
3897.00,0.0094
3896.00,0.0094
3895.00,0.0093
3894.00,0.0093
3893.00,0.0093
3892.00,0.0093
3891.00,0.0092
3890.00,0.0092
3889.00,0.0092
3888.00,0.0092
3887.00,0.0093
3886.00,0.0093
3885.00,0.0093
3884.00,0.0093
3883.00,0.0092
3882.00,0.0092
3881.00,0.0092
3880.00,0.0092
3879.00,0.0092
3878.00,0.0092
3877.00,0.0092
3876.00,0.0092
3875.00,0.0092
3874.00,0.0091
3873.00,0.0091
3872.00,0.0091
3871.00,0.0091
3870.00,0.0091
3869.00,0.0091
3868.00,0.0091
3867.00,0.0091
3866.00,0.0091
3865.00,0.0091
3864.00,0.0092
3863.00,0.0092
3862.00,0.0092
3861.00,0.0092
3860.00,0.0091
3859.00,0.0091
3858.00,0.0091
3857.00,0.0091
3856.00,0.0090
3855.00,0.0090
3854.00,0.0089
3853.00,0.0089
3852.00,0.0089
3851.00,0.0089
3850.00,0.0090
3849.00,0.0090
3848.00,0.0090
3847.00,0.0090
3846.00,0.0090
3845.00,0.0090
3844.00,0.0090
3843.00,0.0090
3842.00,0.0090
3841.00,0.0090
3840.00,0.0089
3839.00,0.0089
3838.00,0.0089
3837.00,0.0089
3836.00,0.0089
3835.00,0.0089
3834.00,0.0089
3833.00,0.0090
3832.00,0.0090
3831.00,0.0090
3830.00,0.0090
3829.00,0.0090
3828.00,0.0090
3827.00,0.0090
3826.00,0.0090
3825.00,0.0089
3824.00,0.0089
3823.00,0.0089
3822.00,0.0089
3821.00,0.0089
3820.00,0.0089
3819.00,0.0088
3818.00,0.0088
3817.00,0.0088
3816.00,0.0088
3815.00,0.0089
3814.00,0.0089
3813.00,0.0089
3812.00,0.0089
3811.00,0.0089
3810.00,0.0089
3809.00,0.0089
3808.00,0.0089
3807.00,0.0088
3806.00,0.0088
3805.00,0.0088
3804.00,0.0088
3803.00,0.0088
3802.00,0.0088
3801.00,0.0088
3800.00,0.0088
3799.00,0.0088
3798.00,0.0088
3797.00,0.0088
3796.00,0.0089
3795.00,0.0089
3794.00,0.0089
3793.00,0.0089
3792.00,0.0089
3791.00,0.0089
3790.00,0.0089
3789.00,0.0089
3788.00,0.0089
3787.00,0.0089
3786.00,0.0089
3785.00,0.0089
3784.00,0.0089
3783.00,0.0088
3782.00,0.0088
3781.00,0.0088
3780.00,0.0088
3779.00,0.0088
3778.00,0.0088
3777.00,0.0088
3776.00,0.0088
3775.00,0.0088
3774.00,0.0088
3773.00,0.0089
3772.00,0.0089
3771.00,0.0089
3770.00,0.0089
3769.00,0.0088
3768.00,0.0088
3767.00,0.0088
3766.00,0.0088
3765.00,0.0088
3764.00,0.0088
3763.00,0.0088
3762.00,0.0088
3761.00,0.0088
3760.00,0.0088
3759.00,0.0088
3758.00,0.0088
3757.00,0.0088
3756.00,0.0088
3755.00,0.0088
3754.00,0.0088
3753.00,0.0087
3752.00,0.0087
3751.00,0.0087
3750.00,0.0086
3749.00,0.0086
3748.00,0.0085
3747.00,0.0085
3746.00,0.0085
3745.00,0.0086
3744.00,0.0086
3743.00,0.0086
3742.00,0.0086
3741.00,0.0086
3740.00,0.0085
3739.00,0.0085
3738.00,0.0085
3737.00,0.0085
3736.00,0.0085
3735.00,0.0085
3734.00,0.0085
3733.00,0.0085
3732.00,0.0085
3731.00,0.0085
3730.00,0.0085
3729.00,0.0086
3728.00,0.0086
3727.00,0.0086
3726.00,0.0086
3725.00,0.0086
3724.00,0.0086
3723.00,0.0086
3722.00,0.0086
3721.00,0.0086
3720.00,0.0086
3719.00,0.0086
3718.00,0.0086
3717.00,0.0086
3716.00,0.0086
3715.00,0.0085
3714.00,0.0085
3713.00,0.0085
3712.00,0.0085
3711.00,0.0085
3710.00,0.0085
3709.00,0.0085
3708.00,0.0085
3707.00,0.0085
3706.00,0.0085
3705.00,0.0085
3704.00,0.0085
3703.00,0.0086
3702.00,0.0086
3701.00,0.0086
3700.00,0.0086
3699.00,0.0086
3698.00,0.0086
3697.00,0.0086
3696.00,0.0085
3695.00,0.0085
3694.00,0.0085
3693.00,0.0085
3692.00,0.0085
3691.00,0.0084
3690.00,0.0084
3689.00,0.0085
3688.00,0.0085
3687.00,0.0086
3686.00,0.0086
3685.00,0.0086
3684.00,0.0086
3683.00,0.0086
3682.00,0.0086
3681.00,0.0087
3680.00,0.0087
3679.00,0.0086
3678.00,0.0086
3677.00,0.0086
3676.00,0.0087
3675.00,0.0087
3674.00,0.0087
3673.00,0.0087
3672.00,0.0087
3671.00,0.0088
3670.00,0.0089
3669.00,0.0090
3668.00,0.0090
3667.00,0.0090
3666.00,0.0091
3665.00,0.0091
3664.00,0.0091
3663.00,0.0091
3662.00,0.0092
3661.00,0.0092
3660.00,0.0092
3659.00,0.0093
3658.00,0.0093
3657.00,0.0093
3656.00,0.0094
3655.00,0.0094
3654.00,0.0094
3653.00,0.0094
3652.00,0.0094
3651.00,0.0094
3650.00,0.0094
3649.00,0.0095
3648.00,0.0096
3647.00,0.0097
3646.00,0.0097
3645.00,0.0098
3644.00,0.0098
3643.00,0.0099
3642.00,0.0100
3641.00,0.0100
3640.00,0.0101
3639.00,0.0102
3638.00,0.0102
3637.00,0.0103
3636.00,0.0103
3635.00,0.0104
3634.00,0.0105
3633.00,0.0105
3632.00,0.0105
3631.00,0.0106
3630.00,0.0106
3629.00,0.0107
3628.00,0.0108
3627.00,0.0108
3626.00,0.0109
3625.00,0.0110
3624.00,0.0111
3623.00,0.0111
3622.00,0.0112
3621.00,0.0112
3620.00,0.0113
3619.00,0.0114
3618.00,0.0114
3617.00,0.0115
3616.00,0.0115
3615.00,0.0116
3614.00,0.0117
3613.00,0.0117
3612.00,0.0118
3611.00,0.0119
3610.00,0.0120
3609.00,0.0121
3608.00,0.0122
3607.00,0.0123
3606.00,0.0123
3605.00,0.0124
3604.00,0.0124
3603.00,0.0125
3602.00,0.0126
3601.00,0.0126
3600.00,0.0127
3599.00,0.0128
3598.00,0.0129
3597.00,0.0130
3596.00,0.0130
3595.00,0.0131
3594.00,0.0132
3593.00,0.0133
3592.00,0.0134
3591.00,0.0134
3590.00,0.0135
3589.00,0.0136
3588.00,0.0137
3587.00,0.0137
3586.00,0.0138
3585.00,0.0139
3584.00,0.0140
3583.00,0.0141
3582.00,0.0142
3581.00,0.0143
3580.00,0.0144
3579.00,0.0145
3578.00,0.0146
3577.00,0.0147
3576.00,0.0147
3575.00,0.0149
3574.00,0.0150
3573.00,0.0151
3572.00,0.0152
3571.00,0.0152
3570.00,0.0153
3569.00,0.0154
3568.00,0.0155
3567.00,0.0156
3566.00,0.0157
3565.00,0.0159
3564.00,0.0160
3563.00,0.0161
3562.00,0.0162
3561.00,0.0163
3560.00,0.0164
3559.00,0.0165
3558.00,0.0166
3557.00,0.0167
3556.00,0.0168
3555.00,0.0169
3554.00,0.0170
3553.00,0.0171
3552.00,0.0172
3551.00,0.0173
3550.00,0.0174
3549.00,0.0175
3548.00,0.0176
3547.00,0.0177
3546.00,0.0178
3545.00,0.0180
3544.00,0.0181
3543.00,0.0182
3542.00,0.0182
3541.00,0.0183
3540.00,0.0184
3539.00,0.0185
3538.00,0.0186
3537.00,0.0187
3536.00,0.0188
3535.00,0.0189
3534.00,0.0190
3533.00,0.0191
3532.00,0.0192
3531.00,0.0193
3530.00,0.0194
3529.00,0.0195
3528.00,0.0197
3527.00,0.0198
3526.00,0.0199
3525.00,0.0200
3524.00,0.0201
3523.00,0.0202
3522.00,0.0203
3521.00,0.0204
3520.00,0.0205
3519.00,0.0206
3518.00,0.0207
3517.00,0.0208
3516.00,0.0209
3515.00,0.0210
3514.00,0.0211
3513.00,0.0212
3512.00,0.0213
3511.00,0.0214
3510.00,0.0215
3509.00,0.0216
3508.00,0.0218
3507.00,0.0219
3506.00,0.0220
3505.00,0.0221
3504.00,0.0222
3503.00,0.0223
3502.00,0.0225
3501.00,0.0226
3500.00,0.0228
3499.00,0.0229
3498.00,0.0230
3497.00,0.0231
3496.00,0.0232
3495.00,0.0233
3494.00,0.0234
3493.00,0.0236
3492.00,0.0237
3491.00,0.0238
3490.00,0.0239
3489.00,0.0240
3488.00,0.0242
3487.00,0.0243
3486.00,0.0245
3485.00,0.0246
3484.00,0.0247
3483.00,0.0248
3482.00,0.0250
3481.00,0.0251
3480.00,0.0252
3479.00,0.0253
3478.00,0.0255
3477.00,0.0256
3476.00,0.0257
3475.00,0.0258
3474.00,0.0260
3473.00,0.0261
3472.00,0.0263
3471.00,0.0265
3470.00,0.0267
3469.00,0.0268
3468.00,0.0270
3467.00,0.0272
3466.00,0.0274
3465.00,0.0275
3464.00,0.0277
3463.00,0.0279
3462.00,0.0282
3461.00,0.0285
3460.00,0.0288
3459.00,0.0291
3458.00,0.0294
3457.00,0.0298
3456.00,0.0301
3455.00,0.0305
3454.00,0.0309
3453.00,0.0313
3452.00,0.0317
3451.00,0.0319
3450.00,0.0322
3449.00,0.0324
3448.00,0.0325
3447.00,0.0326
3446.00,0.0326
3445.00,0.0325
3444.00,0.0325
3443.00,0.0324
3442.00,0.0323
3441.00,0.0322
3440.00,0.0322
3439.00,0.0321
3438.00,0.0320
3437.00,0.0320
3436.00,0.0319
3435.00,0.0319
3434.00,0.0319
3433.00,0.0319
3432.00,0.0320
3431.00,0.0321
3430.00,0.0322
3429.00,0.0323
3428.00,0.0324
3427.00,0.0325
3426.00,0.0326
3425.00,0.0327
3424.00,0.0328
3423.00,0.0329
3422.00,0.0331
3421.00,0.0332
3420.00,0.0333
3419.00,0.0335
3418.00,0.0336
3417.00,0.0338
3416.00,0.0339
3415.00,0.0341
3414.00,0.0342
3413.00,0.0344
3412.00,0.0345
3411.00,0.0347
3410.00,0.0348
3409.00,0.0350
3408.00,0.0352
3407.00,0.0353
3406.00,0.0355
3405.00,0.0356
3404.00,0.0358
3403.00,0.0360
3402.00,0.0361
3401.00,0.0363
3400.00,0.0365
3399.00,0.0367
3398.00,0.0369
3397.00,0.0370
3396.00,0.0372
3395.00,0.0373
3394.00,0.0374
3393.00,0.0376
3392.00,0.0378
3391.00,0.0380
3390.00,0.0382
3389.00,0.0384
3388.00,0.0386
3387.00,0.0388
3386.00,0.0390
3385.00,0.0392
3384.00,0.0394
3383.00,0.0396
3382.00,0.0398
3381.00,0.0400
3380.00,0.0403
3379.00,0.0405
3378.00,0.0407
3377.00,0.0409
3376.00,0.0411
3375.00,0.0413
3374.00,0.0415
3373.00,0.0418
3372.00,0.0420
3371.00,0.0423
3370.00,0.0425
3369.00,0.0427
3368.00,0.0430
3367.00,0.0433
3366.00,0.0435
3365.00,0.0438
3364.00,0.0441
3363.00,0.0444
3362.00,0.0447
3361.00,0.0450
3360.00,0.0452
3359.00,0.0455
3358.00,0.0458
3357.00,0.0460
3356.00,0.0463
3355.00,0.0465
3354.00,0.0468
3353.00,0.0470
3352.00,0.0473
3351.00,0.0476
3350.00,0.0479
3349.00,0.0482
3348.00,0.0486
3347.00,0.0489
3346.00,0.0491
3345.00,0.0494
3344.00,0.0497
3343.00,0.0499
3342.00,0.0502
3341.00,0.0504
3340.00,0.0507
3339.00,0.0510
3338.00,0.0513
3337.00,0.0516
3336.00,0.0519
3335.00,0.0522
3334.00,0.0525
3333.00,0.0528
3332.00,0.0531
3331.00,0.0534
3330.00,0.0536
3329.00,0.0539
3328.00,0.0542
3327.00,0.0544
3326.00,0.0547
3325.00,0.0551
3324.00,0.0554
3323.00,0.0557
3322.00,0.0560
3321.00,0.0563
3320.00,0.0566
3319.00,0.0568
3318.00,0.0571
3317.00,0.0573
3316.00,0.0576
3315.00,0.0578
3314.00,0.0581
3313.00,0.0583
3312.00,0.0585
3311.00,0.0587
3310.00,0.0588
3309.00,0.0590
3308.00,0.0591
3307.00,0.0593
3306.00,0.0596
3305.00,0.0599
3304.00,0.0602
3303.00,0.0605
3302.00,0.0608
3301.00,0.0610
3300.00,0.0611
3299.00,0.0612
3298.00,0.0613
3297.00,0.0614
3296.00,0.0615
3295.00,0.0616
3294.00,0.0616
3293.00,0.0618
3292.00,0.0619
3291.00,0.0621
3290.00,0.0622
3289.00,0.0623
3288.00,0.0623
3287.00,0.0623
3286.00,0.0624
3285.00,0.0623
3284.00,0.0623
3283.00,0.0623
3282.00,0.0623
3281.00,0.0622
3280.00,0.0621
3279.00,0.0620
3278.00,0.0618
3277.00,0.0616
3276.00,0.0615
3275.00,0.0612
3274.00,0.0610
3273.00,0.0608
3272.00,0.0605
3271.00,0.0603
3270.00,0.0602
3269.00,0.0600
3268.00,0.0599
3267.00,0.0597
3266.00,0.0594
3265.00,0.0591
3264.00,0.0589
3263.00,0.0586
3262.00,0.0583
3261.00,0.0580
3260.00,0.0577
3259.00,0.0573
3258.00,0.0569
3257.00,0.0566
3256.00,0.0563
3255.00,0.0560
3254.00,0.0557
3253.00,0.0554
3252.00,0.0551
3251.00,0.0548
3250.00,0.0545
3249.00,0.0542
3248.00,0.0538
3247.00,0.0535
3246.00,0.0532
3245.00,0.0530
3244.00,0.0527
3243.00,0.0525
3242.00,0.0522
3241.00,0.0519
3240.00,0.0517
3239.00,0.0514
3238.00,0.0512
3237.00,0.0509
3236.00,0.0507
3235.00,0.0505
3234.00,0.0503
3233.00,0.0501
3232.00,0.0500
3231.00,0.0499
3230.00,0.0497
3229.00,0.0496
3228.00,0.0494
3227.00,0.0492
3226.00,0.0490
3225.00,0.0489
3224.00,0.0488
3223.00,0.0486
3222.00,0.0485
3221.00,0.0484
3220.00,0.0483
3219.00,0.0482
3218.00,0.0481
3217.00,0.0480
3216.00,0.0478
3215.00,0.0477
3214.00,0.0477
3213.00,0.0476
3212.00,0.0475
3211.00,0.0474
3210.00,0.0472
3209.00,0.0471
3208.00,0.0470
3207.00,0.0469
3206.00,0.0468
3205.00,0.0467
3204.00,0.0466
3203.00,0.0464
3202.00,0.0463
3201.00,0.0462
3200.00,0.0460
3199.00,0.0459
3198.00,0.0458
3197.00,0.0456
3196.00,0.0454
3195.00,0.0453
3194.00,0.0451
3193.00,0.0450
3192.00,0.0448
3191.00,0.0447
3190.00,0.0445
3189.00,0.0444
3188.00,0.0442
3187.00,0.0441
3186.00,0.0439
3185.00,0.0437
3184.00,0.0436
3183.00,0.0434
3182.00,0.0432
3181.00,0.0430
3180.00,0.0428
3179.00,0.0425
3178.00,0.0423
3177.00,0.0421
3176.00,0.0419
3175.00,0.0417
3174.00,0.0416
3173.00,0.0414
3172.00,0.0412
3171.00,0.0411
3170.00,0.0408
3169.00,0.0406
3168.00,0.0404
3167.00,0.0402
3166.00,0.0401
3165.00,0.0399
3164.00,0.0397
3163.00,0.0396
3162.00,0.0394
3161.00,0.0392
3160.00,0.0390
3159.00,0.0388
3158.00,0.0387
3157.00,0.0385
3156.00,0.0383
3155.00,0.0381
3154.00,0.0379
3153.00,0.0377
3152.00,0.0375
3151.00,0.0374
3150.00,0.0373
3149.00,0.0372
3148.00,0.0371
3147.00,0.0370
3146.00,0.0369
3145.00,0.0368
3144.00,0.0366
3143.00,0.0364
3142.00,0.0363
3141.00,0.0361
3140.00,0.0360
3139.00,0.0359
3138.00,0.0358
3137.00,0.0357
3136.00,0.0356
3135.00,0.0356
3134.00,0.0355
3133.00,0.0353
3132.00,0.0352
3131.00,0.0351
3130.00,0.0350
3129.00,0.0349
3128.00,0.0349
3127.00,0.0348
3126.00,0.0348
3125.00,0.0347
3124.00,0.0346
3123.00,0.0345
3122.00,0.0343
3121.00,0.0342
3120.00,0.0342
3119.00,0.0341
3118.00,0.0341
3117.00,0.0341
3116.00,0.0341
3115.00,0.0341
3114.00,0.0342
3113.00,0.0342
3112.00,0.0342
3111.00,0.0342
3110.00,0.0341
3109.00,0.0341
3108.00,0.0341
3107.00,0.0342
3106.00,0.0343
3105.00,0.0343
3104.00,0.0343
3103.00,0.0343
3102.00,0.0343
3101.00,0.0343
3100.00,0.0343
3099.00,0.0344
3098.00,0.0345
3097.00,0.0346
3096.00,0.0346
3095.00,0.0347
3094.00,0.0347
3093.00,0.0347
3092.00,0.0347
3091.00,0.0347
3090.00,0.0348
3089.00,0.0348
3088.00,0.0349
3087.00,0.0349
3086.00,0.0350
3085.00,0.0350
3084.00,0.0350
3083.00,0.0350
3082.00,0.0351
3081.00,0.0351
3080.00,0.0352
3079.00,0.0352
3078.00,0.0354
3077.00,0.0355
3076.00,0.0356
3075.00,0.0358
3074.00,0.0359
3073.00,0.0359
3072.00,0.0359
3071.00,0.0359
3070.00,0.0358
3069.00,0.0358
3068.00,0.0358
3067.00,0.0358
3066.00,0.0358
3065.00,0.0358
3064.00,0.0358
3063.00,0.0358
3062.00,0.0358
3061.00,0.0357
3060.00,0.0356
3059.00,0.0355
3058.00,0.0353
3057.00,0.0352
3056.00,0.0351
3055.00,0.0350
3054.00,0.0348
3053.00,0.0347
3052.00,0.0346
3051.00,0.0345
3050.00,0.0345
3049.00,0.0344
3048.00,0.0343
3047.00,0.0341
3046.00,0.0339
3045.00,0.0337
3044.00,0.0336
3043.00,0.0335
3042.00,0.0334
3041.00,0.0333
3040.00,0.0333
3039.00,0.0332
3038.00,0.0331
3037.00,0.0329
3036.00,0.0327
3035.00,0.0326
3034.00,0.0325
3033.00,0.0324
3032.00,0.0323
3031.00,0.0322
3030.00,0.0321
3029.00,0.0320
3028.00,0.0319
3027.00,0.0317
3026.00,0.0316
3025.00,0.0314
3024.00,0.0312
3023.00,0.0311
3022.00,0.0310
3021.00,0.0308
3020.00,0.0307
3019.00,0.0305
3018.00,0.0303
3017.00,0.0301
3016.00,0.0300
3015.00,0.0298
3014.00,0.0297
3013.00,0.0296
3012.00,0.0296
3011.00,0.0295
3010.00,0.0295
3009.00,0.0295
3008.00,0.0294
3007.00,0.0293
3006.00,0.0293
3005.00,0.0292
3004.00,0.0291
3003.00,0.0291
3002.00,0.0291
3001.00,0.0291
3000.00,0.0291
2999.00,0.0291
2998.00,0.0291
2997.00,0.0292
2996.00,0.0293
2995.00,0.0294
2994.00,0.0296
2993.00,0.0298
2992.00,0.0300
2991.00,0.0302
2990.00,0.0305
2989.00,0.0308
2988.00,0.0311
2987.00,0.0314
2986.00,0.0316
2985.00,0.0319
2984.00,0.0321
2983.00,0.0323
2982.00,0.0326
2981.00,0.0330
2980.00,0.0335
2979.00,0.0340
2978.00,0.0346
2977.00,0.0351
2976.00,0.0356
2975.00,0.0360
2974.00,0.0365
2973.00,0.0369
2972.00,0.0373
2971.00,0.0378
2970.00,0.0382
2969.00,0.0387
2968.00,0.0391
2967.00,0.0395
2966.00,0.0399
2965.00,0.0402
2964.00,0.0405
2963.00,0.0407
2962.00,0.0408
2961.00,0.0409
2960.00,0.0409
2959.00,0.0409
2958.00,0.0407
2957.00,0.0406
2956.00,0.0404
2955.00,0.0402
2954.00,0.0399
2953.00,0.0396
2952.00,0.0394
2951.00,0.0391
2950.00,0.0389
2949.00,0.0387
2948.00,0.0385
2947.00,0.0384
2946.00,0.0383
2945.00,0.0384
2944.00,0.0385
2943.00,0.0387
2942.00,0.0389
2941.00,0.0392
2940.00,0.0395
2939.00,0.0397
2938.00,0.0400
2937.00,0.0403
2936.00,0.0405
2935.00,0.0407
2934.00,0.0409
2933.00,0.0410
2932.00,0.0412
2931.00,0.0413
2930.00,0.0414
2929.00,0.0415
2928.00,0.0416
2927.00,0.0416
2926.00,0.0415
2925.00,0.0413
2924.00,0.0412
2923.00,0.0409
2922.00,0.0407
2921.00,0.0404
2920.00,0.0401
2919.00,0.0397
2918.00,0.0393
2917.00,0.0389
2916.00,0.0384
2915.00,0.0379
2914.00,0.0373
2913.00,0.0368
2912.00,0.0363
2911.00,0.0358
2910.00,0.0353
2909.00,0.0349
2908.00,0.0344
2907.00,0.0340
2906.00,0.0336
2905.00,0.0332
2904.00,0.0329
2903.00,0.0326
2902.00,0.0323
2901.00,0.0321
2900.00,0.0318
2899.00,0.0315
2898.00,0.0313
2897.00,0.0311
2896.00,0.0308
2895.00,0.0307
2894.00,0.0305
2893.00,0.0304
2892.00,0.0302
2891.00,0.0301
2890.00,0.0300
2889.00,0.0300
2888.00,0.0300
2887.00,0.0300
2886.00,0.0300
2885.00,0.0301
2884.00,0.0302
2883.00,0.0303
2882.00,0.0305
2881.00,0.0306
2880.00,0.0308
2879.00,0.0310
2878.00,0.0311
2877.00,0.0312
2876.00,0.0313
2875.00,0.0314
2874.00,0.0314
2873.00,0.0313
2872.00,0.0313
2871.00,0.0311
2870.00,0.0309
2869.00,0.0307
2868.00,0.0304
2867.00,0.0301
2866.00,0.0297
2865.00,0.0294
2864.00,0.0291
2863.00,0.0289
2862.00,0.0287
2861.00,0.0285
2860.00,0.0284
2859.00,0.0283
2858.00,0.0282
2857.00,0.0280
2856.00,0.0279
2855.00,0.0277
2854.00,0.0276
2853.00,0.0274
2852.00,0.0272
2851.00,0.0270
2850.00,0.0267
2849.00,0.0264
2848.00,0.0261
2847.00,0.0258
2846.00,0.0256
2845.00,0.0253
2844.00,0.0251
2843.00,0.0249
2842.00,0.0247
2841.00,0.0245
2840.00,0.0243
2839.00,0.0242
2838.00,0.0241
2837.00,0.0240
2836.00,0.0239
2835.00,0.0239
2834.00,0.0238
2833.00,0.0237
2832.00,0.0237
2831.00,0.0236
2830.00,0.0234
2829.00,0.0233
2828.00,0.0232
2827.00,0.0230
2826.00,0.0229
2825.00,0.0228
2824.00,0.0227
2823.00,0.0226
2822.00,0.0225
2821.00,0.0224
2820.00,0.0223
2819.00,0.0222
2818.00,0.0222
2817.00,0.0221
2816.00,0.0220
2815.00,0.0220
2814.00,0.0219
2813.00,0.0218
2812.00,0.0217
2811.00,0.0217
2810.00,0.0216
2809.00,0.0216
2808.00,0.0215
2807.00,0.0214
2806.00,0.0214
2805.00,0.0213
2804.00,0.0213
2803.00,0.0212
2802.00,0.0212
2801.00,0.0211
2800.00,0.0210
2799.00,0.0209
2798.00,0.0209
2797.00,0.0208
2796.00,0.0208
2795.00,0.0207
2794.00,0.0206
2793.00,0.0206
2792.00,0.0205
2791.00,0.0204
2790.00,0.0204
2789.00,0.0203
2788.00,0.0203
2787.00,0.0203
2786.00,0.0202
2785.00,0.0202
2784.00,0.0201
2783.00,0.0201
2782.00,0.0200
2781.00,0.0199
2780.00,0.0199
2779.00,0.0198
2778.00,0.0198
2777.00,0.0197
2776.00,0.0196
2775.00,0.0196
2774.00,0.0195
2773.00,0.0195
2772.00,0.0195
2771.00,0.0194
2770.00,0.0194
2769.00,0.0193
2768.00,0.0193
2767.00,0.0192
2766.00,0.0192
2765.00,0.0191
2764.00,0.0191
2763.00,0.0190
2762.00,0.0190
2761.00,0.0189
2760.00,0.0189
2759.00,0.0189
2758.00,0.0188
2757.00,0.0188
