Created as New Dataset,Sample 457 By YargerLab Date Saturday, March 01 2025
cm-1,A
4000.00,-0.0092
3999.00,-0.0092
3998.00,-0.0092
3997.00,-0.0092
3996.00,-0.0092
3995.00,-0.0092
3994.00,-0.0092
3993.00,-0.0092
3992.00,-0.0092
3991.00,-0.0092
3990.00,-0.0092
3989.00,-0.0092
3988.00,-0.0093
3987.00,-0.0093
3986.00,-0.0093
3985.00,-0.0093
3984.00,-0.0093
3983.00,-0.0093
3982.00,-0.0092
3981.00,-0.0092
3980.00,-0.0092
3979.00,-0.0092
3978.00,-0.0092
3977.00,-0.0092
3976.00,-0.0093
3975.00,-0.0093
3974.00,-0.0093
3973.00,-0.0093
3972.00,-0.0094
3971.00,-0.0093
3970.00,-0.0093
3969.00,-0.0093
3968.00,-0.0093
3967.00,-0.0093
3966.00,-0.0093
3965.00,-0.0093
3964.00,-0.0093
3963.00,-0.0093
3962.00,-0.0094
3961.00,-0.0094
3960.00,-0.0094
3959.00,-0.0094
3958.00,-0.0094
3957.00,-0.0093
3956.00,-0.0093
3955.00,-0.0093
3954.00,-0.0094
3953.00,-0.0094
3952.00,-0.0094
3951.00,-0.0094
3950.00,-0.0094
3949.00,-0.0094
3948.00,-0.0094
3947.00,-0.0094
3946.00,-0.0094
3945.00,-0.0094
3944.00,-0.0094
3943.00,-0.0094
3942.00,-0.0094
3941.00,-0.0094
3940.00,-0.0094
3939.00,-0.0094
3938.00,-0.0095
3937.00,-0.0095
3936.00,-0.0095
3935.00,-0.0095
3934.00,-0.0095
3933.00,-0.0095
3932.00,-0.0095
3931.00,-0.0095
3930.00,-0.0095
3929.00,-0.0095
3928.00,-0.0095
3927.00,-0.0095
3926.00,-0.0095
3925.00,-0.0095
3924.00,-0.0095
3923.00,-0.0095
3922.00,-0.0095
3921.00,-0.0095
3920.00,-0.0095
3919.00,-0.0096
3918.00,-0.0096
3917.00,-0.0096
3916.00,-0.0095
3915.00,-0.0095
3914.00,-0.0095
3913.00,-0.0095
3912.00,-0.0095
3911.00,-0.0096
3910.00,-0.0096
3909.00,-0.0096
3908.00,-0.0096
3907.00,-0.0096
3906.00,-0.0096
3905.00,-0.0097
3904.00,-0.0097
3903.00,-0.0097
3902.00,-0.0097
3901.00,-0.0097
3900.00,-0.0098
3899.00,-0.0098
3898.00,-0.0098
3897.00,-0.0098
3896.00,-0.0098
3895.00,-0.0097
3894.00,-0.0097
3893.00,-0.0097
3892.00,-0.0097
3891.00,-0.0097
3890.00,-0.0097
3889.00,-0.0097
3888.00,-0.0097
3887.00,-0.0097
3886.00,-0.0097
3885.00,-0.0097
3884.00,-0.0097
3883.00,-0.0098
3882.00,-0.0098
3881.00,-0.0098
3880.00,-0.0097
3879.00,-0.0097
3878.00,-0.0097
3877.00,-0.0097
3876.00,-0.0097
3875.00,-0.0097
3874.00,-0.0098
3873.00,-0.0098
3872.00,-0.0099
3871.00,-0.0099
3870.00,-0.0099
3869.00,-0.0099
3868.00,-0.0100
3867.00,-0.0100
3866.00,-0.0100
3865.00,-0.0100
3864.00,-0.0099
3863.00,-0.0099
3862.00,-0.0099
3861.00,-0.0099
3860.00,-0.0100
3859.00,-0.0100
3858.00,-0.0100
3857.00,-0.0100
3856.00,-0.0100
3855.00,-0.0100
3854.00,-0.0100
3853.00,-0.0100
3852.00,-0.0100
3851.00,-0.0100
3850.00,-0.0099
3849.00,-0.0099
3848.00,-0.0099
3847.00,-0.0100
3846.00,-0.0100
3845.00,-0.0100
3844.00,-0.0101
3843.00,-0.0101
3842.00,-0.0101
3841.00,-0.0101
3840.00,-0.0101
3839.00,-0.0101
3838.00,-0.0100
3837.00,-0.0101
3836.00,-0.0101
3835.00,-0.0101
3834.00,-0.0101
3833.00,-0.0101
3832.00,-0.0101
3831.00,-0.0101
3830.00,-0.0101
3829.00,-0.0101
3828.00,-0.0101
3827.00,-0.0101
3826.00,-0.0101
3825.00,-0.0101
3824.00,-0.0101
3823.00,-0.0101
3822.00,-0.0102
3821.00,-0.0102
3820.00,-0.0101
3819.00,-0.0101
3818.00,-0.0101
3817.00,-0.0101
3816.00,-0.0101
3815.00,-0.0101
3814.00,-0.0101
3813.00,-0.0101
3812.00,-0.0101
3811.00,-0.0102
3810.00,-0.0102
3809.00,-0.0102
3808.00,-0.0102
3807.00,-0.0103
3806.00,-0.0103
3805.00,-0.0102
3804.00,-0.0102
3803.00,-0.0102
3802.00,-0.0102
3801.00,-0.0102
3800.00,-0.0102
3799.00,-0.0102
3798.00,-0.0102
3797.00,-0.0102
3796.00,-0.0103
3795.00,-0.0103
3794.00,-0.0103
3793.00,-0.0103
3792.00,-0.0103
3791.00,-0.0103
3790.00,-0.0103
3789.00,-0.0103
3788.00,-0.0103
3787.00,-0.0103
3786.00,-0.0103
3785.00,-0.0103
3784.00,-0.0103
3783.00,-0.0102
3782.00,-0.0102
3781.00,-0.0102
3780.00,-0.0102
3779.00,-0.0103
3778.00,-0.0103
3777.00,-0.0104
3776.00,-0.0104
3775.00,-0.0104
3774.00,-0.0104
3773.00,-0.0104
3772.00,-0.0104
3771.00,-0.0104
3770.00,-0.0104
3769.00,-0.0104
3768.00,-0.0104
3767.00,-0.0104
3766.00,-0.0103
3765.00,-0.0104
3764.00,-0.0104
3763.00,-0.0104
3762.00,-0.0104
3761.00,-0.0104
3760.00,-0.0105
3759.00,-0.0105
3758.00,-0.0105
3757.00,-0.0105
3756.00,-0.0105
3755.00,-0.0105
3754.00,-0.0104
3753.00,-0.0104
3752.00,-0.0104
3751.00,-0.0104
3750.00,-0.0105
3749.00,-0.0105
3748.00,-0.0105
3747.00,-0.0105
3746.00,-0.0105
3745.00,-0.0105
3744.00,-0.0106
3743.00,-0.0106
3742.00,-0.0106
3741.00,-0.0106
3740.00,-0.0106
3739.00,-0.0106
3738.00,-0.0106
3737.00,-0.0106
3736.00,-0.0106
3735.00,-0.0106
3734.00,-0.0106
3733.00,-0.0106
3732.00,-0.0107
3731.00,-0.0107
3730.00,-0.0107
3729.00,-0.0107
3728.00,-0.0107
3727.00,-0.0107
3726.00,-0.0106
3725.00,-0.0106
3724.00,-0.0106
3723.00,-0.0106
3722.00,-0.0106
3721.00,-0.0106
3720.00,-0.0106
3719.00,-0.0106
3718.00,-0.0106
3717.00,-0.0107
3716.00,-0.0107
3715.00,-0.0107
3714.00,-0.0107
3713.00,-0.0107
3712.00,-0.0107
3711.00,-0.0107
3710.00,-0.0107
3709.00,-0.0107
3708.00,-0.0107
3707.00,-0.0106
3706.00,-0.0106
3705.00,-0.0106
3704.00,-0.0107
3703.00,-0.0107
3702.00,-0.0108
3701.00,-0.0108
3700.00,-0.0108
3699.00,-0.0108
3698.00,-0.0108
3697.00,-0.0108
3696.00,-0.0108
3695.00,-0.0107
3694.00,-0.0107
3693.00,-0.0107
3692.00,-0.0107
3691.00,-0.0107
3690.00,-0.0107
3689.00,-0.0108
3688.00,-0.0108
3687.00,-0.0108
3686.00,-0.0108
3685.00,-0.0108
3684.00,-0.0108
3683.00,-0.0109
3682.00,-0.0109
3681.00,-0.0109
3680.00,-0.0109
3679.00,-0.0109
3678.00,-0.0109
3677.00,-0.0109
3676.00,-0.0109
3675.00,-0.0109
3674.00,-0.0109
3673.00,-0.0109
3672.00,-0.0109
3671.00,-0.0109
3670.00,-0.0109
3669.00,-0.0108
3668.00,-0.0108
3667.00,-0.0107
3666.00,-0.0107
3665.00,-0.0107
3664.00,-0.0107
3663.00,-0.0107
3662.00,-0.0106
3661.00,-0.0106
3660.00,-0.0107
3659.00,-0.0107
3658.00,-0.0107
3657.00,-0.0107
3656.00,-0.0107
3655.00,-0.0107
3654.00,-0.0107
3653.00,-0.0106
3652.00,-0.0106
3651.00,-0.0106
3650.00,-0.0106
3649.00,-0.0106
3648.00,-0.0106
3647.00,-0.0106
3646.00,-0.0105
3645.00,-0.0105
3644.00,-0.0105
3643.00,-0.0104
3642.00,-0.0104
3641.00,-0.0104
3640.00,-0.0103
3639.00,-0.0103
3638.00,-0.0103
3637.00,-0.0103
3636.00,-0.0103
3635.00,-0.0103
3634.00,-0.0103
3633.00,-0.0102
3632.00,-0.0102
3631.00,-0.0102
3630.00,-0.0102
3629.00,-0.0101
3628.00,-0.0101
3627.00,-0.0101
3626.00,-0.0101
3625.00,-0.0100
3624.00,-0.0100
3623.00,-0.0100
3622.00,-0.0100
3621.00,-0.0099
3620.00,-0.0099
3619.00,-0.0099
3618.00,-0.0098
3617.00,-0.0098
3616.00,-0.0098
3615.00,-0.0098
3614.00,-0.0098
3613.00,-0.0099
3612.00,-0.0099
3611.00,-0.0099
3610.00,-0.0099
3609.00,-0.0099
3608.00,-0.0099
3607.00,-0.0099
3606.00,-0.0098
3605.00,-0.0097
3604.00,-0.0097
3603.00,-0.0097
3602.00,-0.0096
3601.00,-0.0096
3600.00,-0.0095
3599.00,-0.0095
3598.00,-0.0095
3597.00,-0.0095
3596.00,-0.0095
3595.00,-0.0094
3594.00,-0.0094
3593.00,-0.0094
3592.00,-0.0093
3591.00,-0.0093
3590.00,-0.0093
3589.00,-0.0093
3588.00,-0.0092
3587.00,-0.0092
3586.00,-0.0091
3585.00,-0.0091
3584.00,-0.0091
3583.00,-0.0091
3582.00,-0.0092
3581.00,-0.0092
3580.00,-0.0092
3579.00,-0.0091
3578.00,-0.0091
3577.00,-0.0091
3576.00,-0.0090
3575.00,-0.0090
3574.00,-0.0089
3573.00,-0.0089
3572.00,-0.0089
3571.00,-0.0089
3570.00,-0.0088
3569.00,-0.0088
3568.00,-0.0088
3567.00,-0.0088
3566.00,-0.0087
3565.00,-0.0087
3564.00,-0.0086
3563.00,-0.0086
3562.00,-0.0086
3561.00,-0.0086
3560.00,-0.0086
3559.00,-0.0086
3558.00,-0.0085
3557.00,-0.0085
3556.00,-0.0085
3555.00,-0.0085
3554.00,-0.0084
3553.00,-0.0084
3552.00,-0.0084
3551.00,-0.0083
3550.00,-0.0083
3549.00,-0.0083
3548.00,-0.0083
3547.00,-0.0082
3546.00,-0.0082
3545.00,-0.0081
3544.00,-0.0081
3543.00,-0.0081
3542.00,-0.0080
3541.00,-0.0080
3540.00,-0.0080
3539.00,-0.0080
3538.00,-0.0080
3537.00,-0.0080
3536.00,-0.0080
3535.00,-0.0080
3534.00,-0.0079
3533.00,-0.0079
3532.00,-0.0079
3531.00,-0.0078
3530.00,-0.0078
3529.00,-0.0078
3528.00,-0.0077
3527.00,-0.0077
3526.00,-0.0077
3525.00,-0.0077
3524.00,-0.0077
3523.00,-0.0076
3522.00,-0.0076
3521.00,-0.0075
3520.00,-0.0075
3519.00,-0.0074
3518.00,-0.0074
3517.00,-0.0073
3516.00,-0.0073
3515.00,-0.0073
3514.00,-0.0072
3513.00,-0.0072
3512.00,-0.0072
3511.00,-0.0071
3510.00,-0.0071
3509.00,-0.0071
3508.00,-0.0070
3507.00,-0.0070
3506.00,-0.0069
3505.00,-0.0069
3504.00,-0.0069
3503.00,-0.0069
3502.00,-0.0068
3501.00,-0.0068
3500.00,-0.0067
3499.00,-0.0067
3498.00,-0.0066
3497.00,-0.0066
3496.00,-0.0066
3495.00,-0.0065
3494.00,-0.0065
3493.00,-0.0064
3492.00,-0.0064
3491.00,-0.0063
3490.00,-0.0063
3489.00,-0.0062
3488.00,-0.0062
3487.00,-0.0061
3486.00,-0.0061
3485.00,-0.0060
3484.00,-0.0060
3483.00,-0.0059
3482.00,-0.0059
3481.00,-0.0058
3480.00,-0.0058
3479.00,-0.0057
3478.00,-0.0057
3477.00,-0.0057
3476.00,-0.0057
3475.00,-0.0056
3474.00,-0.0055
3473.00,-0.0055
3472.00,-0.0054
3471.00,-0.0053
3470.00,-0.0053
3469.00,-0.0053
3468.00,-0.0052
3467.00,-0.0052
3466.00,-0.0052
3465.00,-0.0051
3464.00,-0.0051
3463.00,-0.0050
3462.00,-0.0049
3461.00,-0.0049
3460.00,-0.0048
3459.00,-0.0048
3458.00,-0.0048
3457.00,-0.0047
3456.00,-0.0047
3455.00,-0.0046
3454.00,-0.0045
3453.00,-0.0045
3452.00,-0.0044
3451.00,-0.0044
3450.00,-0.0043
3449.00,-0.0043
3448.00,-0.0043
3447.00,-0.0042
3446.00,-0.0042
3445.00,-0.0042
3444.00,-0.0041
3443.00,-0.0041
3442.00,-0.0041
3441.00,-0.0040
3440.00,-0.0039
3439.00,-0.0038
3438.00,-0.0037
3437.00,-0.0036
3436.00,-0.0035
3435.00,-0.0035
3434.00,-0.0034
3433.00,-0.0034
3432.00,-0.0033
3431.00,-0.0033
3430.00,-0.0033
3429.00,-0.0032
3428.00,-0.0032
3427.00,-0.0031
3426.00,-0.0030
3425.00,-0.0029
3424.00,-0.0028
3423.00,-0.0027
3422.00,-0.0027
3421.00,-0.0026
3420.00,-0.0025
3419.00,-0.0025
3418.00,-0.0024
3417.00,-0.0024
3416.00,-0.0023
3415.00,-0.0023
3414.00,-0.0022
3413.00,-0.0022
3412.00,-0.0021
3411.00,-0.0021
3410.00,-0.0020
3409.00,-0.0020
3408.00,-0.0020
3407.00,-0.0019
3406.00,-0.0019
3405.00,-0.0018
3404.00,-0.0017
3403.00,-0.0016
3402.00,-0.0016
3401.00,-0.0015
3400.00,-0.0014
3399.00,-0.0013
3398.00,-0.0013
3397.00,-0.0012
3396.00,-0.0011
3395.00,-0.0010
3394.00,-0.0010
3393.00,-0.0009
3392.00,-0.0008
3391.00,-0.0008
3390.00,-0.0007
3389.00,-0.0006
3388.00,-0.0005
3387.00,-0.0005
3386.00,-0.0004
3385.00,-0.0004
3384.00,-0.0003
3383.00,-0.0002
3382.00,-0.0002
3381.00,-0.0001
3380.00,-0.0000
3379.00,0.0001
3378.00,0.0002
3377.00,0.0003
3376.00,0.0004
3375.00,0.0005
3374.00,0.0006
3373.00,0.0007
3372.00,0.0008
3371.00,0.0009
3370.00,0.0010
3369.00,0.0011
3368.00,0.0012
3367.00,0.0013
3366.00,0.0014
3365.00,0.0016
3364.00,0.0017
3363.00,0.0018
3362.00,0.0019
3361.00,0.0021
3360.00,0.0022
3359.00,0.0023
3358.00,0.0025
3357.00,0.0026
3356.00,0.0028
3355.00,0.0029
3354.00,0.0031
3353.00,0.0032
3352.00,0.0034
3351.00,0.0036
3350.00,0.0038
3349.00,0.0040
3348.00,0.0041
3347.00,0.0043
3346.00,0.0045
3345.00,0.0046
3344.00,0.0048
3343.00,0.0050
3342.00,0.0052
3341.00,0.0054
3340.00,0.0055
3339.00,0.0057
3338.00,0.0059
3337.00,0.0062
3336.00,0.0064
3335.00,0.0067
3334.00,0.0069
3333.00,0.0072
3332.00,0.0074
3331.00,0.0077
3330.00,0.0079
3329.00,0.0082
3328.00,0.0085
3327.00,0.0087
3326.00,0.0090
3325.00,0.0093
3324.00,0.0095
3323.00,0.0098
3322.00,0.0101
3321.00,0.0103
3320.00,0.0106
3319.00,0.0109
3318.00,0.0112
3317.00,0.0115
3316.00,0.0118
3315.00,0.0122
3314.00,0.0125
3313.00,0.0128
3312.00,0.0131
3311.00,0.0134
3310.00,0.0137
3309.00,0.0140
3308.00,0.0144
3307.00,0.0147
3306.00,0.0150
3305.00,0.0154
3304.00,0.0158
3303.00,0.0162
3302.00,0.0167
3301.00,0.0170
3300.00,0.0174
3299.00,0.0177
3298.00,0.0181
3297.00,0.0184
3296.00,0.0187
3295.00,0.0190
3294.00,0.0193
3293.00,0.0197
3292.00,0.0200
3291.00,0.0204
3290.00,0.0207
3289.00,0.0210
3288.00,0.0213
3287.00,0.0215
3286.00,0.0218
3285.00,0.0220
3284.00,0.0223
3283.00,0.0226
3282.00,0.0228
3281.00,0.0230
3280.00,0.0232
3279.00,0.0233
3278.00,0.0234
3277.00,0.0235
3276.00,0.0236
3275.00,0.0236
3274.00,0.0236
3273.00,0.0236
3272.00,0.0235
3271.00,0.0235
3270.00,0.0235
3269.00,0.0234
3268.00,0.0233
3267.00,0.0232
3266.00,0.0230
3265.00,0.0227
3264.00,0.0225
3263.00,0.0223
3262.00,0.0221
3261.00,0.0218
3260.00,0.0216
3259.00,0.0213
3258.00,0.0211
3257.00,0.0208
3256.00,0.0205
3255.00,0.0203
3254.00,0.0200
3253.00,0.0197
3252.00,0.0194
3251.00,0.0190
3250.00,0.0187
3249.00,0.0185
3248.00,0.0182
3247.00,0.0180
3246.00,0.0177
3245.00,0.0175
3244.00,0.0172
3243.00,0.0170
3242.00,0.0168
3241.00,0.0165
3240.00,0.0163
3239.00,0.0160
3238.00,0.0158
3237.00,0.0155
3236.00,0.0153
3235.00,0.0150
3234.00,0.0148
3233.00,0.0146
3232.00,0.0144
3231.00,0.0142
3230.00,0.0140
3229.00,0.0138
3228.00,0.0137
3227.00,0.0135
3226.00,0.0133
3225.00,0.0132
3224.00,0.0130
3223.00,0.0128
3222.00,0.0127
3221.00,0.0125
3220.00,0.0123
3219.00,0.0122
3218.00,0.0120
3217.00,0.0119
3216.00,0.0117
3215.00,0.0115
3214.00,0.0113
3213.00,0.0112
3212.00,0.0111
3211.00,0.0109
3210.00,0.0108
3209.00,0.0106
3208.00,0.0105
3207.00,0.0104
3206.00,0.0103
3205.00,0.0102
3204.00,0.0100
3203.00,0.0099
3202.00,0.0098
3201.00,0.0096
3200.00,0.0095
3199.00,0.0093
3198.00,0.0092
3197.00,0.0091
3196.00,0.0090
3195.00,0.0088
3194.00,0.0087
3193.00,0.0085
3192.00,0.0084
3191.00,0.0083
3190.00,0.0081
3189.00,0.0080
3188.00,0.0079
3187.00,0.0077
3186.00,0.0076
3185.00,0.0074
3184.00,0.0072
3183.00,0.0070
3182.00,0.0069
3181.00,0.0067
3180.00,0.0065
3179.00,0.0064
3178.00,0.0062
3177.00,0.0060
3176.00,0.0059
3175.00,0.0057
3174.00,0.0056
3173.00,0.0055
3172.00,0.0053
3171.00,0.0052
3170.00,0.0051
3169.00,0.0049
3168.00,0.0048
3167.00,0.0046
3166.00,0.0045
3165.00,0.0043
3164.00,0.0042
3163.00,0.0040
3162.00,0.0039
3161.00,0.0038
3160.00,0.0036
3159.00,0.0035
3158.00,0.0033
3157.00,0.0032
3156.00,0.0031
3155.00,0.0030
3154.00,0.0029
3153.00,0.0027
3152.00,0.0026
3151.00,0.0025
3150.00,0.0023
3149.00,0.0022
3148.00,0.0021
3147.00,0.0020
3146.00,0.0019
3145.00,0.0018
3144.00,0.0017
3143.00,0.0016
3142.00,0.0016
3141.00,0.0015
3140.00,0.0014
3139.00,0.0012
3138.00,0.0011
3137.00,0.0011
3136.00,0.0010
3135.00,0.0009
3134.00,0.0008
3133.00,0.0008
3132.00,0.0007
3131.00,0.0007
3130.00,0.0006
3129.00,0.0006
3128.00,0.0005
3127.00,0.0005
3126.00,0.0004
3125.00,0.0003
3124.00,0.0002
3123.00,0.0001
3122.00,0.0001
3121.00,0.0000
3120.00,-0.0000
3119.00,-0.0001
3118.00,-0.0001
3117.00,-0.0002
3116.00,-0.0002
3115.00,-0.0001
3114.00,-0.0001
3113.00,-0.0001
3112.00,-0.0001
3111.00,-0.0001
3110.00,-0.0001
3109.00,-0.0002
3108.00,-0.0001
3107.00,-0.0001
3106.00,-0.0001
3105.00,-0.0000
3104.00,-0.0000
3103.00,0.0000
3102.00,0.0000
3101.00,0.0001
3100.00,0.0001
3099.00,0.0001
3098.00,0.0001
3097.00,0.0002
3096.00,0.0002
3095.00,0.0002
3094.00,0.0002
3093.00,0.0003
3092.00,0.0003
3091.00,0.0004
3090.00,0.0004
3089.00,0.0005
3088.00,0.0005
3087.00,0.0005
3086.00,0.0005
3085.00,0.0006
3084.00,0.0006
3083.00,0.0006
3082.00,0.0007
3081.00,0.0007
3080.00,0.0007
3079.00,0.0007
3078.00,0.0007
3077.00,0.0008
3076.00,0.0008
3075.00,0.0009
3074.00,0.0009
3073.00,0.0009
3072.00,0.0009
3071.00,0.0009
3070.00,0.0009
3069.00,0.0009
3068.00,0.0009
3067.00,0.0009
3066.00,0.0008
3065.00,0.0008
3064.00,0.0008
3063.00,0.0008
3062.00,0.0008
3061.00,0.0008
3060.00,0.0008
3059.00,0.0007
3058.00,0.0006
3057.00,0.0006
3056.00,0.0005
3055.00,0.0004
3054.00,0.0003
3053.00,0.0002
3052.00,0.0001
3051.00,0.0001
3050.00,-0.0000
3049.00,-0.0001
3048.00,-0.0002
3047.00,-0.0003
3046.00,-0.0005
3045.00,-0.0006
3044.00,-0.0007
3043.00,-0.0008
3042.00,-0.0008
3041.00,-0.0009
3040.00,-0.0009
3039.00,-0.0010
3038.00,-0.0011
3037.00,-0.0012
3036.00,-0.0013
3035.00,-0.0014
3034.00,-0.0015
3033.00,-0.0016
3032.00,-0.0016
3031.00,-0.0017
3030.00,-0.0017
3029.00,-0.0018
3028.00,-0.0019
3027.00,-0.0020
3026.00,-0.0021
3025.00,-0.0022
3024.00,-0.0023
3023.00,-0.0024
3022.00,-0.0025
3021.00,-0.0026
3020.00,-0.0027
3019.00,-0.0029
3018.00,-0.0030
3017.00,-0.0031
3016.00,-0.0032
3015.00,-0.0033
3014.00,-0.0033
3013.00,-0.0034
3012.00,-0.0034
3011.00,-0.0034
3010.00,-0.0035
3009.00,-0.0035
3008.00,-0.0036
3007.00,-0.0036
3006.00,-0.0037
3005.00,-0.0038
3004.00,-0.0038
3003.00,-0.0039
3002.00,-0.0039
3001.00,-0.0040
3000.00,-0.0040
2999.00,-0.0041
2998.00,-0.0041
2997.00,-0.0040
2996.00,-0.0040
2995.00,-0.0040
2994.00,-0.0039
2993.00,-0.0039
2992.00,-0.0038
2991.00,-0.0037
2990.00,-0.0036
2989.00,-0.0034
2988.00,-0.0033
2987.00,-0.0032
2986.00,-0.0032
2985.00,-0.0031
2984.00,-0.0031
2983.00,-0.0030
2982.00,-0.0029
2981.00,-0.0028
2980.00,-0.0027
2979.00,-0.0025
2978.00,-0.0023
2977.00,-0.0021
2976.00,-0.0019
2975.00,-0.0018
2974.00,-0.0016
2973.00,-0.0015
2972.00,-0.0014
2971.00,-0.0012
2970.00,-0.0010
2969.00,-0.0009
2968.00,-0.0008
2967.00,-0.0007
2966.00,-0.0007
2965.00,-0.0007
2964.00,-0.0006
2963.00,-0.0006
2962.00,-0.0005
2961.00,-0.0005
2960.00,-0.0005
2959.00,-0.0006
2958.00,-0.0007
2957.00,-0.0007
2956.00,-0.0008
2955.00,-0.0008
2954.00,-0.0009
2953.00,-0.0010
2952.00,-0.0011
2951.00,-0.0012
2950.00,-0.0012
2949.00,-0.0013
2948.00,-0.0013
2947.00,-0.0012
2946.00,-0.0012
2945.00,-0.0011
2944.00,-0.0010
2943.00,-0.0009
2942.00,-0.0008
2941.00,-0.0007
2940.00,-0.0005
2939.00,-0.0004
2938.00,-0.0003
2937.00,-0.0002
2936.00,-0.0001
2935.00,-0.0000
2934.00,0.0000
2933.00,0.0000
2932.00,-0.0000
2931.00,-0.0001
2930.00,-0.0001
2929.00,-0.0002
2928.00,-0.0002
2927.00,-0.0003
2926.00,-0.0004
2925.00,-0.0005
2924.00,-0.0007
2923.00,-0.0008
2922.00,-0.0010
2921.00,-0.0012
2920.00,-0.0013
2919.00,-0.0015
2918.00,-0.0018
2917.00,-0.0020
2916.00,-0.0022
2915.00,-0.0024
2914.00,-0.0025
2913.00,-0.0026
2912.00,-0.0028
2911.00,-0.0029
2910.00,-0.0031
2909.00,-0.0032
2908.00,-0.0033
2907.00,-0.0034
2906.00,-0.0035
2905.00,-0.0035
2904.00,-0.0036
2903.00,-0.0036
2902.00,-0.0037
2901.00,-0.0037
2900.00,-0.0038
2899.00,-0.0039
2898.00,-0.0039
2897.00,-0.0040
2896.00,-0.0041
2895.00,-0.0042
2894.00,-0.0043
2893.00,-0.0043
2892.00,-0.0043
2891.00,-0.0043
2890.00,-0.0043
2889.00,-0.0043
2888.00,-0.0043
2887.00,-0.0042
2886.00,-0.0042
2885.00,-0.0041
2884.00,-0.0041
2883.00,-0.0040
2882.00,-0.0039
2881.00,-0.0038
2880.00,-0.0037
2879.00,-0.0036
2878.00,-0.0036
2877.00,-0.0035
2876.00,-0.0035
2875.00,-0.0035
2874.00,-0.0035
2873.00,-0.0035
2872.00,-0.0036
2871.00,-0.0037
2870.00,-0.0038
2869.00,-0.0039
2868.00,-0.0040
2867.00,-0.0041
2866.00,-0.0042
2865.00,-0.0043
2864.00,-0.0045
2863.00,-0.0046
2862.00,-0.0047
2861.00,-0.0048
2860.00,-0.0049
2859.00,-0.0050
2858.00,-0.0051
2857.00,-0.0051
2856.00,-0.0052
2855.00,-0.0053
2854.00,-0.0054
2853.00,-0.0055
2852.00,-0.0055
2851.00,-0.0056
2850.00,-0.0057
2849.00,-0.0058
2848.00,-0.0059
2847.00,-0.0060
2846.00,-0.0061
2845.00,-0.0061
2844.00,-0.0062
2843.00,-0.0063
2842.00,-0.0064
2841.00,-0.0065
2840.00,-0.0066
2839.00,-0.0067
2838.00,-0.0067
2837.00,-0.0068
2836.00,-0.0068
2835.00,-0.0068
2834.00,-0.0068
2833.00,-0.0069
2832.00,-0.0069
2831.00,-0.0069
2830.00,-0.0070
2829.00,-0.0070
2828.00,-0.0070
2827.00,-0.0071
2826.00,-0.0071
2825.00,-0.0071
2824.00,-0.0071
2823.00,-0.0071
2822.00,-0.0072
2821.00,-0.0072
2820.00,-0.0073
2819.00,-0.0073
2818.00,-0.0074
2817.00,-0.0074
2816.00,-0.0074
2815.00,-0.0075
2814.00,-0.0075
2813.00,-0.0075
2812.00,-0.0075
