Created as New Dataset,Sample 455 By YargerLab Date Saturday, March 01 2025
cm-1,A
4000.00,0.0520
3999.00,0.0520
3998.00,0.0520
3997.00,0.0520
3996.00,0.0520
3995.00,0.0520
3994.00,0.0520
3993.00,0.0520
3992.00,0.0520
3991.00,0.0520
3990.00,0.0520
3989.00,0.0520
3988.00,0.0520
3987.00,0.0520
3986.00,0.0520
3985.00,0.0520
3984.00,0.0520
3983.00,0.0520
3982.00,0.0519
3981.00,0.0519
3980.00,0.0520
3979.00,0.0520
3978.00,0.0520
3977.00,0.0520
3976.00,0.0521
3975.00,0.0521
3974.00,0.0521
3973.00,0.0521
3972.00,0.0521
3971.00,0.0521
3970.00,0.0521
3969.00,0.0521
3968.00,0.0521
3967.00,0.0522
3966.00,0.0522
3965.00,0.0522
3964.00,0.0523
3963.00,0.0523
3962.00,0.0523
3961.00,0.0523
3960.00,0.0523
3959.00,0.0523
3958.00,0.0523
3957.00,0.0523
3956.00,0.0524
3955.00,0.0524
3954.00,0.0524
3953.00,0.0524
3952.00,0.0524
3951.00,0.0524
3950.00,0.0524
3949.00,0.0524
3948.00,0.0524
3947.00,0.0524
3946.00,0.0524
3945.00,0.0524
3944.00,0.0524
3943.00,0.0524
3942.00,0.0524
3941.00,0.0525
3940.00,0.0525
3939.00,0.0525
3938.00,0.0525
3937.00,0.0525
3936.00,0.0525
3935.00,0.0525
3934.00,0.0525
3933.00,0.0525
3932.00,0.0525
3931.00,0.0525
3930.00,0.0525
3929.00,0.0524
3928.00,0.0524
3927.00,0.0524
3926.00,0.0524
3925.00,0.0525
3924.00,0.0525
3923.00,0.0525
3922.00,0.0525
3921.00,0.0525
3920.00,0.0524
3919.00,0.0524
3918.00,0.0524
3917.00,0.0524
3916.00,0.0524
3915.00,0.0523
3914.00,0.0523
3913.00,0.0523
3912.00,0.0524
3911.00,0.0524
3910.00,0.0524
3909.00,0.0524
3908.00,0.0524
3907.00,0.0524
3906.00,0.0524
3905.00,0.0524
3904.00,0.0524
3903.00,0.0524
3902.00,0.0524
3901.00,0.0524
3900.00,0.0524
3899.00,0.0524
3898.00,0.0524
3897.00,0.0525
3896.00,0.0525
3895.00,0.0525
3894.00,0.0525
3893.00,0.0525
3892.00,0.0525
3891.00,0.0525
3890.00,0.0525
3889.00,0.0525
3888.00,0.0524
3887.00,0.0525
3886.00,0.0525
3885.00,0.0525
3884.00,0.0525
3883.00,0.0525
3882.00,0.0525
3881.00,0.0525
3880.00,0.0525
3879.00,0.0525
3878.00,0.0526
3877.00,0.0526
3876.00,0.0526
3875.00,0.0526
3874.00,0.0526
3873.00,0.0526
3872.00,0.0527
3871.00,0.0527
3870.00,0.0527
3869.00,0.0527
3868.00,0.0527
3867.00,0.0527
3866.00,0.0527
3865.00,0.0527
3864.00,0.0527
3863.00,0.0527
3862.00,0.0528
3861.00,0.0528
3860.00,0.0527
3859.00,0.0527
3858.00,0.0526
3857.00,0.0526
3856.00,0.0525
3855.00,0.0524
3854.00,0.0524
3853.00,0.0524
3852.00,0.0524
3851.00,0.0525
3850.00,0.0526
3849.00,0.0527
3848.00,0.0528
3847.00,0.0529
3846.00,0.0529
3845.00,0.0529
3844.00,0.0529
3843.00,0.0529
3842.00,0.0529
3841.00,0.0529
3840.00,0.0529
3839.00,0.0528
3838.00,0.0528
3837.00,0.0528
3836.00,0.0528
3835.00,0.0528
3834.00,0.0528
3833.00,0.0528
3832.00,0.0528
3831.00,0.0528
3830.00,0.0528
3829.00,0.0528
3828.00,0.0528
3827.00,0.0529
3826.00,0.0529
3825.00,0.0529
3824.00,0.0530
3823.00,0.0530
3822.00,0.0530
3821.00,0.0530
3820.00,0.0529
3819.00,0.0529
3818.00,0.0528
3817.00,0.0528
3816.00,0.0528
3815.00,0.0528
3814.00,0.0529
3813.00,0.0529
3812.00,0.0529
3811.00,0.0529
3810.00,0.0529
3809.00,0.0529
3808.00,0.0528
3807.00,0.0528
3806.00,0.0528
3805.00,0.0528
3804.00,0.0528
3803.00,0.0528
3802.00,0.0528
3801.00,0.0529
3800.00,0.0529
3799.00,0.0529
3798.00,0.0529
3797.00,0.0529
3796.00,0.0529
3795.00,0.0529
3794.00,0.0529
3793.00,0.0529
3792.00,0.0529
3791.00,0.0529
3790.00,0.0530
3789.00,0.0530
3788.00,0.0530
3787.00,0.0530
3786.00,0.0530
3785.00,0.0530
3784.00,0.0530
3783.00,0.0531
3782.00,0.0531
3781.00,0.0531
3780.00,0.0531
3779.00,0.0531
3778.00,0.0530
3777.00,0.0530
3776.00,0.0530
3775.00,0.0530
3774.00,0.0530
3773.00,0.0530
3772.00,0.0530
3771.00,0.0530
3770.00,0.0530
3769.00,0.0531
3768.00,0.0531
3767.00,0.0531
3766.00,0.0530
3765.00,0.0530
3764.00,0.0531
3763.00,0.0531
3762.00,0.0532
3761.00,0.0532
3760.00,0.0531
3759.00,0.0531
3758.00,0.0530
3757.00,0.0530
3756.00,0.0530
3755.00,0.0530
3754.00,0.0530
3753.00,0.0530
3752.00,0.0530
3751.00,0.0530
3750.00,0.0530
3749.00,0.0529
3748.00,0.0529
3747.00,0.0528
3746.00,0.0528
3745.00,0.0528
3744.00,0.0528
3743.00,0.0529
3742.00,0.0529
3741.00,0.0529
3740.00,0.0530
3739.00,0.0530
3738.00,0.0530
3737.00,0.0530
3736.00,0.0529
3735.00,0.0529
3734.00,0.0529
3733.00,0.0529
3732.00,0.0528
3731.00,0.0528
3730.00,0.0528
3729.00,0.0528
3728.00,0.0528
3727.00,0.0528
3726.00,0.0528
3725.00,0.0529
3724.00,0.0529
3723.00,0.0529
3722.00,0.0529
3721.00,0.0529
3720.00,0.0529
3719.00,0.0529
3718.00,0.0530
3717.00,0.0530
3716.00,0.0530
3715.00,0.0531
3714.00,0.0530
3713.00,0.0530
3712.00,0.0530
3711.00,0.0530
3710.00,0.0530
3709.00,0.0529
3708.00,0.0529
3707.00,0.0529
3706.00,0.0529
3705.00,0.0529
3704.00,0.0529
3703.00,0.0529
3702.00,0.0529
3701.00,0.0529
3700.00,0.0529
3699.00,0.0530
3698.00,0.0530
3697.00,0.0530
3696.00,0.0530
3695.00,0.0530
3694.00,0.0530
3693.00,0.0530
3692.00,0.0530
3691.00,0.0530
3690.00,0.0530
3689.00,0.0530
3688.00,0.0530
3687.00,0.0531
3686.00,0.0531
3685.00,0.0531
3684.00,0.0532
3683.00,0.0532
3682.00,0.0533
3681.00,0.0533
3680.00,0.0533
3679.00,0.0533
3678.00,0.0533
3677.00,0.0534
3676.00,0.0534
3675.00,0.0535
3674.00,0.0535
3673.00,0.0535
3672.00,0.0535
3671.00,0.0535
3670.00,0.0535
3669.00,0.0536
3668.00,0.0536
3667.00,0.0536
3666.00,0.0537
3665.00,0.0537
3664.00,0.0538
3663.00,0.0538
3662.00,0.0538
3661.00,0.0538
3660.00,0.0538
3659.00,0.0538
3658.00,0.0538
3657.00,0.0538
3656.00,0.0538
3655.00,0.0538
3654.00,0.0538
3653.00,0.0538
3652.00,0.0538
3651.00,0.0538
3650.00,0.0538
3649.00,0.0538
3648.00,0.0539
3647.00,0.0539
3646.00,0.0539
3645.00,0.0539
3644.00,0.0540
3643.00,0.0540
3642.00,0.0540
3641.00,0.0540
3640.00,0.0539
3639.00,0.0539
3638.00,0.0539
3637.00,0.0540
3636.00,0.0539
3635.00,0.0539
3634.00,0.0538
3633.00,0.0537
3632.00,0.0536
3631.00,0.0536
3630.00,0.0536
3629.00,0.0536
3628.00,0.0536
3627.00,0.0536
3626.00,0.0536
3625.00,0.0537
3624.00,0.0538
3623.00,0.0538
3622.00,0.0539
3621.00,0.0539
3620.00,0.0539
3619.00,0.0539
3618.00,0.0539
3617.00,0.0540
3616.00,0.0540
3615.00,0.0541
3614.00,0.0541
3613.00,0.0542
3612.00,0.0542
3611.00,0.0542
3610.00,0.0541
3609.00,0.0541
3608.00,0.0541
3607.00,0.0540
3606.00,0.0540
3605.00,0.0541
3604.00,0.0541
3603.00,0.0542
3602.00,0.0543
3601.00,0.0544
3600.00,0.0545
3599.00,0.0545
3598.00,0.0545
3597.00,0.0545
3596.00,0.0545
3595.00,0.0545
3594.00,0.0545
3593.00,0.0545
3592.00,0.0545
3591.00,0.0545
3590.00,0.0545
3589.00,0.0545
3588.00,0.0545
3587.00,0.0545
3586.00,0.0546
3585.00,0.0546
3584.00,0.0547
3583.00,0.0548
3582.00,0.0548
3581.00,0.0549
3580.00,0.0549
3579.00,0.0550
3578.00,0.0550
3577.00,0.0550
3576.00,0.0551
3575.00,0.0551
3574.00,0.0551
3573.00,0.0551
3572.00,0.0551
3571.00,0.0551
3570.00,0.0552
3569.00,0.0552
3568.00,0.0552
3567.00,0.0553
3566.00,0.0553
3565.00,0.0553
3564.00,0.0553
3563.00,0.0553
3562.00,0.0554
3561.00,0.0554
3560.00,0.0555
3559.00,0.0555
3558.00,0.0555
3557.00,0.0556
3556.00,0.0556
3555.00,0.0556
3554.00,0.0555
3553.00,0.0556
3552.00,0.0556
3551.00,0.0557
3550.00,0.0558
3549.00,0.0558
3548.00,0.0559
3547.00,0.0559
3546.00,0.0559
3545.00,0.0560
3544.00,0.0560
3543.00,0.0560
3542.00,0.0560
3541.00,0.0561
3540.00,0.0562
3539.00,0.0562
3538.00,0.0563
3537.00,0.0563
3536.00,0.0563
3535.00,0.0564
3534.00,0.0565
3533.00,0.0566
3532.00,0.0566
3531.00,0.0566
3530.00,0.0566
3529.00,0.0567
3528.00,0.0567
3527.00,0.0567
3526.00,0.0567
3525.00,0.0567
3524.00,0.0567
3523.00,0.0568
3522.00,0.0569
3521.00,0.0569
3520.00,0.0570
3519.00,0.0570
3518.00,0.0570
3517.00,0.0570
3516.00,0.0571
3515.00,0.0571
3514.00,0.0571
3513.00,0.0572
3512.00,0.0572
3511.00,0.0572
3510.00,0.0573
3509.00,0.0573
3508.00,0.0573
3507.00,0.0574
3506.00,0.0574
3505.00,0.0575
3504.00,0.0575
3503.00,0.0575
3502.00,0.0576
3501.00,0.0576
3500.00,0.0576
3499.00,0.0576
3498.00,0.0576
3497.00,0.0576
3496.00,0.0576
3495.00,0.0577
3494.00,0.0578
3493.00,0.0578
3492.00,0.0579
3491.00,0.0580
3490.00,0.0580
3489.00,0.0580
3488.00,0.0580
3487.00,0.0581
3486.00,0.0581
3485.00,0.0582
3484.00,0.0582
3483.00,0.0582
3482.00,0.0582
3481.00,0.0582
3480.00,0.0583
3479.00,0.0583
3478.00,0.0584
3477.00,0.0585
3476.00,0.0585
3475.00,0.0586
3474.00,0.0587
3473.00,0.0587
3472.00,0.0587
3471.00,0.0588
3470.00,0.0588
3469.00,0.0588
3468.00,0.0588
3467.00,0.0589
3466.00,0.0590
3465.00,0.0591
3464.00,0.0592
3463.00,0.0593
3462.00,0.0594
3461.00,0.0595
3460.00,0.0595
3459.00,0.0596
3458.00,0.0597
3457.00,0.0597
3456.00,0.0598
3455.00,0.0598
3454.00,0.0599
3453.00,0.0599
3452.00,0.0599
3451.00,0.0600
3450.00,0.0600
3449.00,0.0600
3448.00,0.0601
3447.00,0.0601
3446.00,0.0601
3445.00,0.0601
3444.00,0.0601
3443.00,0.0602
3442.00,0.0602
3441.00,0.0602
3440.00,0.0602
3439.00,0.0602
3438.00,0.0602
3437.00,0.0602
3436.00,0.0603
3435.00,0.0603
3434.00,0.0604
3433.00,0.0605
3432.00,0.0606
3431.00,0.0607
3430.00,0.0608
3429.00,0.0609
3428.00,0.0610
3427.00,0.0612
3426.00,0.0613
3425.00,0.0614
3424.00,0.0615
3423.00,0.0615
3422.00,0.0616
3421.00,0.0617
3420.00,0.0618
3419.00,0.0619
3418.00,0.0620
3417.00,0.0621
3416.00,0.0621
3415.00,0.0621
3414.00,0.0621
3413.00,0.0621
3412.00,0.0622
3411.00,0.0623
3410.00,0.0623
3409.00,0.0624
3408.00,0.0625
3407.00,0.0626
3406.00,0.0626
3405.00,0.0626
3404.00,0.0625
3403.00,0.0624
3402.00,0.0623
3401.00,0.0622
3400.00,0.0622
3399.00,0.0623
3398.00,0.0624
3397.00,0.0624
3396.00,0.0624
3395.00,0.0624
3394.00,0.0624
3393.00,0.0623
3392.00,0.0623
3391.00,0.0624
3390.00,0.0624
3389.00,0.0625
3388.00,0.0625
3387.00,0.0626
3386.00,0.0626
3385.00,0.0625
3384.00,0.0625
3383.00,0.0625
3382.00,0.0625
3381.00,0.0625
3380.00,0.0625
3379.00,0.0625
3378.00,0.0626
3377.00,0.0627
3376.00,0.0627
3375.00,0.0628
3374.00,0.0628
3373.00,0.0628
3372.00,0.0628
3371.00,0.0627
3370.00,0.0627
3369.00,0.0627
3368.00,0.0627
3367.00,0.0628
3366.00,0.0629
3365.00,0.0630
3364.00,0.0631
3363.00,0.0632
3362.00,0.0632
3361.00,0.0632
3360.00,0.0633
3359.00,0.0634
3358.00,0.0634
3357.00,0.0635
3356.00,0.0635
3355.00,0.0635
3354.00,0.0636
3353.00,0.0635
3352.00,0.0635
3351.00,0.0636
3350.00,0.0637
3349.00,0.0638
3348.00,0.0639
3347.00,0.0639
3346.00,0.0640
3345.00,0.0640
3344.00,0.0640
3343.00,0.0641
3342.00,0.0641
3341.00,0.0641
3340.00,0.0641
3339.00,0.0642
3338.00,0.0643
3337.00,0.0644
3336.00,0.0645
3335.00,0.0646
3334.00,0.0647
3333.00,0.0648
3332.00,0.0648
3331.00,0.0649
3330.00,0.0649
3329.00,0.0649
3328.00,0.0650
3327.00,0.0650
3326.00,0.0650
3325.00,0.0651
3324.00,0.0651
3323.00,0.0653
3322.00,0.0654
3321.00,0.0654
3320.00,0.0655
3319.00,0.0656
3318.00,0.0656
3317.00,0.0657
3316.00,0.0658
3315.00,0.0658
3314.00,0.0658
3313.00,0.0658
3312.00,0.0658
3311.00,0.0657
3310.00,0.0657
3309.00,0.0656
3308.00,0.0655
3307.00,0.0655
3306.00,0.0656
3305.00,0.0658
3304.00,0.0660
3303.00,0.0662
3302.00,0.0664
3301.00,0.0666
3300.00,0.0666
3299.00,0.0666
3298.00,0.0666
3297.00,0.0666
3296.00,0.0667
3295.00,0.0667
3294.00,0.0667
3293.00,0.0667
3292.00,0.0668
3291.00,0.0670
3290.00,0.0672
3289.00,0.0674
3288.00,0.0675
3287.00,0.0676
3286.00,0.0677
3285.00,0.0677
3284.00,0.0678
3283.00,0.0679
3282.00,0.0680
3281.00,0.0680
3280.00,0.0681
3279.00,0.0681
3278.00,0.0681
3277.00,0.0681
3276.00,0.0681
3275.00,0.0681
3274.00,0.0680
3273.00,0.0680
3272.00,0.0679
3271.00,0.0680
3270.00,0.0681
3269.00,0.0684
3268.00,0.0687
3267.00,0.0689
3266.00,0.0691
3265.00,0.0692
3264.00,0.0693
3263.00,0.0693
3262.00,0.0693
3261.00,0.0694
3260.00,0.0694
3259.00,0.0694
3258.00,0.0694
3257.00,0.0694
3256.00,0.0694
3255.00,0.0695
3254.00,0.0697
3253.00,0.0698
3252.00,0.0698
3251.00,0.0698
3250.00,0.0697
3249.00,0.0697
3248.00,0.0696
3247.00,0.0697
3246.00,0.0698
3245.00,0.0700
3244.00,0.0701
3243.00,0.0703
3242.00,0.0703
3241.00,0.0704
3240.00,0.0704
3239.00,0.0705
3238.00,0.0704
3237.00,0.0703
3236.00,0.0702
3235.00,0.0700
3234.00,0.0699
3233.00,0.0700
3232.00,0.0703
3231.00,0.0705
3230.00,0.0707
3229.00,0.0709
3228.00,0.0710
3227.00,0.0710
3226.00,0.0711
3225.00,0.0711
3224.00,0.0712
3223.00,0.0712
3222.00,0.0712
3221.00,0.0712
3220.00,0.0712
3219.00,0.0712
3218.00,0.0713
3217.00,0.0714
3216.00,0.0714
3215.00,0.0714
3214.00,0.0715
3213.00,0.0715
3212.00,0.0716
3211.00,0.0716
3210.00,0.0717
3209.00,0.0717
3208.00,0.0717
3207.00,0.0718
3206.00,0.0718
3205.00,0.0719
3204.00,0.0720
3203.00,0.0720
3202.00,0.0720
3201.00,0.0720
3200.00,0.0721
3199.00,0.0721
3198.00,0.0721
3197.00,0.0722
3196.00,0.0722
3195.00,0.0723
3194.00,0.0723
3193.00,0.0723
3192.00,0.0724
3191.00,0.0724
3190.00,0.0724
3189.00,0.0725
3188.00,0.0725
3187.00,0.0726
3186.00,0.0727
3185.00,0.0728
3184.00,0.0729
3183.00,0.0729
3182.00,0.0729
3181.00,0.0730
3180.00,0.0730
3179.00,0.0730
3178.00,0.0731
3177.00,0.0732
3176.00,0.0732
3175.00,0.0732
3174.00,0.0733
3173.00,0.0733
3172.00,0.0734
3171.00,0.0734
3170.00,0.0735
3169.00,0.0735
3168.00,0.0736
3167.00,0.0736
3166.00,0.0736
3165.00,0.0737
3164.00,0.0737
3163.00,0.0738
3162.00,0.0738
3161.00,0.0738
3160.00,0.0738
3159.00,0.0739
3158.00,0.0739
3157.00,0.0740
3156.00,0.0739
3155.00,0.0738
3154.00,0.0737
3153.00,0.0737
3152.00,0.0737
3151.00,0.0739
3150.00,0.0740
3149.00,0.0742
3148.00,0.0743
3147.00,0.0744
3146.00,0.0744
3145.00,0.0745
3144.00,0.0745
3143.00,0.0745
3142.00,0.0745
3141.00,0.0745
3140.00,0.0745
3139.00,0.0745
3138.00,0.0747
3137.00,0.0749
3136.00,0.0750
3135.00,0.0752
3134.00,0.0753
3133.00,0.0753
3132.00,0.0754
3131.00,0.0755
3130.00,0.0756
3129.00,0.0757
3128.00,0.0758
3127.00,0.0759
3126.00,0.0759
3125.00,0.0760
3124.00,0.0760
3123.00,0.0760
3122.00,0.0759
3121.00,0.0759
3120.00,0.0759
3119.00,0.0760
3118.00,0.0761
3117.00,0.0763
3116.00,0.0765
3115.00,0.0768
3114.00,0.0771
3113.00,0.0774
3112.00,0.0776
3111.00,0.0777
3110.00,0.0777
3109.00,0.0778
3108.00,0.0780
3107.00,0.0782
3106.00,0.0784
3105.00,0.0786
3104.00,0.0787
3103.00,0.0788
3102.00,0.0788
3101.00,0.0789
3100.00,0.0791
3099.00,0.0792
3098.00,0.0794
3097.00,0.0796
3096.00,0.0798
3095.00,0.0799
3094.00,0.0799
3093.00,0.0800
3092.00,0.0801
3091.00,0.0802
3090.00,0.0803
3089.00,0.0805
3088.00,0.0806
3087.00,0.0807
3086.00,0.0808
3085.00,0.0809
3084.00,0.0810
3083.00,0.0811
3082.00,0.0811
3081.00,0.0811
3080.00,0.0812
3079.00,0.0812
3078.00,0.0814
3077.00,0.0816
3076.00,0.0817
3075.00,0.0819
3074.00,0.0819
3073.00,0.0820
3072.00,0.0819
3071.00,0.0819
3070.00,0.0819
3069.00,0.0819
3068.00,0.0819
3067.00,0.0820
3066.00,0.0821
3065.00,0.0822
3064.00,0.0823
3063.00,0.0823
3062.00,0.0824
3061.00,0.0825
3060.00,0.0825
3059.00,0.0826
3058.00,0.0826
3057.00,0.0826
3056.00,0.0827
3055.00,0.0827
3054.00,0.0827
3053.00,0.0828
3052.00,0.0829
3051.00,0.0830
3050.00,0.0831
3049.00,0.0833
3048.00,0.0834
3047.00,0.0836
3046.00,0.0837
3045.00,0.0838
3044.00,0.0840
3043.00,0.0841
3042.00,0.0844
3041.00,0.0847
3040.00,0.0850
3039.00,0.0853
3038.00,0.0856
3037.00,0.0858
3036.00,0.0860
3035.00,0.0863
3034.00,0.0865
3033.00,0.0868
3032.00,0.0872
3031.00,0.0875
3030.00,0.0878
3029.00,0.0881
3028.00,0.0883
3027.00,0.0886
3026.00,0.0889
3025.00,0.0892
3024.00,0.0895
3023.00,0.0898
3022.00,0.0900
3021.00,0.0903
3020.00,0.0905
3019.00,0.0908
3018.00,0.0910
3017.00,0.0912
3016.00,0.0914
3015.00,0.0915
3014.00,0.0917
3013.00,0.0920
3012.00,0.0922
3011.00,0.0925
3010.00,0.0928
3009.00,0.0930
3008.00,0.0932
3007.00,0.0933
3006.00,0.0934
3005.00,0.0935
3004.00,0.0935
3003.00,0.0935
3002.00,0.0934
3001.00,0.0933
3000.00,0.0932
2999.00,0.0931
2998.00,0.0930
2997.00,0.0929
2996.00,0.0929
2995.00,0.0928
2994.00,0.0927
2993.00,0.0926
2992.00,0.0926
2991.00,0.0926
2990.00,0.0926
2989.00,0.0927
2988.00,0.0928
2987.00,0.0929
2986.00,0.0931
2985.00,0.0933
2984.00,0.0936
2983.00,0.0940
2982.00,0.0943
2981.00,0.0945
2980.00,0.0946
2979.00,0.0947
2978.00,0.0947
2977.00,0.0948
2976.00,0.0948
2975.00,0.0949
2974.00,0.0950
2973.00,0.0952
2972.00,0.0953
2971.00,0.0954
2970.00,0.0954
2969.00,0.0953
2968.00,0.0951
2967.00,0.0950
2966.00,0.0948
2965.00,0.0946
2964.00,0.0945
2963.00,0.0942
2962.00,0.0940
2961.00,0.0938
2960.00,0.0936
2959.00,0.0935
2958.00,0.0934
2957.00,0.0932
2956.00,0.0931
2955.00,0.0931
2954.00,0.0930
2953.00,0.0931
2952.00,0.0932
2951.00,0.0934
2950.00,0.0936
2949.00,0.0939
2948.00,0.0941
2947.00,0.0944
2946.00,0.0946
2945.00,0.0949
2944.00,0.0951
2943.00,0.0953
2942.00,0.0955
2941.00,0.0956
2940.00,0.0957
2939.00,0.0957
2938.00,0.0957
2937.00,0.0957
2936.00,0.0958
2935.00,0.0958
2934.00,0.0958
2933.00,0.0957
2932.00,0.0956
2931.00,0.0955
2930.00,0.0954
2929.00,0.0952
2928.00,0.0951
2927.00,0.0948
2926.00,0.0946
2925.00,0.0942
2924.00,0.0939
2923.00,0.0935
2922.00,0.0932
2921.00,0.0928
2920.00,0.0924
2919.00,0.0919
2918.00,0.0915
2917.00,0.0911
2916.00,0.0907
2915.00,0.0903
2914.00,0.0900
2913.00,0.0898
2912.00,0.0896
2911.00,0.0894
2910.00,0.0892
2909.00,0.0891
2908.00,0.0889
2907.00,0.0887
2906.00,0.0885
2905.00,0.0883
2904.00,0.0882
2903.00,0.0880
2902.00,0.0879
2901.00,0.0878
2900.00,0.0877
2899.00,0.0876
2898.00,0.0875
2897.00,0.0874
2896.00,0.0873
2895.00,0.0873
2894.00,0.0873
2893.00,0.0872
2892.00,0.0872
2891.00,0.0871
2890.00,0.0871
2889.00,0.0870
2888.00,0.0870
2887.00,0.0870
2886.00,0.0870
2885.00,0.0870
2884.00,0.0870
2883.00,0.0870
2882.00,0.0870
2881.00,0.0870
2880.00,0.0869
2879.00,0.0869
2878.00,0.0868
2877.00,0.0867
2876.00,0.0866
2875.00,0.0866
2874.00,0.0866
2873.00,0.0866
2872.00,0.0867
2871.00,0.0868
2870.00,0.0868
2869.00,0.0869
2868.00,0.0870
2867.00,0.0870
2866.00,0.0871
2865.00,0.0871
2864.00,0.0872
2863.00,0.0872
2862.00,0.0872
2861.00,0.0872
2860.00,0.0872
2859.00,0.0873
2858.00,0.0873
2857.00,0.0874
2856.00,0.0874
2855.00,0.0875
2854.00,0.0875
2853.00,0.0875
2852.00,0.0876
2851.00,0.0876
2850.00,0.0877
2849.00,0.0877
2848.00,0.0878
2847.00,0.0878
2846.00,0.0879
2845.00,0.0880
2844.00,0.0880
2843.00,0.0880
2842.00,0.0880
2841.00,0.0879
2840.00,0.0879
2839.00,0.0879
2838.00,0.0879
2837.00,0.0879
2836.00,0.0879
2835.00,0.0879
2834.00,0.0878
2833.00,0.0878
2832.00,0.0878
2831.00,0.0878
2830.00,0.0878
2829.00,0.0878
2828.00,0.0878
2827.00,0.0877
2826.00,0.0877
2825.00,0.0876
2824.00,0.0876
2823.00,0.0876
2822.00,0.0875
2821.00,0.0875
2820.00,0.0875
2819.00,0.0875
2818.00,0.0874
2817.00,0.0874
2816.00,0.0874
2815.00,0.0874
2814.00,0.0873
2813.00,0.0873
2812.00,0.0873
2811.00,0.0872
2810.00,0.0872
2809.00,0.0872
2808.00,0.0872
2807.00,0.0872
2806.00,0.0872
2805.00,0.0872
2804.00,0.0872
2803.00,0.0872
2802.00,0.0872
2801.00,0.0872
2800.00,0.0871
2799.00,0.0871
2798.00,0.0870
2797.00,0.0870
2796.00,0.0869
2795.00,0.0869
2794.00,0.0869
2793.00,0.0869
2792.00,0.0869
2791.00,0.0868
2790.00,0.0868
2789.00,0.0868
2788.00,0.0868
2787.00,0.0868
2786.00,0.0868
2785.00,0.0868
2784.00,0.0868
2783.00,0.0868
2782.00,0.0867
2781.00,0.0867
2780.00,0.0867
2779.00,0.0867
2778.00,0.0866
2777.00,0.0866
2776.00,0.0866
2775.00,0.0865
2774.00,0.0865
2773.00,0.0866
2772.00,0.0866
2771.00,0.0866
2770.00,0.0866
2769.00,0.0866
2768.00,0.0866
2767.00,0.0865
2766.00,0.0865
2765.00,0.0865
2764.00,0.0865
2763.00,0.0866
2762.00,0.0866
2761.00,0.0866
2760.00,0.0866
2759.00,0.0866
2758.00,0.0866
2757.00,0.0866
