Created as New Dataset,Sample 379 By YargerLab Date Sunday, November 16 2025
cm-1,A
4000.00,0.0024
3999.00,0.0024
3998.00,0.0024
3997.00,0.0024
3996.00,0.0024
3995.00,0.0024
3994.00,0.0023
3993.00,0.0023
3992.00,0.0023
3991.00,0.0023
3990.00,0.0023
3989.00,0.0023
3988.00,0.0023
3987.00,0.0023
3986.00,0.0024
3985.00,0.0024
3984.00,0.0024
3983.00,0.0024
3982.00,0.0024
3981.00,0.0024
3980.00,0.0024
3979.00,0.0024
3978.00,0.0024
3977.00,0.0024
3976.00,0.0024
3975.00,0.0024
3974.00,0.0024
3973.00,0.0024
3972.00,0.0024
3971.00,0.0024
3970.00,0.0024
3969.00,0.0024
3968.00,0.0024
3967.00,0.0024
3966.00,0.0024
3965.00,0.0024
3964.00,0.0024
3963.00,0.0024
3962.00,0.0023
3961.00,0.0023
3960.00,0.0023
3959.00,0.0023
3958.00,0.0023
3957.00,0.0023
3956.00,0.0024
3955.00,0.0024
3954.00,0.0024
3953.00,0.0024
3952.00,0.0024
3951.00,0.0024
3950.00,0.0024
3949.00,0.0024
3948.00,0.0024
3947.00,0.0023
3946.00,0.0023
3945.00,0.0023
3944.00,0.0023
3943.00,0.0023
3942.00,0.0024
3941.00,0.0024
3940.00,0.0024
3939.00,0.0024
3938.00,0.0024
3937.00,0.0024
3936.00,0.0024
3935.00,0.0023
3934.00,0.0023
3933.00,0.0023
3932.00,0.0023
3931.00,0.0023
3930.00,0.0023
3929.00,0.0023
3928.00,0.0023
3927.00,0.0023
3926.00,0.0023
3925.00,0.0023
3924.00,0.0023
3923.00,0.0023
3922.00,0.0023
3921.00,0.0023
3920.00,0.0023
3919.00,0.0023
3918.00,0.0023
3917.00,0.0023
3916.00,0.0023
3915.00,0.0023
3914.00,0.0023
3913.00,0.0023
3912.00,0.0023
3911.00,0.0023
3910.00,0.0023
3909.00,0.0023
3908.00,0.0023
3907.00,0.0023
3906.00,0.0022
3905.00,0.0022
3904.00,0.0022
3903.00,0.0021
3902.00,0.0021
3901.00,0.0022
3900.00,0.0022
3899.00,0.0022
3898.00,0.0022
3897.00,0.0022
3896.00,0.0022
3895.00,0.0021
3894.00,0.0021
3893.00,0.0022
3892.00,0.0022
3891.00,0.0022
3890.00,0.0022
3889.00,0.0022
3888.00,0.0022
3887.00,0.0021
3886.00,0.0021
3885.00,0.0021
3884.00,0.0022
3883.00,0.0022
3882.00,0.0021
3881.00,0.0021
3880.00,0.0021
3879.00,0.0022
3878.00,0.0022
3877.00,0.0022
3876.00,0.0021
3875.00,0.0021
3874.00,0.0021
3873.00,0.0021
3872.00,0.0021
3871.00,0.0021
3870.00,0.0021
3869.00,0.0021
3868.00,0.0021
3867.00,0.0021
3866.00,0.0021
3865.00,0.0021
3864.00,0.0021
3863.00,0.0021
3862.00,0.0021
3861.00,0.0021
3860.00,0.0021
3859.00,0.0021
3858.00,0.0021
3857.00,0.0021
3856.00,0.0021
3855.00,0.0021
3854.00,0.0021
3853.00,0.0021
3852.00,0.0020
3851.00,0.0020
3850.00,0.0020
3849.00,0.0020
3848.00,0.0020
3847.00,0.0021
3846.00,0.0021
3845.00,0.0021
3844.00,0.0021
3843.00,0.0021
3842.00,0.0020
3841.00,0.0020
3840.00,0.0020
3839.00,0.0020
3838.00,0.0020
3837.00,0.0020
3836.00,0.0020
3835.00,0.0020
3834.00,0.0020
3833.00,0.0021
3832.00,0.0021
3831.00,0.0021
3830.00,0.0021
3829.00,0.0021
3828.00,0.0021
3827.00,0.0021
3826.00,0.0021
3825.00,0.0021
3824.00,0.0021
3823.00,0.0021
3822.00,0.0020
3821.00,0.0020
3820.00,0.0021
3819.00,0.0020
3818.00,0.0020
3817.00,0.0020
3816.00,0.0020
3815.00,0.0020
3814.00,0.0020
3813.00,0.0020
3812.00,0.0021
3811.00,0.0021
3810.00,0.0021
3809.00,0.0021
3808.00,0.0021
3807.00,0.0020
3806.00,0.0020
3805.00,0.0020
3804.00,0.0020
3803.00,0.0019
3802.00,0.0019
3801.00,0.0020
3800.00,0.0020
3799.00,0.0020
3798.00,0.0020
3797.00,0.0020
3796.00,0.0020
3795.00,0.0021
3794.00,0.0021
3793.00,0.0021
3792.00,0.0021
3791.00,0.0022
3790.00,0.0022
3789.00,0.0022
3788.00,0.0022
3787.00,0.0022
3786.00,0.0022
3785.00,0.0022
3784.00,0.0022
3783.00,0.0022
3782.00,0.0022
3781.00,0.0021
3780.00,0.0021
3779.00,0.0021
3778.00,0.0021
3777.00,0.0022
3776.00,0.0022
3775.00,0.0022
3774.00,0.0022
3773.00,0.0022
3772.00,0.0022
3771.00,0.0021
3770.00,0.0021
3769.00,0.0021
3768.00,0.0021
3767.00,0.0021
3766.00,0.0021
3765.00,0.0021
3764.00,0.0022
3763.00,0.0022
3762.00,0.0022
3761.00,0.0021
3760.00,0.0021
3759.00,0.0021
3758.00,0.0021
3757.00,0.0021
3756.00,0.0021
3755.00,0.0021
3754.00,0.0021
3753.00,0.0020
3752.00,0.0020
3751.00,0.0020
3750.00,0.0019
3749.00,0.0019
3748.00,0.0019
3747.00,0.0019
3746.00,0.0019
3745.00,0.0019
3744.00,0.0019
3743.00,0.0020
3742.00,0.0020
3741.00,0.0020
3740.00,0.0020
3739.00,0.0020
3738.00,0.0019
3737.00,0.0019
3736.00,0.0019
3735.00,0.0020
3734.00,0.0020
3733.00,0.0020
3732.00,0.0019
3731.00,0.0019
3730.00,0.0020
3729.00,0.0020
3728.00,0.0020
3727.00,0.0021
3726.00,0.0021
3725.00,0.0021
3724.00,0.0022
3723.00,0.0022
3722.00,0.0022
3721.00,0.0022
3720.00,0.0022
3719.00,0.0022
3718.00,0.0022
3717.00,0.0022
3716.00,0.0022
3715.00,0.0022
3714.00,0.0022
3713.00,0.0021
3712.00,0.0021
3711.00,0.0021
3710.00,0.0021
3709.00,0.0021
3708.00,0.0022
3707.00,0.0022
3706.00,0.0022
3705.00,0.0022
3704.00,0.0023
3703.00,0.0023
3702.00,0.0024
3701.00,0.0024
3700.00,0.0024
3699.00,0.0024
3698.00,0.0024
3697.00,0.0024
3696.00,0.0024
3695.00,0.0024
3694.00,0.0024
3693.00,0.0024
3692.00,0.0024
3691.00,0.0024
3690.00,0.0024
3689.00,0.0024
3688.00,0.0025
3687.00,0.0025
3686.00,0.0025
3685.00,0.0026
3684.00,0.0026
3683.00,0.0027
3682.00,0.0027
3681.00,0.0028
3680.00,0.0028
3679.00,0.0029
3678.00,0.0029
3677.00,0.0029
3676.00,0.0029
3675.00,0.0029
3674.00,0.0029
3673.00,0.0030
3672.00,0.0030
3671.00,0.0030
3670.00,0.0031
3669.00,0.0033
3668.00,0.0034
3667.00,0.0035
3666.00,0.0035
3665.00,0.0036
3664.00,0.0037
3663.00,0.0037
3662.00,0.0038
3661.00,0.0039
3660.00,0.0040
3659.00,0.0041
3658.00,0.0042
3657.00,0.0042
3656.00,0.0043
3655.00,0.0044
3654.00,0.0044
3653.00,0.0044
3652.00,0.0044
3651.00,0.0044
3650.00,0.0045
3649.00,0.0046
3648.00,0.0048
3647.00,0.0049
3646.00,0.0050
3645.00,0.0051
3644.00,0.0052
3643.00,0.0053
3642.00,0.0054
3641.00,0.0056
3640.00,0.0057
3639.00,0.0058
3638.00,0.0059
3637.00,0.0060
3636.00,0.0061
3635.00,0.0062
3634.00,0.0063
3633.00,0.0064
3632.00,0.0065
3631.00,0.0066
3630.00,0.0067
3629.00,0.0068
3628.00,0.0069
3627.00,0.0070
3626.00,0.0071
3625.00,0.0072
3624.00,0.0074
3623.00,0.0075
3622.00,0.0076
3621.00,0.0077
3620.00,0.0079
3619.00,0.0080
3618.00,0.0081
3617.00,0.0082
3616.00,0.0084
3615.00,0.0085
3614.00,0.0086
3613.00,0.0088
3612.00,0.0089
3611.00,0.0091
3610.00,0.0092
3609.00,0.0093
3608.00,0.0094
3607.00,0.0095
3606.00,0.0097
3605.00,0.0098
3604.00,0.0100
3603.00,0.0101
3602.00,0.0102
3601.00,0.0104
3600.00,0.0105
3599.00,0.0106
3598.00,0.0107
3597.00,0.0108
3596.00,0.0109
3595.00,0.0111
3594.00,0.0112
3593.00,0.0114
3592.00,0.0115
3591.00,0.0116
3590.00,0.0117
3589.00,0.0118
3588.00,0.0120
3587.00,0.0121
3586.00,0.0123
3585.00,0.0124
3584.00,0.0126
3583.00,0.0127
3582.00,0.0129
3581.00,0.0130
3580.00,0.0131
3579.00,0.0133
3578.00,0.0134
3577.00,0.0135
3576.00,0.0137
3575.00,0.0138
3574.00,0.0140
3573.00,0.0141
3572.00,0.0142
3571.00,0.0144
3570.00,0.0145
3569.00,0.0147
3568.00,0.0148
3567.00,0.0150
3566.00,0.0151
3565.00,0.0153
3564.00,0.0154
3563.00,0.0155
3562.00,0.0157
3561.00,0.0159
3560.00,0.0160
3559.00,0.0162
3558.00,0.0163
3557.00,0.0165
3556.00,0.0166
3555.00,0.0168
3554.00,0.0169
3553.00,0.0171
3552.00,0.0172
3551.00,0.0173
3550.00,0.0175
3549.00,0.0177
3548.00,0.0178
3547.00,0.0180
3546.00,0.0181
3545.00,0.0183
3544.00,0.0184
3543.00,0.0186
3542.00,0.0187
3541.00,0.0189
3540.00,0.0190
3539.00,0.0192
3538.00,0.0193
3537.00,0.0195
3536.00,0.0196
3535.00,0.0198
3534.00,0.0199
3533.00,0.0201
3532.00,0.0202
3531.00,0.0204
3530.00,0.0205
3529.00,0.0206
3528.00,0.0207
3527.00,0.0209
3526.00,0.0210
3525.00,0.0211
3524.00,0.0213
3523.00,0.0214
3522.00,0.0216
3521.00,0.0217
3520.00,0.0219
3519.00,0.0220
3518.00,0.0222
3517.00,0.0224
3516.00,0.0225
3515.00,0.0227
3514.00,0.0228
3513.00,0.0230
3512.00,0.0231
3511.00,0.0232
3510.00,0.0234
3509.00,0.0235
3508.00,0.0237
3507.00,0.0239
3506.00,0.0240
3505.00,0.0242
3504.00,0.0244
3503.00,0.0245
3502.00,0.0247
3501.00,0.0249
3500.00,0.0251
3499.00,0.0253
3498.00,0.0254
3497.00,0.0256
3496.00,0.0258
3495.00,0.0260
3494.00,0.0262
3493.00,0.0264
3492.00,0.0266
3491.00,0.0268
3490.00,0.0270
3489.00,0.0272
3488.00,0.0274
3487.00,0.0276
3486.00,0.0279
3485.00,0.0281
3484.00,0.0283
3483.00,0.0286
3482.00,0.0288
3481.00,0.0290
3480.00,0.0292
3479.00,0.0294
3478.00,0.0297
3477.00,0.0299
3476.00,0.0301
3475.00,0.0304
3474.00,0.0306
3473.00,0.0309
3472.00,0.0311
3471.00,0.0313
3470.00,0.0315
3469.00,0.0318
3468.00,0.0320
3467.00,0.0322
3466.00,0.0325
3465.00,0.0327
3464.00,0.0329
3463.00,0.0332
3462.00,0.0334
3461.00,0.0336
3460.00,0.0339
3459.00,0.0341
3458.00,0.0344
3457.00,0.0346
3456.00,0.0348
3455.00,0.0350
3454.00,0.0352
3453.00,0.0355
3452.00,0.0357
3451.00,0.0359
3450.00,0.0362
3449.00,0.0364
3448.00,0.0366
3447.00,0.0368
3446.00,0.0370
3445.00,0.0372
3444.00,0.0374
3443.00,0.0375
3442.00,0.0377
3441.00,0.0380
3440.00,0.0382
3439.00,0.0384
3438.00,0.0387
3437.00,0.0389
3436.00,0.0391
3435.00,0.0393
3434.00,0.0395
3433.00,0.0397
3432.00,0.0399
3431.00,0.0401
3430.00,0.0403
3429.00,0.0404
3428.00,0.0406
3427.00,0.0408
3426.00,0.0410
3425.00,0.0411
3424.00,0.0413
3423.00,0.0415
3422.00,0.0416
3421.00,0.0418
3420.00,0.0420
3419.00,0.0421
3418.00,0.0423
3417.00,0.0425
3416.00,0.0427
3415.00,0.0429
3414.00,0.0430
3413.00,0.0432
3412.00,0.0433
3411.00,0.0435
3410.00,0.0436
3409.00,0.0438
3408.00,0.0439
3407.00,0.0441
3406.00,0.0442
3405.00,0.0443
3404.00,0.0445
3403.00,0.0446
3402.00,0.0447
3401.00,0.0449
3400.00,0.0450
3399.00,0.0452
3398.00,0.0453
3397.00,0.0454
3396.00,0.0456
3395.00,0.0457
3394.00,0.0458
3393.00,0.0459
3392.00,0.0461
3391.00,0.0462
3390.00,0.0464
3389.00,0.0466
3388.00,0.0467
3387.00,0.0469
3386.00,0.0470
3385.00,0.0472
3384.00,0.0474
3383.00,0.0476
3382.00,0.0478
3381.00,0.0479
3380.00,0.0481
3379.00,0.0483
3378.00,0.0485
3377.00,0.0487
3376.00,0.0489
3375.00,0.0492
3374.00,0.0494
3373.00,0.0496
3372.00,0.0498
3371.00,0.0499
3370.00,0.0501
3369.00,0.0504
3368.00,0.0506
3367.00,0.0509
3366.00,0.0511
3365.00,0.0514
3364.00,0.0517
3363.00,0.0519
3362.00,0.0521
3361.00,0.0524
3360.00,0.0527
3359.00,0.0530
3358.00,0.0533
3357.00,0.0535
3356.00,0.0538
3355.00,0.0541
3354.00,0.0543
3353.00,0.0545
3352.00,0.0547
3351.00,0.0549
3350.00,0.0552
3349.00,0.0555
3348.00,0.0558
3347.00,0.0561
3346.00,0.0563
3345.00,0.0565
3344.00,0.0568
3343.00,0.0570
3342.00,0.0572
3341.00,0.0574
3340.00,0.0577
3339.00,0.0579
3338.00,0.0582
3337.00,0.0585
3336.00,0.0588
3335.00,0.0591
3334.00,0.0594
3333.00,0.0597
3332.00,0.0600
3331.00,0.0603
3330.00,0.0606
3329.00,0.0609
3328.00,0.0611
3327.00,0.0614
3326.00,0.0617
3325.00,0.0620
3324.00,0.0623
3323.00,0.0627
3322.00,0.0631
3321.00,0.0635
3320.00,0.0638
3319.00,0.0642
3318.00,0.0646
3317.00,0.0649
3316.00,0.0653
3315.00,0.0657
3314.00,0.0660
3313.00,0.0664
3312.00,0.0667
3311.00,0.0670
3310.00,0.0672
3309.00,0.0675
3308.00,0.0678
3307.00,0.0681
3306.00,0.0685
3305.00,0.0689
3304.00,0.0693
3303.00,0.0697
3302.00,0.0702
3301.00,0.0706
3300.00,0.0709
3299.00,0.0712
3298.00,0.0714
3297.00,0.0716
3296.00,0.0719
3295.00,0.0721
3294.00,0.0724
3293.00,0.0727
3292.00,0.0730
3291.00,0.0733
3290.00,0.0736
3289.00,0.0739
3288.00,0.0741
3287.00,0.0743
3286.00,0.0745
3285.00,0.0746
3284.00,0.0747
3283.00,0.0747
3282.00,0.0748
3281.00,0.0748
3280.00,0.0748
3279.00,0.0748
3278.00,0.0747
3277.00,0.0746
3276.00,0.0744
3275.00,0.0742
3274.00,0.0740
3273.00,0.0738
3272.00,0.0736
3271.00,0.0733
3270.00,0.0731
3269.00,0.0729
3268.00,0.0726
3267.00,0.0724
3266.00,0.0721
3265.00,0.0718
3264.00,0.0715
3263.00,0.0711
3262.00,0.0708
3261.00,0.0705
3260.00,0.0701
3259.00,0.0697
3258.00,0.0693
3257.00,0.0689
3256.00,0.0686
3255.00,0.0682
3254.00,0.0679
3253.00,0.0676
3252.00,0.0673
3251.00,0.0670
3250.00,0.0666
3249.00,0.0662
3248.00,0.0658
3247.00,0.0655
3246.00,0.0652
3245.00,0.0650
3244.00,0.0648
3243.00,0.0646
3242.00,0.0643
3241.00,0.0641
3240.00,0.0639
3239.00,0.0636
3238.00,0.0634
3237.00,0.0631
3236.00,0.0628
3235.00,0.0626
3234.00,0.0624
3233.00,0.0623
3232.00,0.0622
3231.00,0.0621
3230.00,0.0620
3229.00,0.0619
3228.00,0.0618
3227.00,0.0617
3226.00,0.0616
3225.00,0.0615
3224.00,0.0614
3223.00,0.0613
3222.00,0.0612
3221.00,0.0611
3220.00,0.0610
3219.00,0.0610
3218.00,0.0609
3217.00,0.0609
3216.00,0.0608
3215.00,0.0607
3214.00,0.0607
3213.00,0.0606
3212.00,0.0605
3211.00,0.0605
3210.00,0.0604
3209.00,0.0604
3208.00,0.0603
3207.00,0.0603
3206.00,0.0602
3205.00,0.0602
3204.00,0.0601
3203.00,0.0600
3202.00,0.0600
3201.00,0.0599
3200.00,0.0598
3199.00,0.0597
3198.00,0.0596
3197.00,0.0595
3196.00,0.0594
3195.00,0.0593
3194.00,0.0592
3193.00,0.0591
3192.00,0.0589
3191.00,0.0588
3190.00,0.0586
3189.00,0.0585
3188.00,0.0583
3187.00,0.0582
3186.00,0.0580
3185.00,0.0578
3184.00,0.0577
3183.00,0.0575
3182.00,0.0573
3181.00,0.0572
3180.00,0.0570
3179.00,0.0568
3178.00,0.0565
3177.00,0.0563
3176.00,0.0561
3175.00,0.0559
3174.00,0.0557
3173.00,0.0555
3172.00,0.0553
3171.00,0.0551
3170.00,0.0549
3169.00,0.0547
3168.00,0.0544
3167.00,0.0542
3166.00,0.0540
3165.00,0.0537
3164.00,0.0535
3163.00,0.0533
3162.00,0.0531
3161.00,0.0529
3160.00,0.0526
3159.00,0.0524
3158.00,0.0522
3157.00,0.0520
3156.00,0.0518
3155.00,0.0515
3154.00,0.0513
3153.00,0.0511
3152.00,0.0509
3151.00,0.0507
3150.00,0.0506
3149.00,0.0504
3148.00,0.0503
3147.00,0.0501
3146.00,0.0499
3145.00,0.0498
3144.00,0.0496
3143.00,0.0494
3142.00,0.0492
3141.00,0.0491
3140.00,0.0489
3139.00,0.0488
3138.00,0.0486
3137.00,0.0485
3136.00,0.0484
3135.00,0.0483
3134.00,0.0482
3133.00,0.0481
3132.00,0.0479
3131.00,0.0478
3130.00,0.0477
3129.00,0.0476
3128.00,0.0476
3127.00,0.0475
3126.00,0.0474
3125.00,0.0474
3124.00,0.0472
3123.00,0.0471
3122.00,0.0470
3121.00,0.0469
3120.00,0.0468
3119.00,0.0468
3118.00,0.0467
3117.00,0.0467
3116.00,0.0468
3115.00,0.0468
3114.00,0.0469
3113.00,0.0470
3112.00,0.0470
3111.00,0.0470
3110.00,0.0470
3109.00,0.0470
3108.00,0.0471
3107.00,0.0472
3106.00,0.0473
3105.00,0.0473
3104.00,0.0474
3103.00,0.0474
3102.00,0.0475
3101.00,0.0475
3100.00,0.0476
3099.00,0.0477
3098.00,0.0478
3097.00,0.0479
3096.00,0.0481
3095.00,0.0482
3094.00,0.0483
3093.00,0.0483
3092.00,0.0483
3091.00,0.0484
3090.00,0.0484
3089.00,0.0485
3088.00,0.0486
3087.00,0.0486
3086.00,0.0486
3085.00,0.0487
3084.00,0.0488
3083.00,0.0488
3082.00,0.0489
3081.00,0.0490
3080.00,0.0490
3079.00,0.0490
3078.00,0.0491
3077.00,0.0492
3076.00,0.0493
3075.00,0.0493
3074.00,0.0494
3073.00,0.0494
3072.00,0.0494
3071.00,0.0493
3070.00,0.0492
3069.00,0.0491
3068.00,0.0490
3067.00,0.0490
3066.00,0.0490
3065.00,0.0490
3064.00,0.0490
3063.00,0.0489
3062.00,0.0489
3061.00,0.0488
3060.00,0.0487
3059.00,0.0485
3058.00,0.0483
3057.00,0.0481
3056.00,0.0479
3055.00,0.0478
3054.00,0.0476
3053.00,0.0474
3052.00,0.0472
3051.00,0.0471
3050.00,0.0469
3049.00,0.0467
3048.00,0.0465
3047.00,0.0463
3046.00,0.0460
3045.00,0.0458
3044.00,0.0456
3043.00,0.0454
3042.00,0.0452
3041.00,0.0451
3040.00,0.0449
3039.00,0.0448
3038.00,0.0446
3037.00,0.0444
3036.00,0.0441
3035.00,0.0439
3034.00,0.0437
3033.00,0.0436
3032.00,0.0435
3031.00,0.0433
3030.00,0.0432
3029.00,0.0430
3028.00,0.0428
3027.00,0.0426
3026.00,0.0424
3025.00,0.0422
3024.00,0.0420
3023.00,0.0418
3022.00,0.0416
3021.00,0.0414
3020.00,0.0412
3019.00,0.0411
3018.00,0.0409
3017.00,0.0407
3016.00,0.0405
3015.00,0.0403
3014.00,0.0402
3013.00,0.0401
3012.00,0.0400
3011.00,0.0400
3010.00,0.0400
3009.00,0.0400
3008.00,0.0400
3007.00,0.0400
3006.00,0.0400
3005.00,0.0400
3004.00,0.0400
3003.00,0.0400
3002.00,0.0401
3001.00,0.0401
3000.00,0.0402
2999.00,0.0403
2998.00,0.0403
2997.00,0.0405
2996.00,0.0406
2995.00,0.0408
2994.00,0.0410
2993.00,0.0412
2992.00,0.0415
2991.00,0.0418
2990.00,0.0421
2989.00,0.0425
2988.00,0.0428
2987.00,0.0432
2986.00,0.0436
2985.00,0.0440
2984.00,0.0445
2983.00,0.0449
2982.00,0.0455
2981.00,0.0460
2980.00,0.0465
2979.00,0.0471
2978.00,0.0477
2977.00,0.0484
2976.00,0.0490
2975.00,0.0497
2974.00,0.0505
2973.00,0.0513
2972.00,0.0522
2971.00,0.0531
2970.00,0.0541
2969.00,0.0551
2968.00,0.0562
2967.00,0.0572
2966.00,0.0583
2965.00,0.0593
2964.00,0.0603
2963.00,0.0613
2962.00,0.0621
2961.00,0.0629
2960.00,0.0635
2959.00,0.0641
2958.00,0.0646
2957.00,0.0650
2956.00,0.0652
2955.00,0.0653
2954.00,0.0653
2953.00,0.0651
2952.00,0.0648
2951.00,0.0645
2950.00,0.0643
2949.00,0.0641
2948.00,0.0641
2947.00,0.0643
2946.00,0.0647
2945.00,0.0655
2944.00,0.0665
2943.00,0.0679
2942.00,0.0695
2941.00,0.0714
2940.00,0.0734
2939.00,0.0757
2938.00,0.0782
2937.00,0.0807
2936.00,0.0835
2935.00,0.0863
2934.00,0.0892
2933.00,0.0922
2932.00,0.0952
2931.00,0.0983
2930.00,0.1014
2929.00,0.1045
2928.00,0.1074
2927.00,0.1102
2926.00,0.1126
2925.00,0.1145
2924.00,0.1159
2923.00,0.1167
2922.00,0.1166
2921.00,0.1158
2920.00,0.1143
2919.00,0.1121
2918.00,0.1094
2917.00,0.1062
2916.00,0.1028
2915.00,0.0993
2914.00,0.0958
2913.00,0.0924
2912.00,0.0892
2911.00,0.0863
2910.00,0.0836
2909.00,0.0812
2908.00,0.0791
2907.00,0.0772
2906.00,0.0755
2905.00,0.0739
2904.00,0.0725
2903.00,0.0712
2902.00,0.0700
2901.00,0.0688
2900.00,0.0677
2899.00,0.0666
2898.00,0.0655
2897.00,0.0643
2896.00,0.0632
2895.00,0.0621
2894.00,0.0609
2893.00,0.0598
2892.00,0.0586
2891.00,0.0575
2890.00,0.0564
2889.00,0.0553
2888.00,0.0542
2887.00,0.0533
2886.00,0.0525
2885.00,0.0517
2884.00,0.0511
2883.00,0.0506
2882.00,0.0502
2881.00,0.0500
2880.00,0.0499
2879.00,0.0499
2878.00,0.0501
2877.00,0.0503
2876.00,0.0506
2875.00,0.0510
2874.00,0.0513
2873.00,0.0517
2872.00,0.0519
2871.00,0.0521
2870.00,0.0521
2869.00,0.0522
2868.00,0.0523
2867.00,0.0525
2866.00,0.0530
2865.00,0.0538
2864.00,0.0549
2863.00,0.0564
2862.00,0.0583
2861.00,0.0606
2860.00,0.0633
2859.00,0.0661
2858.00,0.0691
2857.00,0.0720
2856.00,0.0745
2855.00,0.0766
2854.00,0.0780
2853.00,0.0786
2852.00,0.0784
2851.00,0.0773
2850.00,0.0754
2849.00,0.0728
2848.00,0.0696
2847.00,0.0659
2846.00,0.0619
2845.00,0.0579
2844.00,0.0542
2843.00,0.0508
2842.00,0.0478
2841.00,0.0452
2840.00,0.0430
2839.00,0.0410
2838.00,0.0394
2837.00,0.0381
2836.00,0.0369
2835.00,0.0360
2834.00,0.0352
2833.00,0.0345
2832.00,0.0339
2831.00,0.0334
2830.00,0.0330
2829.00,0.0326
2828.00,0.0322
2827.00,0.0318
2826.00,0.0315
2825.00,0.0312
2824.00,0.0309
2823.00,0.0306
2822.00,0.0303
2821.00,0.0301
2820.00,0.0298
2819.00,0.0296
2818.00,0.0293
2817.00,0.0291
2816.00,0.0289
2815.00,0.0286
2814.00,0.0284
2813.00,0.0282
2812.00,0.0280
2811.00,0.0279
2810.00,0.0277
2809.00,0.0275
2808.00,0.0274
2807.00,0.0272
2806.00,0.0271
2805.00,0.0269
2804.00,0.0268
2803.00,0.0266
2802.00,0.0264
2801.00,0.0263
2800.00,0.0261
2799.00,0.0259
2798.00,0.0257
2797.00,0.0256
2796.00,0.0255
2795.00,0.0253
2794.00,0.0252
2793.00,0.0251
2792.00,0.0250
2791.00,0.0249
2790.00,0.0248
2789.00,0.0247
2788.00,0.0246
2787.00,0.0245
2786.00,0.0244
2785.00,0.0243
2784.00,0.0242
2783.00,0.0241
2782.00,0.0240
2781.00,0.0239
2780.00,0.0239
2779.00,0.0237
2778.00,0.0236
2777.00,0.0235
2776.00,0.0234
2775.00,0.0233
2774.00,0.0232
2773.00,0.0232
2772.00,0.0232
2771.00,0.0231
2770.00,0.0231
2769.00,0.0230
2768.00,0.0230
2767.00,0.0229
2766.00,0.0228
2765.00,0.0228
2764.00,0.0228
2763.00,0.0227
2762.00,0.0226
2761.00,0.0226
2760.00,0.0225
2759.00,0.0224
2758.00,0.0224
2757.00,0.0223
