Created as New Dataset,Sample 477 By YargerLab Date Saturday, March 01 2025
cm-1,A
4000.00,-0.0116
3999.00,-0.0116
3998.00,-0.0116
3997.00,-0.0116
3996.00,-0.0116
3995.00,-0.0116
3994.00,-0.0117
3993.00,-0.0117
3992.00,-0.0117
3991.00,-0.0117
3990.00,-0.0117
3989.00,-0.0117
3988.00,-0.0117
3987.00,-0.0117
3986.00,-0.0118
3985.00,-0.0118
3984.00,-0.0117
3983.00,-0.0117
3982.00,-0.0117
3981.00,-0.0117
3980.00,-0.0117
3979.00,-0.0117
3978.00,-0.0117
3977.00,-0.0117
3976.00,-0.0117
3975.00,-0.0117
3974.00,-0.0117
3973.00,-0.0117
3972.00,-0.0117
3971.00,-0.0117
3970.00,-0.0117
3969.00,-0.0117
3968.00,-0.0117
3967.00,-0.0117
3966.00,-0.0118
3965.00,-0.0118
3964.00,-0.0118
3963.00,-0.0118
3962.00,-0.0118
3961.00,-0.0118
3960.00,-0.0118
3959.00,-0.0117
3958.00,-0.0117
3957.00,-0.0117
3956.00,-0.0118
3955.00,-0.0118
3954.00,-0.0118
3953.00,-0.0118
3952.00,-0.0118
3951.00,-0.0118
3950.00,-0.0118
3949.00,-0.0118
3948.00,-0.0118
3947.00,-0.0118
3946.00,-0.0118
3945.00,-0.0118
3944.00,-0.0118
3943.00,-0.0118
3942.00,-0.0118
3941.00,-0.0118
3940.00,-0.0118
3939.00,-0.0119
3938.00,-0.0119
3937.00,-0.0119
3936.00,-0.0119
3935.00,-0.0119
3934.00,-0.0119
3933.00,-0.0119
3932.00,-0.0119
3931.00,-0.0118
3930.00,-0.0118
3929.00,-0.0118
3928.00,-0.0118
3927.00,-0.0119
3926.00,-0.0119
3925.00,-0.0119
3924.00,-0.0119
3923.00,-0.0119
3922.00,-0.0119
3921.00,-0.0119
3920.00,-0.0119
3919.00,-0.0119
3918.00,-0.0120
3917.00,-0.0120
3916.00,-0.0120
3915.00,-0.0120
3914.00,-0.0120
3913.00,-0.0120
3912.00,-0.0120
3911.00,-0.0120
3910.00,-0.0120
3909.00,-0.0120
3908.00,-0.0121
3907.00,-0.0121
3906.00,-0.0121
3905.00,-0.0121
3904.00,-0.0121
3903.00,-0.0121
3902.00,-0.0121
3901.00,-0.0121
3900.00,-0.0121
3899.00,-0.0121
3898.00,-0.0121
3897.00,-0.0121
3896.00,-0.0121
3895.00,-0.0122
3894.00,-0.0122
3893.00,-0.0122
3892.00,-0.0121
3891.00,-0.0121
3890.00,-0.0121
3889.00,-0.0121
3888.00,-0.0121
3887.00,-0.0121
3886.00,-0.0121
3885.00,-0.0121
3884.00,-0.0122
3883.00,-0.0122
3882.00,-0.0122
3881.00,-0.0122
3880.00,-0.0122
3879.00,-0.0122
3878.00,-0.0121
3877.00,-0.0122
3876.00,-0.0122
3875.00,-0.0122
3874.00,-0.0122
3873.00,-0.0122
3872.00,-0.0122
3871.00,-0.0123
3870.00,-0.0123
3869.00,-0.0123
3868.00,-0.0123
3867.00,-0.0123
3866.00,-0.0123
3865.00,-0.0123
3864.00,-0.0123
3863.00,-0.0123
3862.00,-0.0123
3861.00,-0.0123
3860.00,-0.0123
3859.00,-0.0123
3858.00,-0.0123
3857.00,-0.0124
3856.00,-0.0124
3855.00,-0.0124
3854.00,-0.0124
3853.00,-0.0124
3852.00,-0.0124
3851.00,-0.0124
3850.00,-0.0124
3849.00,-0.0123
3848.00,-0.0123
3847.00,-0.0123
3846.00,-0.0123
3845.00,-0.0123
3844.00,-0.0124
3843.00,-0.0124
3842.00,-0.0124
3841.00,-0.0124
3840.00,-0.0124
3839.00,-0.0124
3838.00,-0.0124
3837.00,-0.0124
3836.00,-0.0124
3835.00,-0.0125
3834.00,-0.0125
3833.00,-0.0125
3832.00,-0.0125
3831.00,-0.0125
3830.00,-0.0125
3829.00,-0.0125
3828.00,-0.0125
3827.00,-0.0125
3826.00,-0.0125
3825.00,-0.0125
3824.00,-0.0125
3823.00,-0.0125
3822.00,-0.0125
3821.00,-0.0125
3820.00,-0.0124
3819.00,-0.0124
3818.00,-0.0125
3817.00,-0.0125
3816.00,-0.0125
3815.00,-0.0125
3814.00,-0.0125
3813.00,-0.0125
3812.00,-0.0125
3811.00,-0.0125
3810.00,-0.0125
3809.00,-0.0125
3808.00,-0.0125
3807.00,-0.0126
3806.00,-0.0126
3805.00,-0.0126
3804.00,-0.0126
3803.00,-0.0126
3802.00,-0.0126
3801.00,-0.0125
3800.00,-0.0125
3799.00,-0.0125
3798.00,-0.0125
3797.00,-0.0125
3796.00,-0.0125
3795.00,-0.0126
3794.00,-0.0126
3793.00,-0.0126
3792.00,-0.0126
3791.00,-0.0126
3790.00,-0.0126
3789.00,-0.0126
3788.00,-0.0126
3787.00,-0.0126
3786.00,-0.0126
3785.00,-0.0126
3784.00,-0.0126
3783.00,-0.0125
3782.00,-0.0125
3781.00,-0.0126
3780.00,-0.0126
3779.00,-0.0126
3778.00,-0.0126
3777.00,-0.0127
3776.00,-0.0127
3775.00,-0.0127
3774.00,-0.0127
3773.00,-0.0126
3772.00,-0.0126
3771.00,-0.0127
3770.00,-0.0127
3769.00,-0.0127
3768.00,-0.0126
3767.00,-0.0126
3766.00,-0.0126
3765.00,-0.0126
3764.00,-0.0127
3763.00,-0.0127
3762.00,-0.0126
3761.00,-0.0126
3760.00,-0.0126
3759.00,-0.0126
3758.00,-0.0126
3757.00,-0.0127
3756.00,-0.0127
3755.00,-0.0127
3754.00,-0.0127
3753.00,-0.0127
3752.00,-0.0128
3751.00,-0.0128
3750.00,-0.0128
3749.00,-0.0129
3748.00,-0.0129
3747.00,-0.0129
3746.00,-0.0129
3745.00,-0.0129
3744.00,-0.0129
3743.00,-0.0128
3742.00,-0.0128
3741.00,-0.0127
3740.00,-0.0128
3739.00,-0.0128
3738.00,-0.0129
3737.00,-0.0129
3736.00,-0.0129
3735.00,-0.0129
3734.00,-0.0129
3733.00,-0.0129
3732.00,-0.0129
3731.00,-0.0129
3730.00,-0.0129
3729.00,-0.0129
3728.00,-0.0129
3727.00,-0.0129
3726.00,-0.0129
3725.00,-0.0129
3724.00,-0.0129
3723.00,-0.0129
3722.00,-0.0129
3721.00,-0.0129
3720.00,-0.0129
3719.00,-0.0129
3718.00,-0.0129
3717.00,-0.0129
3716.00,-0.0129
3715.00,-0.0130
3714.00,-0.0130
3713.00,-0.0130
3712.00,-0.0130
3711.00,-0.0129
3710.00,-0.0129
3709.00,-0.0129
3708.00,-0.0129
3707.00,-0.0128
3706.00,-0.0128
3705.00,-0.0128
3704.00,-0.0128
3703.00,-0.0128
3702.00,-0.0129
3701.00,-0.0129
3700.00,-0.0129
3699.00,-0.0129
3698.00,-0.0129
3697.00,-0.0129
3696.00,-0.0129
3695.00,-0.0130
3694.00,-0.0130
3693.00,-0.0130
3692.00,-0.0130
3691.00,-0.0130
3690.00,-0.0130
3689.00,-0.0130
3688.00,-0.0130
3687.00,-0.0130
3686.00,-0.0130
3685.00,-0.0131
3684.00,-0.0131
3683.00,-0.0132
3682.00,-0.0133
3681.00,-0.0133
3680.00,-0.0134
3679.00,-0.0134
3678.00,-0.0135
3677.00,-0.0136
3676.00,-0.0136
3675.00,-0.0137
3674.00,-0.0138
3673.00,-0.0138
3672.00,-0.0139
3671.00,-0.0139
3670.00,-0.0138
3669.00,-0.0138
3668.00,-0.0138
3667.00,-0.0137
3666.00,-0.0137
3665.00,-0.0137
3664.00,-0.0138
3663.00,-0.0138
3662.00,-0.0138
3661.00,-0.0138
3660.00,-0.0138
3659.00,-0.0138
3658.00,-0.0139
3657.00,-0.0139
3656.00,-0.0139
3655.00,-0.0139
3654.00,-0.0138
3653.00,-0.0138
3652.00,-0.0138
3651.00,-0.0138
3650.00,-0.0138
3649.00,-0.0138
3648.00,-0.0138
3647.00,-0.0137
3646.00,-0.0137
3645.00,-0.0136
3644.00,-0.0135
3643.00,-0.0135
3642.00,-0.0135
3641.00,-0.0134
3640.00,-0.0134
3639.00,-0.0134
3638.00,-0.0134
3637.00,-0.0134
3636.00,-0.0133
3635.00,-0.0132
3634.00,-0.0132
3633.00,-0.0131
3632.00,-0.0130
3631.00,-0.0130
3630.00,-0.0130
3629.00,-0.0129
3628.00,-0.0129
3627.00,-0.0129
3626.00,-0.0128
3625.00,-0.0128
3624.00,-0.0128
3623.00,-0.0127
3622.00,-0.0127
3621.00,-0.0127
3620.00,-0.0127
3619.00,-0.0126
3618.00,-0.0126
3617.00,-0.0126
3616.00,-0.0126
3615.00,-0.0126
3614.00,-0.0126
3613.00,-0.0126
3612.00,-0.0126
3611.00,-0.0127
3610.00,-0.0127
3609.00,-0.0127
3608.00,-0.0127
3607.00,-0.0127
3606.00,-0.0126
3605.00,-0.0126
3604.00,-0.0126
3603.00,-0.0126
3602.00,-0.0126
3601.00,-0.0125
3600.00,-0.0125
3599.00,-0.0125
3598.00,-0.0124
3597.00,-0.0124
3596.00,-0.0124
3595.00,-0.0124
3594.00,-0.0124
3593.00,-0.0124
3592.00,-0.0124
3591.00,-0.0124
3590.00,-0.0124
3589.00,-0.0123
3588.00,-0.0123
3587.00,-0.0123
3586.00,-0.0123
3585.00,-0.0123
3584.00,-0.0123
3583.00,-0.0123
3582.00,-0.0123
3581.00,-0.0123
3580.00,-0.0123
3579.00,-0.0123
3578.00,-0.0123
3577.00,-0.0122
3576.00,-0.0122
3575.00,-0.0122
3574.00,-0.0122
3573.00,-0.0122
3572.00,-0.0123
3571.00,-0.0123
3570.00,-0.0123
3569.00,-0.0123
3568.00,-0.0123
3567.00,-0.0123
3566.00,-0.0122
3565.00,-0.0122
3564.00,-0.0122
3563.00,-0.0121
3562.00,-0.0121
3561.00,-0.0121
3560.00,-0.0121
3559.00,-0.0122
3558.00,-0.0122
3557.00,-0.0122
3556.00,-0.0122
3555.00,-0.0122
3554.00,-0.0122
3553.00,-0.0122
3552.00,-0.0122
3551.00,-0.0121
3550.00,-0.0121
3549.00,-0.0121
3548.00,-0.0121
3547.00,-0.0121
3546.00,-0.0121
3545.00,-0.0121
3544.00,-0.0121
3543.00,-0.0121
3542.00,-0.0121
3541.00,-0.0121
3540.00,-0.0121
3539.00,-0.0121
3538.00,-0.0121
3537.00,-0.0121
3536.00,-0.0120
3535.00,-0.0120
3534.00,-0.0120
3533.00,-0.0120
3532.00,-0.0120
3531.00,-0.0120
3530.00,-0.0120
3529.00,-0.0120
3528.00,-0.0120
3527.00,-0.0120
3526.00,-0.0120
3525.00,-0.0120
3524.00,-0.0120
3523.00,-0.0120
3522.00,-0.0120
3521.00,-0.0119
3520.00,-0.0119
3519.00,-0.0119
3518.00,-0.0119
3517.00,-0.0119
3516.00,-0.0119
3515.00,-0.0119
3514.00,-0.0119
3513.00,-0.0119
3512.00,-0.0119
3511.00,-0.0119
3510.00,-0.0119
3509.00,-0.0118
3508.00,-0.0118
3507.00,-0.0117
3506.00,-0.0117
3505.00,-0.0117
3504.00,-0.0117
3503.00,-0.0117
3502.00,-0.0117
3501.00,-0.0117
3500.00,-0.0117
3499.00,-0.0117
3498.00,-0.0118
3497.00,-0.0118
3496.00,-0.0118
3495.00,-0.0117
3494.00,-0.0117
3493.00,-0.0116
3492.00,-0.0116
3491.00,-0.0116
3490.00,-0.0115
3489.00,-0.0115
3488.00,-0.0115
3487.00,-0.0115
3486.00,-0.0115
3485.00,-0.0115
3484.00,-0.0115
3483.00,-0.0115
3482.00,-0.0114
3481.00,-0.0114
3480.00,-0.0114
3479.00,-0.0114
3478.00,-0.0114
3477.00,-0.0114
3476.00,-0.0114
3475.00,-0.0114
3474.00,-0.0114
3473.00,-0.0114
3472.00,-0.0114
3471.00,-0.0114
3470.00,-0.0114
3469.00,-0.0113
3468.00,-0.0113
3467.00,-0.0113
3466.00,-0.0113
3465.00,-0.0113
3464.00,-0.0112
3463.00,-0.0112
3462.00,-0.0112
3461.00,-0.0112
3460.00,-0.0111
3459.00,-0.0111
3458.00,-0.0111
3457.00,-0.0111
3456.00,-0.0111
3455.00,-0.0111
3454.00,-0.0111
3453.00,-0.0111
3452.00,-0.0111
3451.00,-0.0111
3450.00,-0.0110
3449.00,-0.0110
3448.00,-0.0110
3447.00,-0.0110
3446.00,-0.0109
3445.00,-0.0109
3444.00,-0.0109
3443.00,-0.0109
3442.00,-0.0109
3441.00,-0.0109
3440.00,-0.0108
3439.00,-0.0108
3438.00,-0.0107
3437.00,-0.0107
3436.00,-0.0106
3435.00,-0.0106
3434.00,-0.0106
3433.00,-0.0105
3432.00,-0.0105
3431.00,-0.0105
3430.00,-0.0105
3429.00,-0.0105
3428.00,-0.0105
3427.00,-0.0104
3426.00,-0.0104
3425.00,-0.0103
3424.00,-0.0103
3423.00,-0.0102
3422.00,-0.0102
3421.00,-0.0102
3420.00,-0.0102
3419.00,-0.0102
3418.00,-0.0102
3417.00,-0.0101
3416.00,-0.0101
3415.00,-0.0100
3414.00,-0.0100
3413.00,-0.0100
3412.00,-0.0099
3411.00,-0.0099
3410.00,-0.0099
3409.00,-0.0099
3408.00,-0.0098
3407.00,-0.0098
3406.00,-0.0098
3405.00,-0.0097
3404.00,-0.0097
3403.00,-0.0096
3402.00,-0.0096
3401.00,-0.0096
3400.00,-0.0095
3399.00,-0.0095
3398.00,-0.0094
3397.00,-0.0094
3396.00,-0.0094
3395.00,-0.0094
3394.00,-0.0093
3393.00,-0.0093
3392.00,-0.0092
3391.00,-0.0092
3390.00,-0.0091
3389.00,-0.0091
3388.00,-0.0090
3387.00,-0.0090
3386.00,-0.0090
3385.00,-0.0090
3384.00,-0.0089
3383.00,-0.0089
3382.00,-0.0088
3381.00,-0.0088
3380.00,-0.0088
3379.00,-0.0087
3378.00,-0.0087
3377.00,-0.0086
3376.00,-0.0085
3375.00,-0.0084
3374.00,-0.0083
3373.00,-0.0083
3372.00,-0.0082
3371.00,-0.0082
3370.00,-0.0081
3369.00,-0.0081
3368.00,-0.0080
3367.00,-0.0080
3366.00,-0.0079
3365.00,-0.0078
3364.00,-0.0077
3363.00,-0.0076
3362.00,-0.0075
3361.00,-0.0075
3360.00,-0.0074
3359.00,-0.0074
3358.00,-0.0073
3357.00,-0.0072
3356.00,-0.0071
3355.00,-0.0070
3354.00,-0.0069
3353.00,-0.0069
3352.00,-0.0068
3351.00,-0.0067
3350.00,-0.0066
3349.00,-0.0065
3348.00,-0.0064
3347.00,-0.0063
3346.00,-0.0062
3345.00,-0.0061
3344.00,-0.0060
3343.00,-0.0059
3342.00,-0.0058
3341.00,-0.0057
3340.00,-0.0056
3339.00,-0.0055
3338.00,-0.0054
3337.00,-0.0052
3336.00,-0.0051
3335.00,-0.0050
3334.00,-0.0049
3333.00,-0.0048
3332.00,-0.0047
3331.00,-0.0045
3330.00,-0.0044
3329.00,-0.0043
3328.00,-0.0042
3327.00,-0.0040
3326.00,-0.0039
3325.00,-0.0038
3324.00,-0.0037
3323.00,-0.0035
3322.00,-0.0034
3321.00,-0.0033
3320.00,-0.0031
3319.00,-0.0030
3318.00,-0.0029
3317.00,-0.0027
3316.00,-0.0026
3315.00,-0.0024
3314.00,-0.0023
3313.00,-0.0021
3312.00,-0.0020
3311.00,-0.0018
3310.00,-0.0016
3309.00,-0.0014
3308.00,-0.0012
3307.00,-0.0011
3306.00,-0.0009
3305.00,-0.0007
3304.00,-0.0005
3303.00,-0.0003
3302.00,-0.0001
3301.00,0.0001
3300.00,0.0003
3299.00,0.0004
3298.00,0.0006
3297.00,0.0008
3296.00,0.0010
3295.00,0.0011
3294.00,0.0013
3293.00,0.0015
3292.00,0.0017
3291.00,0.0018
3290.00,0.0020
3289.00,0.0021
3288.00,0.0022
3287.00,0.0023
3286.00,0.0024
3285.00,0.0026
3284.00,0.0027
3283.00,0.0029
3282.00,0.0030
3281.00,0.0031
3280.00,0.0032
3279.00,0.0033
3278.00,0.0034
3277.00,0.0034
3276.00,0.0035
3275.00,0.0035
3274.00,0.0035
3273.00,0.0036
3272.00,0.0036
3271.00,0.0036
3270.00,0.0035
3269.00,0.0035
3268.00,0.0034
3267.00,0.0032
3266.00,0.0031
3265.00,0.0031
3264.00,0.0030
3263.00,0.0030
3262.00,0.0029
3261.00,0.0028
3260.00,0.0027
3259.00,0.0026
3258.00,0.0025
3257.00,0.0023
3256.00,0.0022
3255.00,0.0021
3254.00,0.0019
3253.00,0.0018
3252.00,0.0016
3251.00,0.0014
3250.00,0.0012
3249.00,0.0011
3248.00,0.0010
3247.00,0.0009
3246.00,0.0008
3245.00,0.0007
3244.00,0.0006
3243.00,0.0005
3242.00,0.0004
3241.00,0.0003
3240.00,0.0002
3239.00,0.0000
3238.00,-0.0001
3237.00,-0.0002
3236.00,-0.0003
3235.00,-0.0004
3234.00,-0.0004
3233.00,-0.0005
3232.00,-0.0006
3231.00,-0.0007
3230.00,-0.0009
3229.00,-0.0010
3228.00,-0.0011
3227.00,-0.0011
3226.00,-0.0012
3225.00,-0.0012
3224.00,-0.0013
3223.00,-0.0013
3222.00,-0.0014
3221.00,-0.0015
3220.00,-0.0016
3219.00,-0.0017
3218.00,-0.0018
3217.00,-0.0019
3216.00,-0.0020
3215.00,-0.0021
3214.00,-0.0021
3213.00,-0.0021
3212.00,-0.0022
3211.00,-0.0022
3210.00,-0.0022
3209.00,-0.0023
3208.00,-0.0024
3207.00,-0.0024
3206.00,-0.0025
3205.00,-0.0025
3204.00,-0.0026
3203.00,-0.0026
3202.00,-0.0027
3201.00,-0.0028
3200.00,-0.0029
3199.00,-0.0029
3198.00,-0.0030
3197.00,-0.0030
3196.00,-0.0030
3195.00,-0.0030
3194.00,-0.0031
3193.00,-0.0031
3192.00,-0.0032
3191.00,-0.0033
3190.00,-0.0033
3189.00,-0.0034
3188.00,-0.0035
3187.00,-0.0035
3186.00,-0.0036
3185.00,-0.0036
3184.00,-0.0037
3183.00,-0.0038
3182.00,-0.0039
3181.00,-0.0040
3180.00,-0.0041
3179.00,-0.0042
3178.00,-0.0042
3177.00,-0.0043
3176.00,-0.0044
3175.00,-0.0045
3174.00,-0.0045
3173.00,-0.0046
3172.00,-0.0046
3171.00,-0.0047
3170.00,-0.0047
3169.00,-0.0048
3168.00,-0.0048
3167.00,-0.0049
3166.00,-0.0050
3165.00,-0.0051
3164.00,-0.0051
3163.00,-0.0052
3162.00,-0.0053
3161.00,-0.0054
3160.00,-0.0054
3159.00,-0.0055
3158.00,-0.0056
3157.00,-0.0056
3156.00,-0.0057
3155.00,-0.0057
3154.00,-0.0058
3153.00,-0.0058
3152.00,-0.0059
3151.00,-0.0060
3150.00,-0.0060
3149.00,-0.0061
3148.00,-0.0062
3147.00,-0.0062
3146.00,-0.0063
3145.00,-0.0063
3144.00,-0.0064
3143.00,-0.0064
3142.00,-0.0065
3141.00,-0.0065
3140.00,-0.0066
3139.00,-0.0066
3138.00,-0.0067
3137.00,-0.0067
3136.00,-0.0068
3135.00,-0.0069
3134.00,-0.0069
3133.00,-0.0070
3132.00,-0.0070
3131.00,-0.0070
3130.00,-0.0070
3129.00,-0.0070
3128.00,-0.0071
3127.00,-0.0071
3126.00,-0.0072
3125.00,-0.0072
3124.00,-0.0073
3123.00,-0.0073
3122.00,-0.0073
3121.00,-0.0074
3120.00,-0.0074
3119.00,-0.0075
3118.00,-0.0075
3117.00,-0.0075
3116.00,-0.0075
3115.00,-0.0075
3114.00,-0.0075
3113.00,-0.0075
3112.00,-0.0075
3111.00,-0.0075
3110.00,-0.0075
3109.00,-0.0075
3108.00,-0.0075
3107.00,-0.0075
3106.00,-0.0075
3105.00,-0.0075
3104.00,-0.0075
3103.00,-0.0075
3102.00,-0.0075
3101.00,-0.0075
3100.00,-0.0076
3099.00,-0.0076
3098.00,-0.0076
3097.00,-0.0076
3096.00,-0.0076
3095.00,-0.0076
3094.00,-0.0076
3093.00,-0.0076
3092.00,-0.0076
3091.00,-0.0076
3090.00,-0.0075
3089.00,-0.0075
3088.00,-0.0075
3087.00,-0.0075
3086.00,-0.0075
3085.00,-0.0075
3084.00,-0.0075
3083.00,-0.0075
3082.00,-0.0075
3081.00,-0.0075
3080.00,-0.0075
3079.00,-0.0075
3078.00,-0.0075
3077.00,-0.0074
3076.00,-0.0074
3075.00,-0.0073
3074.00,-0.0073
3073.00,-0.0073
3072.00,-0.0073
3071.00,-0.0073
3070.00,-0.0073
3069.00,-0.0073
3068.00,-0.0073
3067.00,-0.0073
3066.00,-0.0073
3065.00,-0.0073
3064.00,-0.0073
3063.00,-0.0073
3062.00,-0.0073
3061.00,-0.0073
3060.00,-0.0073
3059.00,-0.0073
3058.00,-0.0073
3057.00,-0.0074
3056.00,-0.0074
3055.00,-0.0075
3054.00,-0.0076
3053.00,-0.0076
3052.00,-0.0077
3051.00,-0.0077
3050.00,-0.0078
3049.00,-0.0078
3048.00,-0.0079
3047.00,-0.0081
3046.00,-0.0082
3045.00,-0.0083
3044.00,-0.0083
3043.00,-0.0084
3042.00,-0.0085
3041.00,-0.0085
3040.00,-0.0086
3039.00,-0.0087
3038.00,-0.0088
3037.00,-0.0089
3036.00,-0.0090
3035.00,-0.0091
3034.00,-0.0091
3033.00,-0.0092
3032.00,-0.0093
3031.00,-0.0094
3030.00,-0.0094
3029.00,-0.0095
3028.00,-0.0096
3027.00,-0.0097
3026.00,-0.0097
3025.00,-0.0098
3024.00,-0.0099
3023.00,-0.0099
3022.00,-0.0100
3021.00,-0.0101
3020.00,-0.0103
3019.00,-0.0104
3018.00,-0.0106
3017.00,-0.0107
3016.00,-0.0108
3015.00,-0.0109
3014.00,-0.0110
3013.00,-0.0111
3012.00,-0.0112
3011.00,-0.0113
3010.00,-0.0115
3009.00,-0.0117
3008.00,-0.0119
3007.00,-0.0122
3006.00,-0.0125
3005.00,-0.0128
3004.00,-0.0131
3003.00,-0.0134
3002.00,-0.0137
3001.00,-0.0141
3000.00,-0.0144
2999.00,-0.0147
2998.00,-0.0149
2997.00,-0.0151
2996.00,-0.0152
2995.00,-0.0154
2994.00,-0.0155
2993.00,-0.0157
2992.00,-0.0158
2991.00,-0.0159
2990.00,-0.0160
2989.00,-0.0161
2988.00,-0.0162
2987.00,-0.0164
2986.00,-0.0167
2985.00,-0.0173
2984.00,-0.0180
2983.00,-0.0188
2982.00,-0.0193
2981.00,-0.0194
2980.00,-0.0192
2979.00,-0.0187
2978.00,-0.0181
2977.00,-0.0176
2976.00,-0.0172
2975.00,-0.0169
2974.00,-0.0167
2973.00,-0.0166
2972.00,-0.0165
2971.00,-0.0162
2970.00,-0.0157
2969.00,-0.0152
2968.00,-0.0146
2967.00,-0.0141
2966.00,-0.0137
2965.00,-0.0133
2964.00,-0.0130
2963.00,-0.0126
2962.00,-0.0123
2961.00,-0.0120
2960.00,-0.0117
2959.00,-0.0115
2958.00,-0.0113
2957.00,-0.0112
2956.00,-0.0111
2955.00,-0.0110
2954.00,-0.0109
2953.00,-0.0109
2952.00,-0.0108
2951.00,-0.0108
2950.00,-0.0109
2949.00,-0.0108
2948.00,-0.0108
2947.00,-0.0107
2946.00,-0.0105
2945.00,-0.0103
2944.00,-0.0101
2943.00,-0.0098
2942.00,-0.0096
2941.00,-0.0093
2940.00,-0.0089
2939.00,-0.0086
2938.00,-0.0082
2937.00,-0.0078
2936.00,-0.0074
2935.00,-0.0070
2934.00,-0.0065
2933.00,-0.0061
2932.00,-0.0056
2931.00,-0.0052
2930.00,-0.0048
2929.00,-0.0043
2928.00,-0.0039
2927.00,-0.0036
2926.00,-0.0032
2925.00,-0.0030
2924.00,-0.0028
2923.00,-0.0026
2922.00,-0.0026
2921.00,-0.0026
2920.00,-0.0028
2919.00,-0.0030
2918.00,-0.0033
2917.00,-0.0037
2916.00,-0.0042
2915.00,-0.0047
2914.00,-0.0051
2913.00,-0.0056
2912.00,-0.0061
2911.00,-0.0065
2910.00,-0.0069
2909.00,-0.0072
2908.00,-0.0076
2907.00,-0.0079
2906.00,-0.0081
2905.00,-0.0084
2904.00,-0.0086
2903.00,-0.0088
2902.00,-0.0089
2901.00,-0.0091
2900.00,-0.0092
2899.00,-0.0094
2898.00,-0.0096
2897.00,-0.0098
2896.00,-0.0100
2895.00,-0.0102
2894.00,-0.0104
2893.00,-0.0106
2892.00,-0.0108
2891.00,-0.0110
2890.00,-0.0111
2889.00,-0.0112
2888.00,-0.0113
2887.00,-0.0114
2886.00,-0.0115
2885.00,-0.0115
2884.00,-0.0115
2883.00,-0.0115
2882.00,-0.0114
2881.00,-0.0112
2880.00,-0.0110
2879.00,-0.0108
2878.00,-0.0107
2877.00,-0.0106
2876.00,-0.0105
2875.00,-0.0104
2874.00,-0.0103
2873.00,-0.0102
2872.00,-0.0101
2871.00,-0.0101
2870.00,-0.0101
2869.00,-0.0101
2868.00,-0.0100
2867.00,-0.0100
2866.00,-0.0099
2865.00,-0.0098
2864.00,-0.0097
2863.00,-0.0095
2862.00,-0.0093
2861.00,-0.0090
2860.00,-0.0088
2859.00,-0.0084
2858.00,-0.0081
2857.00,-0.0077
2856.00,-0.0074
2855.00,-0.0071
2854.00,-0.0069
2853.00,-0.0067
2852.00,-0.0067
2851.00,-0.0068
2850.00,-0.0070
2849.00,-0.0073
2848.00,-0.0077
2847.00,-0.0081
2846.00,-0.0086
2845.00,-0.0090
2844.00,-0.0094
2843.00,-0.0098
2842.00,-0.0101
2841.00,-0.0104
2840.00,-0.0106
2839.00,-0.0108
2838.00,-0.0110
2837.00,-0.0111
2836.00,-0.0113
2835.00,-0.0114
2834.00,-0.0115
2833.00,-0.0116
2832.00,-0.0117
2831.00,-0.0117
2830.00,-0.0118
2829.00,-0.0118
2828.00,-0.0119
2827.00,-0.0120
2826.00,-0.0120
