Created as New Dataset,Sample 655 By YargerLab Date Tuesday, June 10 2025
cm-1,A
4000.00,0.0041
3999.00,0.0041
3998.00,0.0041
3997.00,0.0041
3996.00,0.0041
3995.00,0.0041
3994.00,0.0041
3993.00,0.0041
3992.00,0.0042
3991.00,0.0042
3990.00,0.0041
3989.00,0.0041
3988.00,0.0041
3987.00,0.0041
3986.00,0.0041
3985.00,0.0041
3984.00,0.0041
3983.00,0.0041
3982.00,0.0041
3981.00,0.0040
3980.00,0.0040
3979.00,0.0040
3978.00,0.0040
3977.00,0.0040
3976.00,0.0040
3975.00,0.0040
3974.00,0.0040
3973.00,0.0040
3972.00,0.0040
3971.00,0.0041
3970.00,0.0041
3969.00,0.0041
3968.00,0.0041
3967.00,0.0041
3966.00,0.0041
3965.00,0.0041
3964.00,0.0041
3963.00,0.0041
3962.00,0.0041
3961.00,0.0041
3960.00,0.0041
3959.00,0.0041
3958.00,0.0042
3957.00,0.0042
3956.00,0.0041
3955.00,0.0041
3954.00,0.0041
3953.00,0.0041
3952.00,0.0041
3951.00,0.0041
3950.00,0.0041
3949.00,0.0042
3948.00,0.0043
3947.00,0.0043
3946.00,0.0044
3945.00,0.0043
3944.00,0.0043
3943.00,0.0042
3942.00,0.0041
3941.00,0.0041
3940.00,0.0041
3939.00,0.0042
3938.00,0.0042
3937.00,0.0042
3936.00,0.0042
3935.00,0.0043
3934.00,0.0044
3933.00,0.0044
3932.00,0.0044
3931.00,0.0043
3930.00,0.0043
3929.00,0.0043
3928.00,0.0043
3927.00,0.0042
3926.00,0.0042
3925.00,0.0041
3924.00,0.0041
3923.00,0.0042
3922.00,0.0043
3921.00,0.0044
3920.00,0.0045
3919.00,0.0045
3918.00,0.0045
3917.00,0.0044
3916.00,0.0044
3915.00,0.0043
3914.00,0.0043
3913.00,0.0042
3912.00,0.0042
3911.00,0.0041
3910.00,0.0041
3909.00,0.0041
3908.00,0.0041
3907.00,0.0041
3906.00,0.0042
3905.00,0.0043
3904.00,0.0046
3903.00,0.0049
3902.00,0.0052
3901.00,0.0052
3900.00,0.0051
3899.00,0.0050
3898.00,0.0048
3897.00,0.0048
3896.00,0.0047
3895.00,0.0046
3894.00,0.0044
3893.00,0.0042
3892.00,0.0042
3891.00,0.0042
3890.00,0.0043
3889.00,0.0045
3888.00,0.0047
3887.00,0.0048
3886.00,0.0048
3885.00,0.0047
3884.00,0.0046
3883.00,0.0046
3882.00,0.0047
3881.00,0.0046
3880.00,0.0045
3879.00,0.0045
3878.00,0.0045
3877.00,0.0046
3876.00,0.0047
3875.00,0.0046
3874.00,0.0045
3873.00,0.0045
3872.00,0.0046
3871.00,0.0048
3870.00,0.0049
3869.00,0.0048
3868.00,0.0048
3867.00,0.0049
3866.00,0.0050
3865.00,0.0049
3864.00,0.0048
3863.00,0.0047
3862.00,0.0048
3861.00,0.0048
3860.00,0.0048
3859.00,0.0046
3858.00,0.0044
3857.00,0.0040
3856.00,0.0038
3855.00,0.0038
3854.00,0.0039
3853.00,0.0041
3852.00,0.0045
3851.00,0.0047
3850.00,0.0048
3849.00,0.0049
3848.00,0.0049
3847.00,0.0048
3846.00,0.0048
3845.00,0.0048
3844.00,0.0048
3843.00,0.0048
3842.00,0.0048
3841.00,0.0048
3840.00,0.0048
3839.00,0.0048
3838.00,0.0048
3837.00,0.0048
3836.00,0.0048
3835.00,0.0048
3834.00,0.0048
3833.00,0.0048
3832.00,0.0048
3831.00,0.0048
3830.00,0.0047
3829.00,0.0047
3828.00,0.0046
3827.00,0.0046
3826.00,0.0045
3825.00,0.0046
3824.00,0.0047
3823.00,0.0048
3822.00,0.0049
3821.00,0.0047
3820.00,0.0046
3819.00,0.0047
3818.00,0.0048
3817.00,0.0049
3816.00,0.0048
3815.00,0.0046
3814.00,0.0044
3813.00,0.0044
3812.00,0.0044
3811.00,0.0043
3810.00,0.0043
3809.00,0.0043
3808.00,0.0044
3807.00,0.0045
3806.00,0.0046
3805.00,0.0047
3804.00,0.0048
3803.00,0.0049
3802.00,0.0049
3801.00,0.0047
3800.00,0.0046
3799.00,0.0047
3798.00,0.0048
3797.00,0.0048
3796.00,0.0047
3795.00,0.0045
3794.00,0.0044
3793.00,0.0043
3792.00,0.0043
3791.00,0.0042
3790.00,0.0041
3789.00,0.0040
3788.00,0.0040
3787.00,0.0040
3786.00,0.0040
3785.00,0.0040
3784.00,0.0040
3783.00,0.0041
3782.00,0.0042
3781.00,0.0043
3780.00,0.0043
3779.00,0.0043
3778.00,0.0042
3777.00,0.0042
3776.00,0.0042
3775.00,0.0042
3774.00,0.0042
3773.00,0.0042
3772.00,0.0043
3771.00,0.0044
3770.00,0.0044
3769.00,0.0044
3768.00,0.0044
3767.00,0.0045
3766.00,0.0046
3765.00,0.0046
3764.00,0.0046
3763.00,0.0046
3762.00,0.0047
3761.00,0.0047
3760.00,0.0047
3759.00,0.0047
3758.00,0.0047
3757.00,0.0047
3756.00,0.0048
3755.00,0.0048
3754.00,0.0050
3753.00,0.0051
3752.00,0.0051
3751.00,0.0052
3750.00,0.0054
3749.00,0.0055
3748.00,0.0055
3747.00,0.0055
3746.00,0.0056
3745.00,0.0056
3744.00,0.0056
3743.00,0.0054
3742.00,0.0054
3741.00,0.0055
3740.00,0.0056
3739.00,0.0056
3738.00,0.0057
3737.00,0.0058
3736.00,0.0057
3735.00,0.0056
3734.00,0.0056
3733.00,0.0056
3732.00,0.0055
3731.00,0.0053
3730.00,0.0051
3729.00,0.0050
3728.00,0.0050
3727.00,0.0050
3726.00,0.0049
3725.00,0.0048
3724.00,0.0048
3723.00,0.0048
3722.00,0.0048
3721.00,0.0047
3720.00,0.0046
3719.00,0.0045
3718.00,0.0045
3717.00,0.0044
3716.00,0.0044
3715.00,0.0045
3714.00,0.0047
3713.00,0.0048
3712.00,0.0048
3711.00,0.0048
3710.00,0.0048
3709.00,0.0048
3708.00,0.0048
3707.00,0.0047
3706.00,0.0045
3705.00,0.0044
3704.00,0.0044
3703.00,0.0043
3702.00,0.0042
3701.00,0.0041
3700.00,0.0041
3699.00,0.0041
3698.00,0.0041
3697.00,0.0041
3696.00,0.0041
3695.00,0.0041
3694.00,0.0042
3693.00,0.0043
3692.00,0.0043
3691.00,0.0043
3690.00,0.0043
3689.00,0.0044
3688.00,0.0045
3687.00,0.0045
3686.00,0.0045
3685.00,0.0044
3684.00,0.0044
3683.00,0.0044
3682.00,0.0044
3681.00,0.0044
3680.00,0.0045
3679.00,0.0046
3678.00,0.0048
3677.00,0.0050
3676.00,0.0051
3675.00,0.0051
3674.00,0.0051
3673.00,0.0051
3672.00,0.0052
3671.00,0.0052
3670.00,0.0050
3669.00,0.0048
3668.00,0.0047
3667.00,0.0046
3666.00,0.0046
3665.00,0.0045
3664.00,0.0043
3663.00,0.0042
3662.00,0.0042
3661.00,0.0042
3660.00,0.0042
3659.00,0.0042
3658.00,0.0043
3657.00,0.0044
3656.00,0.0045
3655.00,0.0047
3654.00,0.0049
3653.00,0.0051
3652.00,0.0054
3651.00,0.0055
3650.00,0.0055
3649.00,0.0056
3648.00,0.0056
3647.00,0.0056
3646.00,0.0054
3645.00,0.0051
3644.00,0.0049
3643.00,0.0047
3642.00,0.0045
3641.00,0.0044
3640.00,0.0043
3639.00,0.0043
3638.00,0.0043
3637.00,0.0043
3636.00,0.0044
3635.00,0.0045
3634.00,0.0046
3633.00,0.0046
3632.00,0.0046
3631.00,0.0048
3630.00,0.0050
3629.00,0.0051
3628.00,0.0052
3627.00,0.0052
3626.00,0.0053
3625.00,0.0053
3624.00,0.0051
3623.00,0.0050
3622.00,0.0048
3621.00,0.0047
3620.00,0.0046
3619.00,0.0046
3618.00,0.0048
3617.00,0.0050
3616.00,0.0051
3615.00,0.0052
3614.00,0.0053
3613.00,0.0052
3612.00,0.0053
3611.00,0.0054
3610.00,0.0055
3609.00,0.0055
3608.00,0.0053
3607.00,0.0051
3606.00,0.0050
3605.00,0.0050
3604.00,0.0049
3603.00,0.0049
3602.00,0.0049
3601.00,0.0049
3600.00,0.0049
3599.00,0.0049
3598.00,0.0050
3597.00,0.0050
3596.00,0.0050
3595.00,0.0049
3594.00,0.0049
3593.00,0.0050
3592.00,0.0051
3591.00,0.0052
3590.00,0.0053
3589.00,0.0054
3588.00,0.0053
3587.00,0.0052
3586.00,0.0052
3585.00,0.0052
3584.00,0.0052
3583.00,0.0052
3582.00,0.0051
3581.00,0.0049
3580.00,0.0048
3579.00,0.0047
3578.00,0.0046
3577.00,0.0046
3576.00,0.0047
3575.00,0.0047
3574.00,0.0047
3573.00,0.0048
3572.00,0.0049
3571.00,0.0051
3570.00,0.0054
3569.00,0.0056
3568.00,0.0057
3567.00,0.0057
3566.00,0.0056
3565.00,0.0056
3564.00,0.0055
3563.00,0.0054
3562.00,0.0053
3561.00,0.0052
3560.00,0.0051
3559.00,0.0050
3558.00,0.0050
3557.00,0.0050
3556.00,0.0050
3555.00,0.0050
3554.00,0.0050
3553.00,0.0050
3552.00,0.0050
3551.00,0.0051
3550.00,0.0052
3549.00,0.0053
3548.00,0.0054
3547.00,0.0055
3546.00,0.0055
3545.00,0.0055
3544.00,0.0054
3543.00,0.0054
3542.00,0.0054
3541.00,0.0053
3540.00,0.0053
3539.00,0.0053
3538.00,0.0053
3537.00,0.0053
3536.00,0.0052
3535.00,0.0052
3534.00,0.0052
3533.00,0.0052
3532.00,0.0053
3531.00,0.0053
3530.00,0.0053
3529.00,0.0054
3528.00,0.0054
3527.00,0.0055
3526.00,0.0056
3525.00,0.0056
3524.00,0.0057
3523.00,0.0057
3522.00,0.0057
3521.00,0.0058
3520.00,0.0059
3519.00,0.0059
3518.00,0.0058
3517.00,0.0057
3516.00,0.0056
3515.00,0.0055
3514.00,0.0055
3513.00,0.0055
3512.00,0.0055
3511.00,0.0055
3510.00,0.0055
3509.00,0.0056
3508.00,0.0056
3507.00,0.0057
3506.00,0.0057
3505.00,0.0057
3504.00,0.0057
3503.00,0.0057
3502.00,0.0058
3501.00,0.0058
3500.00,0.0058
3499.00,0.0058
3498.00,0.0058
3497.00,0.0058
3496.00,0.0058
3495.00,0.0058
3494.00,0.0057
3493.00,0.0057
3492.00,0.0057
3491.00,0.0057
3490.00,0.0057
3489.00,0.0058
3488.00,0.0058
3487.00,0.0058
3486.00,0.0059
3485.00,0.0059
3484.00,0.0059
3483.00,0.0059
3482.00,0.0059
3481.00,0.0059
3480.00,0.0060
3479.00,0.0060
3478.00,0.0060
3477.00,0.0060
3476.00,0.0059
3475.00,0.0059
3474.00,0.0059
3473.00,0.0060
3472.00,0.0060
3471.00,0.0060
3470.00,0.0060
3469.00,0.0060
3468.00,0.0061
3467.00,0.0061
3466.00,0.0061
3465.00,0.0061
3464.00,0.0061
3463.00,0.0061
3462.00,0.0061
3461.00,0.0062
3460.00,0.0062
3459.00,0.0063
3458.00,0.0064
3457.00,0.0064
3456.00,0.0065
3455.00,0.0064
3454.00,0.0064
3453.00,0.0063
3452.00,0.0062
3451.00,0.0062
3450.00,0.0063
3449.00,0.0063
3448.00,0.0064
3447.00,0.0064
3446.00,0.0064
3445.00,0.0064
3444.00,0.0064
3443.00,0.0064
3442.00,0.0064
3441.00,0.0064
3440.00,0.0065
3439.00,0.0065
3438.00,0.0065
3437.00,0.0065
3436.00,0.0064
3435.00,0.0064
3434.00,0.0064
3433.00,0.0065
3432.00,0.0065
3431.00,0.0065
3430.00,0.0065
3429.00,0.0065
3428.00,0.0066
3427.00,0.0066
3426.00,0.0066
3425.00,0.0066
3424.00,0.0066
3423.00,0.0066
3422.00,0.0066
3421.00,0.0066
3420.00,0.0067
3419.00,0.0067
3418.00,0.0068
3417.00,0.0068
3416.00,0.0068
3415.00,0.0068
3414.00,0.0068
3413.00,0.0068
3412.00,0.0069
3411.00,0.0068
3410.00,0.0068
3409.00,0.0068
3408.00,0.0068
3407.00,0.0068
3406.00,0.0069
3405.00,0.0069
3404.00,0.0069
3403.00,0.0069
3402.00,0.0070
3401.00,0.0071
3400.00,0.0071
3399.00,0.0071
3398.00,0.0072
3397.00,0.0072
3396.00,0.0072
3395.00,0.0071
3394.00,0.0071
3393.00,0.0071
3392.00,0.0072
3391.00,0.0072
3390.00,0.0072
3389.00,0.0072
3388.00,0.0072
3387.00,0.0072
3386.00,0.0072
3385.00,0.0073
3384.00,0.0073
3383.00,0.0073
3382.00,0.0073
3381.00,0.0074
3380.00,0.0074
3379.00,0.0074
3378.00,0.0074
3377.00,0.0075
3376.00,0.0075
3375.00,0.0075
3374.00,0.0075
3373.00,0.0076
3372.00,0.0076
3371.00,0.0076
3370.00,0.0076
3369.00,0.0076
3368.00,0.0077
3367.00,0.0077
3366.00,0.0078
3365.00,0.0078
3364.00,0.0079
3363.00,0.0079
3362.00,0.0080
3361.00,0.0080
3360.00,0.0080
3359.00,0.0080
3358.00,0.0080
3357.00,0.0080
3356.00,0.0080
3355.00,0.0080
3354.00,0.0081
3353.00,0.0082
3352.00,0.0082
3351.00,0.0082
3350.00,0.0082
3349.00,0.0082
3348.00,0.0083
3347.00,0.0083
3346.00,0.0083
3345.00,0.0084
3344.00,0.0084
3343.00,0.0085
3342.00,0.0085
3341.00,0.0085
3340.00,0.0086
3339.00,0.0086
3338.00,0.0087
3337.00,0.0087
3336.00,0.0087
3335.00,0.0088
3334.00,0.0087
3333.00,0.0087
3332.00,0.0088
3331.00,0.0088
3330.00,0.0089
3329.00,0.0089
3328.00,0.0090
3327.00,0.0091
3326.00,0.0091
3325.00,0.0091
3324.00,0.0091
3323.00,0.0092
3322.00,0.0092
3321.00,0.0092
3320.00,0.0093
3319.00,0.0093
3318.00,0.0094
3317.00,0.0094
3316.00,0.0094
3315.00,0.0095
3314.00,0.0095
3313.00,0.0096
3312.00,0.0097
3311.00,0.0097
3310.00,0.0098
3309.00,0.0098
3308.00,0.0098
3307.00,0.0098
3306.00,0.0098
3305.00,0.0099
3304.00,0.0099
3303.00,0.0099
3302.00,0.0099
3301.00,0.0099
3300.00,0.0100
3299.00,0.0101
3298.00,0.0101
3297.00,0.0102
3296.00,0.0102
3295.00,0.0102
3294.00,0.0102
3293.00,0.0102
3292.00,0.0102
3291.00,0.0102
3290.00,0.0102
3289.00,0.0102
3288.00,0.0102
3287.00,0.0102
3286.00,0.0102
3285.00,0.0102
3284.00,0.0102
3283.00,0.0102
3282.00,0.0102
3281.00,0.0101
3280.00,0.0101
3279.00,0.0101
3278.00,0.0100
3277.00,0.0100
3276.00,0.0101
3275.00,0.0101
3274.00,0.0101
3273.00,0.0100
3272.00,0.0100
3271.00,0.0099
3270.00,0.0097
3269.00,0.0096
3268.00,0.0095
3267.00,0.0095
3266.00,0.0095
3265.00,0.0095
3264.00,0.0095
3263.00,0.0094
3262.00,0.0094
3261.00,0.0093
3260.00,0.0093
3259.00,0.0092
3258.00,0.0092
3257.00,0.0092
3256.00,0.0091
3255.00,0.0091
3254.00,0.0090
3253.00,0.0090
3252.00,0.0089
3251.00,0.0089
3250.00,0.0089
3249.00,0.0089
3248.00,0.0088
3247.00,0.0088
3246.00,0.0088
3245.00,0.0088
3244.00,0.0087
3243.00,0.0087
3242.00,0.0087
3241.00,0.0086
3240.00,0.0086
3239.00,0.0085
3238.00,0.0085
3237.00,0.0084
3236.00,0.0084
3235.00,0.0084
3234.00,0.0084
3233.00,0.0084
3232.00,0.0083
3231.00,0.0083
3230.00,0.0082
3229.00,0.0082
3228.00,0.0082
3227.00,0.0082
3226.00,0.0081
3225.00,0.0081
3224.00,0.0081
3223.00,0.0080
3222.00,0.0080
3221.00,0.0080
3220.00,0.0080
3219.00,0.0080
3218.00,0.0080
3217.00,0.0080
3216.00,0.0079
3215.00,0.0079
3214.00,0.0079
3213.00,0.0078
3212.00,0.0078
3211.00,0.0078
3210.00,0.0078
3209.00,0.0077
3208.00,0.0077
3207.00,0.0077
3206.00,0.0077
3205.00,0.0076
3204.00,0.0076
3203.00,0.0076
3202.00,0.0075
3201.00,0.0075
3200.00,0.0075
3199.00,0.0075
3198.00,0.0075
3197.00,0.0075
3196.00,0.0074
3195.00,0.0074
3194.00,0.0073
3193.00,0.0073
3192.00,0.0072
3191.00,0.0072
3190.00,0.0071
3189.00,0.0071
3188.00,0.0071
3187.00,0.0071
3186.00,0.0070
3185.00,0.0070
3184.00,0.0070
3183.00,0.0070
3182.00,0.0070
3181.00,0.0070
3180.00,0.0069
3179.00,0.0069
3178.00,0.0069
3177.00,0.0069
3176.00,0.0069
3175.00,0.0069
3174.00,0.0069
3173.00,0.0068
3172.00,0.0067
3171.00,0.0067
3170.00,0.0067
3169.00,0.0067
3168.00,0.0067
3167.00,0.0067
3166.00,0.0066
3165.00,0.0066
3164.00,0.0066
3163.00,0.0066
3162.00,0.0065
3161.00,0.0065
3160.00,0.0065
3159.00,0.0065
3158.00,0.0064
3157.00,0.0064
3156.00,0.0064
3155.00,0.0064
3154.00,0.0064
3153.00,0.0064
3152.00,0.0064
3151.00,0.0064
3150.00,0.0063
3149.00,0.0063
3148.00,0.0063
3147.00,0.0062
3146.00,0.0063
3145.00,0.0063
3144.00,0.0063
3143.00,0.0063
3142.00,0.0064
3141.00,0.0063
3140.00,0.0063
3139.00,0.0062
3138.00,0.0062
3137.00,0.0062
3136.00,0.0061
3135.00,0.0061
3134.00,0.0061
3133.00,0.0061
3132.00,0.0061
3131.00,0.0061
3130.00,0.0061
3129.00,0.0062
3128.00,0.0061
3127.00,0.0061
3126.00,0.0061
3125.00,0.0061
3124.00,0.0061
3123.00,0.0061
3122.00,0.0061
3121.00,0.0062
3120.00,0.0062
3119.00,0.0063
3118.00,0.0063
3117.00,0.0063
3116.00,0.0064
3115.00,0.0064
3114.00,0.0065
3113.00,0.0065
3112.00,0.0066
3111.00,0.0067
3110.00,0.0069
3109.00,0.0070
3108.00,0.0072
3107.00,0.0073
3106.00,0.0074
3105.00,0.0075
3104.00,0.0076
3103.00,0.0076
3102.00,0.0077
3101.00,0.0077
3100.00,0.0076
3099.00,0.0076
3098.00,0.0075
3097.00,0.0075
3096.00,0.0074
3095.00,0.0075
3094.00,0.0076
3093.00,0.0078
3092.00,0.0080
3091.00,0.0083
3090.00,0.0086
3089.00,0.0090
3088.00,0.0095
3087.00,0.0100
3086.00,0.0105
3085.00,0.0109
3084.00,0.0113
3083.00,0.0115
3082.00,0.0115
3081.00,0.0114
3080.00,0.0111
3079.00,0.0108
3078.00,0.0105
3077.00,0.0102
3076.00,0.0100
3075.00,0.0098
3074.00,0.0097
3073.00,0.0097
3072.00,0.0097
3071.00,0.0099
3070.00,0.0101
3069.00,0.0104
3068.00,0.0107
3067.00,0.0111
3066.00,0.0116
3065.00,0.0121
3064.00,0.0126
3063.00,0.0131
3062.00,0.0135
3061.00,0.0138
3060.00,0.0139
3059.00,0.0138
3058.00,0.0136
3057.00,0.0132
3056.00,0.0127
3055.00,0.0122
3054.00,0.0117
3053.00,0.0112
3052.00,0.0108
3051.00,0.0104
3050.00,0.0102
3049.00,0.0099
3048.00,0.0097
3047.00,0.0096
3046.00,0.0095
3045.00,0.0094
3044.00,0.0094
3043.00,0.0095
3042.00,0.0096
3041.00,0.0098
3040.00,0.0101
3039.00,0.0104
3038.00,0.0107
3037.00,0.0112
3036.00,0.0118
3035.00,0.0125
3034.00,0.0133
3033.00,0.0143
3032.00,0.0154
3031.00,0.0166
3030.00,0.0179
3029.00,0.0191
3028.00,0.0202
3027.00,0.0211
3026.00,0.0216
3025.00,0.0216
3024.00,0.0212
3023.00,0.0203
3022.00,0.0191
3021.00,0.0177
3020.00,0.0162
3019.00,0.0147
3018.00,0.0134
3017.00,0.0122
3016.00,0.0112
3015.00,0.0104
3014.00,0.0099
3013.00,0.0095
3012.00,0.0092
3011.00,0.0089
3010.00,0.0088
3009.00,0.0087
3008.00,0.0086
3007.00,0.0087
3006.00,0.0087
3005.00,0.0088
3004.00,0.0090
3003.00,0.0091
3002.00,0.0092
3001.00,0.0092
3000.00,0.0090
2999.00,0.0088
2998.00,0.0086
2997.00,0.0083
2996.00,0.0080
2995.00,0.0077
2994.00,0.0075
2993.00,0.0072
2992.00,0.0071
2991.00,0.0069
2990.00,0.0069
2989.00,0.0068
2988.00,0.0068
2987.00,0.0067
2986.00,0.0067
2985.00,0.0067
2984.00,0.0067
2983.00,0.0067
2982.00,0.0068
2981.00,0.0068
2980.00,0.0069
2979.00,0.0069
2978.00,0.0070
2977.00,0.0070
2976.00,0.0070
2975.00,0.0070
2974.00,0.0070
2973.00,0.0071
2972.00,0.0071
2971.00,0.0072
2970.00,0.0072
2969.00,0.0072
2968.00,0.0073
2967.00,0.0073
2966.00,0.0074
2965.00,0.0075
2964.00,0.0076
2963.00,0.0077
2962.00,0.0078
2961.00,0.0080
2960.00,0.0081
2959.00,0.0082
2958.00,0.0083
2957.00,0.0084
2956.00,0.0086
2955.00,0.0088
2954.00,0.0090
2953.00,0.0093
2952.00,0.0095
2951.00,0.0098
2950.00,0.0101
2949.00,0.0104
2948.00,0.0108
2947.00,0.0112
2946.00,0.0116
2945.00,0.0120
2944.00,0.0125
2943.00,0.0130
2942.00,0.0135
2941.00,0.0140
2940.00,0.0146
2939.00,0.0151
2938.00,0.0158
2937.00,0.0164
2936.00,0.0171
2935.00,0.0179
2934.00,0.0187
2933.00,0.0194
2932.00,0.0202
2931.00,0.0209
2930.00,0.0216
2929.00,0.0223
2928.00,0.0229
2927.00,0.0235
2926.00,0.0241
2925.00,0.0245
2924.00,0.0250
2923.00,0.0253
2922.00,0.0257
2921.00,0.0259
2920.00,0.0260
2919.00,0.0261
2918.00,0.0260
2917.00,0.0258
2916.00,0.0254
2915.00,0.0249
2914.00,0.0243
2913.00,0.0237
2912.00,0.0230
2911.00,0.0224
2910.00,0.0217
2909.00,0.0211
2908.00,0.0205
2907.00,0.0200
2906.00,0.0194
2905.00,0.0188
2904.00,0.0182
2903.00,0.0176
2902.00,0.0171
2901.00,0.0165
2900.00,0.0160
2899.00,0.0155
2898.00,0.0151
2897.00,0.0146
2896.00,0.0142
2895.00,0.0138
2894.00,0.0135
2893.00,0.0132
2892.00,0.0129
2891.00,0.0126
2890.00,0.0123
2889.00,0.0121
2888.00,0.0119
2887.00,0.0117
2886.00,0.0116
2885.00,0.0114
2884.00,0.0112
2883.00,0.0110
2882.00,0.0108
2881.00,0.0107
2880.00,0.0105
2879.00,0.0103
2878.00,0.0102
2877.00,0.0100
2876.00,0.0099
2875.00,0.0098
2874.00,0.0097
2873.00,0.0096
2872.00,0.0095
2871.00,0.0095
2870.00,0.0094
2869.00,0.0093
2868.00,0.0093
2867.00,0.0093
2866.00,0.0094
2865.00,0.0095
2864.00,0.0096
2863.00,0.0097
2862.00,0.0099
2861.00,0.0101
2860.00,0.0104
2859.00,0.0107
2858.00,0.0111
2857.00,0.0115
2856.00,0.0119
2855.00,0.0123
2854.00,0.0127
2853.00,0.0132
2852.00,0.0136
2851.00,0.0139
2850.00,0.0141
2849.00,0.0142
2848.00,0.0141
2847.00,0.0139
2846.00,0.0135
2845.00,0.0130
2844.00,0.0124
2843.00,0.0118
2842.00,0.0113
2841.00,0.0107
2840.00,0.0101
2839.00,0.0095
2838.00,0.0090
2837.00,0.0085
2836.00,0.0081
2835.00,0.0078
2834.00,0.0075
2833.00,0.0073
2832.00,0.0071
2831.00,0.0069
2830.00,0.0067
2829.00,0.0066
2828.00,0.0065
2827.00,0.0064
2826.00,0.0063
2825.00,0.0062
2824.00,0.0062
2823.00,0.0061
2822.00,0.0061
2821.00,0.0061
2820.00,0.0061
2819.00,0.0061
2818.00,0.0060
2817.00,0.0060
2816.00,0.0059
2815.00,0.0059
2814.00,0.0058
2813.00,0.0058
2812.00,0.0058
2811.00,0.0058
2810.00,0.0058
2809.00,0.0058
2808.00,0.0058
2807.00,0.0058
2806.00,0.0058
2805.00,0.0057
2804.00,0.0057
2803.00,0.0057
2802.00,0.0056
2801.00,0.0056
2800.00,0.0056
2799.00,0.0056
2798.00,0.0055
2797.00,0.0055
2796.00,0.0054
2795.00,0.0054
2794.00,0.0054
2793.00,0.0055
2792.00,0.0055
2791.00,0.0054
2790.00,0.0054
2789.00,0.0054
2788.00,0.0053
2787.00,0.0053
2786.00,0.0053
2785.00,0.0053
2784.00,0.0053
2783.00,0.0053
2782.00,0.0053
2781.00,0.0053
2780.00,0.0053
2779.00,0.0053
2778.00,0.0053
2777.00,0.0053
2776.00,0.0053
2775.00,0.0052
2774.00,0.0052
2773.00,0.0052
2772.00,0.0051
2771.00,0.0051
2770.00,0.0051
2769.00,0.0051
2768.00,0.0051
2767.00,0.0051
2766.00,0.0051
2765.00,0.0050
2764.00,0.0050
2763.00,0.0050
2762.00,0.0050
2761.00,0.0050
2760.00,0.0050
2759.00,0.0050
2758.00,0.0050
2757.00,0.0050
